Wavelength	Irradiance
(nm)	(mW/cm2/nm)

294.396000	0.000000
294.577000	0.000000
294.757000	-0.000000
294.938000	-0.000000
295.118000	0.000000
295.299000	0.000000
295.479000	-0.000000
295.660000	-0.000000
295.840000	-0.000000
296.021000	-0.000000
296.202000	-0.000000
296.382000	-0.000000
296.563000	-0.000000
296.743000	-0.000000
296.924000	0.000000
297.104000	-0.000000
297.285000	-0.000000
297.465000	-0.000000
297.646000	-0.000000
297.826000	-0.000000
298.007000	0.000000
298.187000	-0.000000
298.368000	-0.000000
298.548000	0.000000
298.729000	0.000000
298.909000	-0.000000
299.090000	-0.000000
299.270000	-0.000000
299.451000	-0.000000
299.631000	-0.000000
299.812000	-0.000000
299.992000	0.000000
300.173000	0.000000
300.353000	-0.000000
300.534000	0.000000
300.714000	0.000000
300.895000	0.000000
301.075000	-0.000000
301.256000	0.000000
301.436000	-0.000000
301.617000	-0.000000
301.797000	-0.000000
301.978000	-0.000000
302.159000	0.000000
302.339000	0.000000
302.520000	-0.000000
302.700000	-0.000000
302.881000	0.000000
303.061000	0.000000
303.242000	0.000000
303.422000	0.000000
303.603000	-0.000000
303.783000	-0.000000
303.964000	-0.000000
304.144000	-0.000000
304.325000	-0.000000
304.505000	-0.000000
304.686000	-0.000000
304.866000	0.000000
305.047000	-0.000000
305.227000	-0.000000
305.408000	-0.000000
305.588000	-0.000000
305.769000	-0.000000
305.949000	-0.000000
306.130000	-0.000000
306.310000	-0.000000
306.491000	-0.000000
306.671000	0.000000
306.852000	-0.000000
307.032000	-0.000000
307.213000	-0.000000
307.393000	-0.000000
307.574000	0.000000
307.755000	0.000000
307.935000	0.000000
308.116000	-0.000000
308.296000	-0.000000
308.477000	0.000000
308.657000	0.000000
308.838000	0.000000
309.018000	0.000000
309.199000	-0.000000
309.379000	-0.000000
309.560000	0.000000
309.740000	-0.000000
309.921000	0.000000
310.101000	-0.000000
310.282000	-0.000000
310.462000	-0.000000
310.643000	-0.000000
310.823000	-0.000000
311.004000	-0.000000
311.184000	-0.000000
311.365000	0.000000
311.545000	0.000000
311.726000	0.000000
311.906000	-0.000000
312.087000	0.000000
312.267000	-0.000000
312.448000	-0.000000
312.628000	-0.000000
312.809000	-0.000000
312.989000	-0.000000
313.170000	-0.000000
313.344000	-0.000000
313.518000	-0.000000
313.691000	-0.000000
313.865000	-0.000000
314.039000	-0.000000
314.213000	-0.000000
314.387000	-0.000000
314.560000	-0.000000
314.734000	-0.000000
314.908000	-0.000000
315.082000	-0.000000
315.255000	0.000000
315.429000	0.000000
315.603000	0.000000
315.777000	-0.000000
315.951000	0.000000
316.124000	-0.000000
316.298000	-0.000000
316.472000	-0.000000
316.646000	-0.000000
316.820000	-0.000000
316.993000	-0.000000
317.167000	-0.000000
317.341000	-0.000000
317.515000	-0.000000
317.688000	-0.000000
317.862000	-0.000000
318.036000	-0.000000
318.210000	-0.000000
318.384000	-0.000000
318.557000	-0.000000
318.731000	-0.000000
318.905000	0.000000
319.079000	0.000000
319.253000	-0.000000
319.426000	0.000000
319.600000	0.000000
319.774000	-0.000000
319.948000	-0.000000
320.122000	0.000000
320.295000	-0.000000
320.469000	-0.000000
320.643000	-0.000000
320.817000	-0.000000
320.990000	-0.000000
321.164000	-0.000000
321.338000	-0.000000
321.512000	-0.000000
321.686000	-0.000000
321.859000	-0.000000
322.033000	-0.000000
322.207000	-0.000000
322.381000	-0.000000
322.555000	0.000000
322.728000	-0.000000
322.902000	-0.000000
323.076000	-0.000000
323.250000	-0.000000
323.423000	-0.000000
323.597000	-0.000000
323.771000	-0.000000
323.945000	-0.000000
324.119000	-0.000000
324.292000	0.000000
324.466000	-0.000000
324.640000	0.000000
324.814000	0.000000
324.988000	-0.000000
325.161000	-0.000000
325.335000	-0.000000
325.509000	-0.000000
325.683000	-0.000000
325.856000	-0.000000
326.030000	-0.000000
326.204000	-0.000000
326.378000	-0.000000
326.552000	-0.000000
326.725000	-0.000000
326.899000	-0.000000
327.073000	-0.000000
327.247000	-0.000000
327.421000	0.000000
327.594000	-0.000000
327.768000	-0.000000
327.942000	-0.000000
328.116000	0.000000
328.289000	0.000000
328.463000	0.000000
328.637000	0.000000
328.811000	-0.000000
328.985000	-0.000000
329.158000	-0.000000
329.332000	-0.000000
329.506000	0.000000
329.680000	-0.000000
329.854000	-0.000000
330.027000	0.000000
330.201000	0.000000
330.375000	0.000000
330.549000	0.000000
330.723000	-0.000000
330.896000	-0.000000
331.070000	-0.000000
331.244000	-0.000000
331.418000	-0.000000
331.591000	-0.000000
331.765000	-0.000000
331.939000	-0.000000
332.113000	-0.000000
332.287000	-0.000000
332.460000	0.000000
332.634000	0.000000
332.808000	-0.000000
332.982000	-0.000000
333.156000	-0.000000
333.329000	-0.000000
333.503000	-0.000000
333.677000	-0.000000
333.851000	-0.000000
334.024000	-0.000000
334.198000	-0.000000
334.372000	-0.000000
334.546000	-0.000000
334.720000	-0.000000
334.893000	-0.000000
335.067000	-0.000000
335.241000	0.000000
335.415000	-0.000000
335.589000	-0.000000
335.762000	-0.000000
335.936000	-0.000000
336.110000	-0.000000
336.284000	-0.000000
336.458000	-0.000000
336.631000	-0.000000
336.805000	-0.000000
336.979000	-0.000000
337.153000	-0.000000
337.326000	-0.000000
337.500000	-0.000000
337.674000	-0.000000
337.848000	-0.000000
338.022000	-0.000000
338.195000	-0.000000
338.369000	-0.000000
338.543000	-0.000000
338.717000	-0.000000
338.891000	0.000000
339.064000	0.000000
339.238000	-0.000000
339.412000	-0.000000
339.586000	-0.000000
339.759000	-0.000000
339.933000	-0.000000
340.107000	0.000000
340.281000	-0.000000
340.455000	-0.000000
340.628000	-0.000000
340.802000	-0.000000
340.976000	-0.000000
341.150000	-0.000000
341.324000	-0.000000
341.497000	-0.000000
341.671000	-0.000000
341.845000	-0.000000
342.019000	-0.000000
342.192000	-0.000000
342.366000	-0.000000
342.540000	-0.000000
342.714000	-0.000000
342.888000	-0.000000
343.061000	-0.000000
343.235000	-0.000000
343.409000	-0.000000
343.583000	-0.000000
343.757000	-0.000000
343.930000	-0.000000
344.104000	-0.000000
344.278000	0.000000
344.452000	0.000000
344.626000	-0.000000
344.799000	-0.000000
344.973000	-0.000000
345.147000	-0.000000
345.321000	-0.000000
345.494000	-0.000000
345.668000	0.000000
345.842000	0.000000
346.016000	-0.000000
346.190000	0.000000
346.363000	0.000000
346.537000	-0.000000
346.711000	-0.000000
346.885000	-0.000000
347.059000	-0.000000
347.232000	0.000000
347.406000	0.000000
347.580000	-0.000000
347.754000	-0.000000
347.927000	-0.000000
348.101000	0.000000
348.275000	-0.000000
348.449000	-0.000000
348.623000	-0.000000
348.796000	-0.000000
348.970000	0.000000
349.144000	-0.000000
349.318000	-0.000000
349.492000	-0.000000
349.665000	-0.000000
349.839000	-0.000000
350.013000	-0.000000
350.187000	-0.000000
350.361000	-0.000000
350.534000	-0.000000
350.708000	-0.000000
350.882000	-0.000000
351.056000	0.000000
351.229000	0.000000
351.403000	-0.000000
351.577000	-0.000000
351.751000	-0.000000
351.925000	-0.000000
352.098000	-0.000000
352.272000	-0.000000
352.446000	-0.000000
352.620000	-0.000000
352.794000	-0.000000
352.967000	-0.000000
353.141000	0.000000
353.315000	0.000000
353.489000	-0.000000
353.662000	-0.000000
353.836000	-0.000000
354.010000	-0.000000
354.184000	-0.000000
354.358000	-0.000000
354.531000	-0.000000
354.705000	-0.000000
354.879000	-0.000000
355.053000	-0.000000
355.227000	0.000000
355.400000	-0.000000
355.574000	0.000000
355.748000	0.000000
355.922000	-0.000000
356.095000	-0.000000
356.269000	-0.000000
356.443000	-0.000000
356.617000	-0.000000
356.791000	-0.000000
356.964000	-0.000000
357.138000	-0.000000
357.312000	-0.000000
357.486000	-0.000000
357.660000	-0.000000
357.833000	-0.000000
358.007000	-0.000000
358.181000	-0.000000
358.355000	-0.000000
358.529000	-0.000000
358.702000	-0.000000
358.876000	-0.000000
359.050000	-0.000000
359.224000	-0.000000
359.397000	0.000000
359.571000	-0.000000
359.745000	-0.000000
359.919000	-0.000000
360.093000	-0.044531
360.266000	0.003778
360.440000	0.058029
360.614000	0.129105
360.788000	0.046547
360.962000	-0.173099
361.135000	-0.074036
361.309000	-0.175334
361.483000	-0.282904
361.657000	-0.241102
361.830000	-0.205234
362.004000	-0.049099
362.178000	-0.306482
362.352000	-0.191395
362.526000	-0.065304
362.699000	-0.062702
362.873000	-0.353689
363.047000	-0.336030
363.221000	-0.297148
363.395000	-0.155657
363.568000	-0.186532
363.742000	-0.180958
363.916000	-0.201313
364.090000	-0.281522
364.263000	-0.220676
364.437000	-0.314206
364.611000	-0.095299
364.785000	-0.073292
364.959000	-0.212628
365.132000	-0.212172
365.306000	-0.246607
365.480000	-0.103652
365.656000	-0.160794
365.831000	-0.179661
366.007000	-0.171183
366.183000	-0.139782
366.358000	-0.261239
366.534000	-0.194502
366.710000	-0.358276
366.886000	-0.260485
367.061000	-0.120260
367.237000	0.028439
367.413000	-0.088556
367.588000	-0.312417
367.764000	-0.309870
367.940000	-0.293982
368.115000	-0.243995
368.291000	-0.295858
368.467000	-0.200792
368.643000	0.081729
368.818000	-0.259642
368.994000	-0.390539
369.170000	-0.258967
369.345000	-0.189760
369.521000	-0.230545
369.697000	-0.143774
369.872000	-0.235819
370.048000	-0.328227
370.224000	-0.263106
370.399000	-0.427318
370.575000	-0.350173
370.751000	-0.436270
370.927000	-0.405901
371.102000	-0.371888
371.278000	-0.331362
371.454000	-0.214805
371.629000	-0.011523
371.805000	-0.082356
371.981000	0.045102
372.156000	0.196051
372.332000	0.033678
372.508000	-0.010044
372.683000	-0.034944
372.859000	-0.144617
373.035000	-0.155137
373.211000	0.181762
373.386000	-0.047577
373.562000	-0.402169
373.738000	-0.445613
373.913000	-0.523212
374.089000	-0.410134
374.265000	-0.054947
374.440000	-0.037358
374.616000	-0.001202
374.792000	-0.202967
374.968000	0.133554
375.143000	-0.052775
375.319000	-0.277550
375.495000	-0.332721
375.670000	-0.173040
375.846000	-0.079703
376.022000	-0.251189
376.197000	-0.206066
376.373000	-0.374910
376.549000	-0.364894
376.724000	-0.398910
376.900000	-0.285797
377.076000	-0.168734
377.252000	0.055993
377.427000	0.139718
377.603000	-0.169956
377.779000	-0.206409
377.954000	-0.327987
378.130000	-0.167036
378.306000	-0.157106
378.481000	-0.183784
378.657000	-0.241507
378.833000	-0.246815
379.009000	-0.117031
379.184000	-0.018456
379.360000	-0.058312
379.536000	-0.106351
379.711000	-0.196020
379.887000	-0.259539
380.063000	-0.276778
380.238000	-0.362142
380.414000	-0.084085
380.590000	-0.255278
380.765000	-0.274639
380.941000	-0.110735
381.117000	-0.107201
381.293000	-0.166210
381.468000	-0.295511
381.644000	-0.223452
381.820000	-0.131524
381.995000	-0.024044
382.171000	0.154146
382.347000	0.092204
382.522000	-0.273916
382.698000	0.059964
382.874000	0.058455
383.050000	-0.268221
383.225000	0.053045
383.401000	0.203433
383.577000	-0.114974
383.752000	-0.215903
383.928000	-0.147748
384.104000	-0.105206
384.279000	-0.187728
384.455000	-0.126208
384.631000	-0.174247
384.806000	-0.350046
384.982000	-0.149086
385.158000	-0.180221
385.334000	-0.031910
385.509000	-0.121988
385.685000	-0.395136
385.861000	-0.248127
386.036000	-0.364387
386.212000	-0.487655
386.388000	-0.304074
386.563000	-0.256119
386.739000	-0.316564
386.915000	-0.505259
387.090000	-0.243481
387.266000	-0.073158
387.442000	0.011570
387.618000	-0.052914
387.793000	-0.330094
387.969000	-0.504906
388.145000	-0.400741
388.320000	-0.325100
388.496000	-0.299409
388.672000	-0.490067
388.847000	-0.127886
389.023000	-0.095060
389.199000	-0.368975
389.375000	-0.202558
389.550000	-0.297534
389.726000	-0.161446
389.902000	-0.361119
390.077000	-0.214297
390.253000	-0.163778
390.429000	-0.266826
390.604000	-0.180264
390.780000	-0.139293
390.956000	-0.225973
391.131000	-0.250176
391.307000	-0.012052
391.483000	-0.187282
391.659000	-0.318378
391.834000	-0.111870
392.010000	-0.283803
392.186000	-0.322381
392.361000	-0.261421
392.537000	-0.379675
392.713000	0.050108
392.888000	0.195874
393.064000	-0.086374
393.240000	-0.204992
393.416000	-0.300363
393.591000	-0.372826
393.767000	-0.413337
393.943000	-0.337178
394.118000	-0.074305
394.294000	0.120034
394.470000	-0.020972
394.645000	0.024081
394.821000	0.217185
394.997000	-0.069828
395.172000	-0.110241
395.348000	-0.185590
395.524000	-0.450618
395.700000	-0.362009
395.875000	-0.145996
396.051000	-0.156239
396.227000	-0.196820
396.402000	-0.262587
396.578000	-0.185502
396.754000	-0.282771
396.929000	-0.242373
397.105000	0.001563
397.281000	-0.073961
397.457000	-0.185402
397.632000	-0.196295
397.808000	-0.409569
397.984000	-0.522270
398.159000	-0.433566
398.335000	-0.282271
398.511000	0.107629
398.686000	-0.100538
398.862000	-0.312926
399.038000	-0.397896
399.213000	-0.171763
399.389000	-0.427153
399.565000	-0.212209
399.741000	-0.016365
399.916000	-0.060411
400.092000	0.137700
400.268000	-0.164085
400.443000	-0.256281
400.619000	0.065881
400.795000	-0.026862
400.970000	-0.224035
401.146000	-0.292718
401.322000	-0.033231
401.497000	0.298856
401.673000	0.057181
401.849000	-0.227967
402.025000	-0.057521
402.200000	-0.175166
402.376000	-0.299239
402.552000	0.094076
402.727000	-0.067540
402.903000	-0.325247
403.079000	-0.224556
403.254000	-0.022756
403.430000	-0.067051
403.606000	-0.142210
403.782000	-0.144572
403.957000	-0.327167
404.133000	-0.434030
404.309000	-0.261513
404.484000	-0.097717
404.660000	-0.109473
404.841000	-0.214229
405.023000	-0.028949
405.204000	-0.081247
405.385000	-0.328524
405.566000	-0.344876
405.748000	-0.227511
405.929000	-0.028193
406.110000	-0.075164
406.292000	-0.206030
406.473000	-0.132957
406.654000	-0.277233
406.835000	-0.133555
407.017000	-0.202877
407.198000	-0.189315
407.379000	-0.149983
407.560000	-0.190640
407.742000	-0.217431
407.923000	-0.176641
408.104000	-0.303727
408.286000	-0.185558
408.467000	-0.142228
408.648000	-0.312149
408.829000	-0.367767
409.011000	-0.262225
409.192000	-0.421601
409.373000	-0.202167
409.555000	-0.119955
409.736000	-0.132976
409.917000	-0.241962
410.098000	-0.259158
410.280000	-0.136603
410.461000	-0.132635
410.642000	-0.127903
410.823000	0.053730
411.005000	0.017684
411.186000	-0.179197
411.367000	-0.280378
411.549000	-0.265219
411.730000	-0.050836
411.911000	0.048760
412.092000	-0.160974
412.274000	-0.204071
412.455000	-0.116924
412.636000	-0.084934
412.818000	-0.240754
412.999000	-0.328279
413.180000	-0.261457
413.361000	-0.271064
413.543000	-0.289242
413.724000	-0.331323
413.905000	-0.327664
414.087000	-0.346740
414.268000	-0.323537
414.449000	-0.331432
414.630000	-0.392483
414.812000	-0.459849
414.993000	-0.149392
415.174000	-0.050465
415.355000	-0.240278
415.537000	-0.429087
415.718000	-0.177719
415.899000	-0.273751
416.081000	-0.365183
416.262000	-0.144909
416.443000	-0.242665
416.624000	-0.213452
416.806000	-0.131332
416.987000	-0.040622
417.168000	-0.134755
417.350000	-0.289990
417.531000	-0.332173
417.712000	-0.300095
417.893000	-0.094694
418.075000	-0.015132
418.256000	-0.209619
418.437000	-0.140230
418.618000	-0.105327
418.800000	-0.050686
418.981000	-0.229547
419.162000	-0.174213
419.344000	0.008485
419.525000	-0.094550
419.706000	-0.187175
419.887000	-0.060136
420.069000	0.066458
420.250000	-0.044688
420.431000	-0.082318
420.613000	-0.108777
420.794000	-0.303679
420.975000	-0.029138
421.156000	-0.176340
421.338000	-0.200897
421.519000	-0.202032
421.700000	-0.275758
421.882000	-0.275708
422.063000	-0.113871
422.244000	0.275281
422.425000	0.075427
422.607000	-0.251444
422.788000	-0.266821
422.969000	-0.310742
423.150000	-0.315802
423.332000	-0.365265
423.513000	-0.203076
423.694000	-0.188785
423.876000	-0.150523
424.057000	-0.071621
424.238000	-0.028141
424.419000	-0.013993
424.601000	-0.178804
424.782000	-0.137166
424.963000	0.033126
425.145000	-0.051591
425.326000	-0.051370
425.507000	-0.020846
425.688000	-0.136303
425.870000	-0.247929
426.051000	-0.337779
426.232000	-0.279073
426.413000	-0.263007
426.595000	-0.285116
426.776000	-0.302591
426.957000	-0.226095
427.139000	-0.153536
427.320000	-0.136529
427.501000	-0.067229
427.682000	-0.091634
427.864000	-0.063331
428.045000	0.097044
428.226000	0.051184
428.408000	-0.279113
428.589000	-0.155347
428.770000	-0.142058
428.951000	-0.241606
429.133000	-0.340377
429.314000	-0.185612
429.495000	-0.223439
429.677000	-0.180975
429.858000	-0.178830
430.039000	-0.154434
430.220000	-0.066566
430.402000	-0.000935
430.583000	-0.229282
430.764000	-0.208541
430.945000	-0.107278
431.127000	-0.020653
431.308000	-0.155687
431.489000	-0.017188
431.671000	0.030552
431.852000	-0.075058
432.033000	-0.134146
432.214000	-0.070295
432.396000	-0.026291
432.577000	-0.174273
432.758000	-0.336956
432.940000	-0.238210
433.121000	-0.128113
433.302000	-0.139213
433.483000	-0.002070
433.665000	0.101497
433.846000	0.027843
434.027000	-0.094668
434.208000	-0.197309
434.390000	-0.216373
434.571000	0.141252
434.752000	0.513496
434.934000	0.325064
435.115000	0.253257
435.296000	0.329174
435.477000	0.189098
435.659000	-0.047896
435.840000	0.003592
436.026000	0.000224
436.211000	-0.142873
436.397000	-0.370643
436.582000	-0.248146
436.768000	-0.056532
436.953000	-0.159810
437.139000	-0.138392
437.325000	0.092960
437.510000	0.036649
437.696000	0.156557
437.881000	0.124432
438.067000	-0.179021
438.252000	-0.135406
438.438000	-0.170285
438.624000	-0.172479
438.809000	-0.116258
438.995000	-0.042187
439.180000	-0.075659
439.366000	-0.126472
439.551000	-0.167394
439.737000	-0.107701
439.923000	-0.048410
440.108000	-0.156262
440.294000	-0.091233
440.479000	0.040952
440.665000	0.070508
440.850000	-0.025208
441.036000	-0.034820
441.222000	-0.053090
441.407000	-0.168714
441.593000	-0.068549
441.778000	0.038206
441.964000	0.107265
442.149000	-0.190905
442.335000	-0.214109
442.521000	-0.109980
442.706000	0.009616
442.892000	-0.064452
443.077000	-0.133732
443.263000	-0.033138
443.448000	-0.056848
443.634000	-0.140975
443.820000	0.128112
444.005000	0.015669
444.191000	-0.179531
444.376000	-0.132421
444.562000	0.148369
444.747000	0.125519
444.933000	0.039125
445.119000	-0.070298
445.304000	-0.135439
445.490000	0.016529
445.675000	0.009382
445.861000	-0.144994
446.046000	-0.144677
446.232000	-0.077231
446.418000	-0.015063
446.603000	-0.021167
446.789000	-0.032326
446.974000	-0.047718
447.160000	-0.228384
447.345000	-0.163517
447.531000	-0.189627
447.717000	-0.039417
447.902000	0.024688
448.088000	0.062067
448.273000	-0.032085
448.459000	-0.025958
448.644000	-0.104491
448.830000	-0.189757
449.016000	-0.243107
449.201000	-0.183282
449.387000	-0.056381
449.572000	0.042512
449.758000	-0.083358
449.943000	-0.194376
450.129000	-0.198621
450.315000	-0.158157
450.500000	-0.173342
450.686000	-0.116376
450.871000	-0.198975
451.057000	-0.079132
451.243000	-0.096093
451.428000	-0.118319
451.614000	-0.115033
451.799000	-0.158026
451.985000	0.010210
452.170000	0.066203
452.356000	-0.106728
452.542000	-0.125866
452.727000	0.005186
452.913000	-0.096705
453.098000	0.019179
453.284000	0.188923
453.469000	0.067181
453.655000	0.149898
453.841000	0.068952
454.026000	-0.090079
454.212000	-0.045306
454.397000	-0.008717
454.583000	-0.150677
454.768000	-0.207493
454.954000	-0.028447
455.140000	-0.007691
455.325000	-0.142457
455.511000	-0.235089
455.696000	-0.222258
455.882000	-0.090559
456.067000	0.105801
456.253000	-0.066920
456.439000	-0.189282
456.624000	-0.173904
456.810000	-0.185197
456.995000	-0.149104
457.181000	-0.207490
457.366000	-0.046589
457.552000	-0.026984
457.738000	0.030251
457.923000	0.015735
458.109000	0.165815
458.294000	0.104333
458.480000	0.045994
458.665000	-0.010493
458.851000	-0.124917
459.037000	-0.281119
459.222000	-0.159743
459.408000	-0.128915
459.593000	-0.056380
459.779000	0.061360
459.964000	0.161044
460.150000	0.263000
460.336000	0.186078
460.521000	0.035398
460.707000	-0.083352
460.892000	-0.177940
461.078000	-0.006458
461.263000	0.072045
461.449000	-0.077615
461.635000	-0.084167
461.820000	-0.059404
462.006000	0.038806
462.191000	0.033971
462.377000	-0.152328
462.562000	0.104380
462.748000	0.271710
462.934000	-0.056993
463.119000	-0.213486
463.305000	-0.041623
463.490000	-0.092274
463.676000	-0.042454
463.861000	-0.077086
464.047000	-0.135310
464.233000	-0.042225
464.418000	-0.052310
464.604000	-0.145008
464.789000	0.014898
464.975000	0.047851
465.160000	-0.063175
465.346000	-0.074151
465.532000	-0.152379
465.717000	-0.176906
465.903000	0.025834
466.088000	-0.012627
466.274000	-0.156390
466.459000	-0.167508
466.645000	0.124299
466.831000	0.081802
467.016000	0.085289
467.202000	0.005639
467.387000	-0.064209
467.573000	-0.195823
467.758000	0.032559
467.944000	-0.069045
468.130000	-0.154346
468.315000	-0.038698
468.501000	0.083967
468.686000	0.025344
468.872000	0.013666
469.057000	0.043323
469.243000	-0.048424
469.429000	-0.063677
469.614000	-0.129024
469.800000	-0.184658
469.985000	-0.057962
470.171000	0.013545
470.356000	-0.063327
470.542000	-0.010595
470.728000	-0.031138
470.913000	-0.069268
471.099000	0.036657
471.284000	-0.039247
471.470000	-0.087762
471.655000	-0.070723
471.841000	-0.061552
472.027000	-0.104826
472.212000	0.073209
472.398000	0.110085
472.583000	-0.009661
472.769000	-0.017744
472.954000	-0.067824
473.140000	-0.170884
473.326000	-0.159506
473.511000	0.087426
473.697000	0.086637
473.882000	-0.048151
474.068000	-0.093078
474.253000	-0.166787
474.439000	-0.108924
474.625000	-0.012319
474.810000	-0.018580
474.996000	-0.041806
475.181000	-0.155569
475.367000	-0.007840
475.552000	0.168624
475.738000	-0.084461
475.924000	-0.105189
476.109000	-0.021243
476.295000	-0.111454
476.480000	-0.065082
476.666000	-0.075694
476.851000	-0.073870
477.037000	-0.031209
477.223000	-0.106123
477.408000	-0.203547
477.594000	-0.263166
477.779000	-0.138472
477.965000	-0.130467
478.151000	-0.228852
478.336000	-0.092951
478.522000	-0.146329
478.707000	-0.174898
478.893000	-0.085750
479.078000	-0.215175
479.264000	-0.196382
479.450000	-0.163238
479.635000	-0.045551
479.821000	-0.113001
480.006000	-0.085988
480.192000	-0.067075
480.377000	-0.049247
480.563000	-0.058177
480.749000	-0.245077
480.934000	-0.227764
481.120000	-0.102645
481.305000	0.008215
481.491000	0.000179
481.676000	0.003774
481.862000	0.010988
482.048000	-0.120748
482.233000	-0.083028
482.419000	-0.085906
482.604000	-0.155112
482.790000	-0.156013
482.975000	-0.099553
483.161000	0.027949
483.347000	0.034165
483.532000	0.001073
483.718000	-0.194579
483.903000	-0.146319
484.089000	-0.110999
484.274000	-0.216456
484.460000	-0.090416
484.646000	-0.050056
484.831000	-0.141658
485.017000	-0.091100
485.202000	-0.074849
485.388000	0.141209
485.573000	0.133804
485.759000	-0.036438
485.945000	0.086827
486.130000	-0.053378
486.316000	-0.056077
486.501000	0.021552
486.687000	-0.114546
486.872000	-0.170728
487.058000	-0.026544
487.244000	-0.018539
487.429000	-0.169563
487.615000	-0.022933
487.800000	0.059721
487.986000	-0.039663
488.171000	0.036560
488.357000	-0.014857
488.543000	-0.010398
488.728000	0.035434
488.914000	-0.021874
489.099000	-0.105601
489.285000	-0.114334
489.470000	0.050259
489.656000	0.079313
489.842000	0.035212
490.027000	0.106715
490.213000	0.000175
490.398000	-0.246237
490.584000	-0.043518
490.769000	-0.027789
490.955000	0.031579
491.141000	0.047177
491.326000	-0.003296
491.512000	0.105077
491.697000	0.021803
491.883000	-0.101962
492.068000	-0.115825
492.254000	-0.080476
492.440000	-0.049228
492.625000	-0.099200
492.811000	-0.111935
492.996000	-0.013607
493.182000	-0.008413
493.367000	-0.159091
493.553000	-0.245246
493.739000	-0.164914
493.924000	-0.060084
494.110000	-0.028145
494.295000	-0.124728
494.481000	-0.058929
494.666000	-0.046971
494.852000	0.091738
495.038000	-0.047654
495.223000	-0.164899
495.409000	-0.093690
495.594000	-0.117776
495.780000	-0.073142
495.965000	-0.144042
496.151000	0.033410
496.337000	0.075954
496.522000	-0.137240
496.708000	-0.070487
496.893000	0.065716
497.079000	-0.071154
497.264000	-0.115934
497.450000	-0.079524
497.636000	0.019687
497.821000	-0.102241
498.007000	0.052645
498.192000	0.104663
498.378000	-0.030360
498.563000	-0.099932
498.749000	-0.066066
498.935000	-0.066815
499.120000	0.010319
499.306000	-0.131124
499.491000	-0.171318
499.677000	-0.072458
499.862000	-0.010003
500.048000	0.031590
500.234000	-0.059124
500.419000	-0.092327
500.605000	0.051131
500.790000	-0.021889
500.976000	-0.156188
501.161000	-0.218163
501.347000	-0.063543
501.533000	0.018871
501.718000	-0.059299
501.904000	-0.114786
502.089000	-0.017738
502.275000	0.026538
502.460000	-0.082942
502.646000	-0.036340
502.832000	0.005267
503.017000	0.003575
503.203000	-0.157528
503.388000	-0.211738
503.574000	-0.036476
503.759000	-0.010054
503.945000	0.011266
504.131000	-0.047623
504.316000	-0.078299
504.502000	-0.063824
504.687000	-0.074261
504.873000	-0.180448
505.058000	-0.221509
505.244000	-0.231724
505.430000	-0.179007
505.615000	-0.100261
505.801000	-0.034226
505.986000	-0.181259
506.172000	-0.117145
506.358000	-0.078790
506.543000	-0.089899
506.729000	0.066263
506.914000	0.007054
507.100000	0.087351
507.285000	-0.103580
507.471000	-0.194148
507.657000	0.032124
507.842000	-0.064504
508.028000	-0.203480
508.213000	-0.171980
508.399000	-0.115989
508.584000	0.004512
508.770000	-0.116765
508.956000	-0.141130
509.141000	-0.095100
509.327000	-0.023260
509.512000	-0.093190
509.698000	-0.101124
509.883000	-0.026741
510.069000	-0.106032
510.255000	-0.078209
510.440000	-0.047786
510.626000	-0.112256
510.811000	-0.159549
510.997000	-0.074903
511.182000	0.123120
511.368000	0.021124
511.554000	-0.254863
511.739000	-0.179632
511.925000	-0.017293
512.110000	-0.039091
512.296000	0.078029
512.481000	0.093660
512.667000	-0.000700
512.853000	-0.159912
513.038000	-0.100567
513.224000	-0.129507
513.409000	-0.190824
513.595000	-0.096355
513.780000	-0.236644
513.966000	-0.166948
514.152000	-0.162593
514.337000	-0.203805
514.523000	-0.139910
514.708000	-0.109378
514.894000	-0.095618
515.079000	-0.183662
515.265000	-0.135980
515.451000	-0.112309
515.636000	-0.205310
515.822000	-0.112367
516.007000	-0.194166
516.193000	-0.070984
516.378000	0.021296
516.564000	-0.065729
516.750000	-0.093882
516.935000	-0.020932
517.121000	-0.004221
517.306000	0.065305
517.492000	0.020449
517.677000	-0.182076
517.863000	-0.199722
518.049000	-0.089674
518.234000	-0.151222
518.420000	-0.030670
518.605000	0.120875
518.791000	0.068861
518.976000	-0.028113
519.162000	-0.127778
519.348000	-0.063373
519.533000	-0.081789
519.719000	0.088400
519.904000	0.031090
520.090000	0.000176
520.275000	0.133364
520.461000	0.075298
520.647000	-0.104974
520.832000	-0.251450
521.018000	-0.165077
521.203000	-0.118734
521.389000	-0.262117
521.574000	-0.206878
521.760000	-0.052758
521.946000	-0.061768
522.131000	-0.142419
522.317000	-0.137778
522.502000	-0.174845
522.688000	-0.081182
522.873000	-0.105159
523.059000	-0.115863
523.245000	-0.097170
523.430000	-0.216030
523.616000	-0.170791
523.801000	-0.229561
523.987000	-0.174879
524.172000	-0.064684
524.358000	-0.030934
524.544000	-0.072593
524.729000	-0.007789
524.915000	0.040989
525.100000	-0.075206
525.286000	-0.031797
525.471000	-0.037230
525.657000	-0.016762
525.843000	-0.208701
526.028000	-0.091829
526.214000	-0.132870
526.399000	-0.201313
526.585000	-0.228225
526.770000	-0.254171
526.956000	-0.154248
527.142000	-0.209876
527.327000	-0.094185
527.513000	-0.177985
527.698000	-0.192597
527.884000	-0.151709
528.069000	-0.177571
528.255000	-0.078422
528.441000	-0.141834
528.626000	-0.122308
528.812000	0.076336
528.997000	-0.048874
529.183000	-0.164175
529.368000	-0.112026
529.554000	-0.099517
529.740000	-0.089708
529.925000	-0.133764
530.111000	-0.123809
530.296000	-0.075242
530.482000	0.024159
530.667000	-0.051473
530.853000	-0.021099
531.039000	-0.083283
531.224000	-0.040840
531.410000	0.019761
531.595000	-0.056726
531.781000	0.000187
531.967000	-0.120860
532.152000	-0.018637
532.338000	-0.079980
532.523000	-0.184075
532.709000	-0.216054
532.894000	-0.126572
533.080000	-0.083773
533.266000	-0.219424
533.451000	-0.229823
533.637000	-0.164226
533.822000	-0.034559
534.008000	-0.162807
534.193000	-0.135337
534.379000	-0.045469
534.565000	-0.108082
534.750000	-0.146667
534.936000	0.047371
535.121000	-0.078630
535.307000	-0.061000
535.492000	-0.064064
535.678000	-0.228547
535.864000	-0.107743
536.049000	0.154002
536.235000	-0.037034
536.420000	-0.060455
536.606000	-0.113349
536.791000	-0.218048
536.977000	-0.209392
537.163000	-0.017243
537.348000	-0.016312
537.534000	0.043859
537.719000	-0.085228
537.905000	-0.197479
538.090000	-0.019742
538.276000	0.066601
538.462000	0.037215
538.647000	0.029935
538.833000	-0.078769
539.018000	0.048469
539.204000	0.027041
539.389000	-0.155364
539.575000	0.113755
539.761000	0.069767
539.946000	-0.172293
540.132000	-0.040336
540.317000	-0.125094
540.503000	-0.046047
540.688000	0.014633
540.874000	0.238174
541.060000	0.371482
541.245000	0.211293
541.431000	0.056275
541.616000	0.118253
541.802000	0.089103
541.987000	0.197671
542.173000	0.206354
542.359000	0.086404
542.544000	0.185916
542.730000	0.043424
542.915000	0.064040
543.101000	0.223702
543.286000	0.066496
543.472000	0.056564
543.658000	0.101475
543.843000	0.091345
544.029000	0.260567
544.214000	0.136938
544.400000	-0.120391
544.585000	0.017668
544.771000	0.113354
544.957000	0.266699
545.142000	0.365171
545.328000	0.411869
545.513000	0.433786
545.699000	0.380197
545.884000	0.232855
546.070000	0.182164
546.261000	0.155558
546.451000	-0.006898
546.642000	-0.202298
546.833000	-0.110751
547.023000	-0.184703
547.214000	-0.130342
547.405000	0.011020
547.595000	0.224513
547.786000	0.148325
547.977000	-0.068570
548.167000	-0.183411
548.358000	-0.119901
548.549000	0.195129
548.740000	0.002680
548.930000	-0.250759
549.121000	-0.132949
549.312000	-0.199696
549.502000	-0.285021
549.693000	-0.141044
549.884000	-0.072264
550.074000	0.018746
550.265000	-0.156755
550.456000	-0.071628
550.646000	0.005217
550.837000	-0.025846
551.028000	-0.110492
551.218000	-0.009703
551.409000	-0.137183
551.600000	-0.117292
551.790000	-0.011047
551.981000	-0.215665
552.172000	-0.219840
552.362000	0.108364
552.553000	0.172090
552.744000	-0.007323
552.934000	-0.085683
553.125000	-0.156733
553.316000	-0.173301
553.506000	0.127197
553.697000	-0.051986
553.888000	-0.041719
554.079000	0.117363
554.269000	0.106013
554.460000	-0.163253
554.651000	-0.228636
554.841000	-0.376112
555.032000	-0.252322
555.223000	-0.139690
555.413000	-0.029144
555.604000	-0.060075
555.795000	-0.111714
555.985000	-0.056488
556.176000	-0.133624
556.367000	-0.370412
556.557000	-0.277379
556.748000	-0.189938
556.939000	-0.246487
557.129000	-0.325016
557.320000	-0.176687
557.511000	-0.175069
557.701000	-0.165782
557.892000	-0.126386
558.083000	0.051894
558.273000	-0.048805
558.464000	-0.236032
558.655000	-0.181645
558.845000	-0.101360
559.036000	-0.053806
559.227000	-0.107948
559.418000	0.018326
559.608000	0.081530
559.799000	-0.221350
559.990000	-0.299631
560.180000	-0.219179
560.371000	-0.339036
560.562000	-0.288472
560.752000	-0.144882
560.943000	-0.277304
561.134000	-0.408560
561.324000	-0.221185
561.515000	0.007921
561.706000	-0.119976
561.896000	-0.306051
562.087000	-0.199895
562.278000	-0.230401
562.468000	-0.351813
562.659000	-0.257987
562.850000	0.032078
563.040000	0.057537
563.231000	-0.323325
563.422000	-0.182590
563.612000	-0.260331
563.803000	-0.207835
563.994000	-0.256086
564.185000	-0.337598
564.375000	-0.157509
564.566000	-0.180008
564.757000	-0.194414
564.947000	-0.266149
565.138000	-0.138160
565.329000	-0.203181
565.519000	-0.323566
565.710000	-0.242229
565.901000	-0.055067
566.091000	0.036684
566.282000	-0.127599
566.473000	-0.153445
566.663000	-0.145778
566.854000	-0.286919
567.045000	-0.186980
567.235000	-0.134879
567.426000	-0.116241
567.617000	-0.115822
567.807000	-0.138108
567.998000	-0.121800
568.189000	-0.203115
568.379000	-0.160801
568.570000	-0.090601
568.761000	-0.149214
568.951000	-0.186893
569.142000	-0.248383
569.333000	-0.260626
569.524000	-0.325538
569.714000	-0.406032
569.905000	-0.460144
570.096000	-0.111787
570.286000	-0.042320
570.477000	0.081499
570.668000	-0.059128
570.858000	-0.091838
571.049000	-0.230359
571.240000	-0.302951
571.430000	-0.116776
571.621000	-0.180072
571.812000	-0.111099
572.002000	-0.071719
572.193000	-0.204508
572.384000	-0.130216
572.574000	-0.084804
572.765000	-0.128888
572.956000	-0.174968
573.146000	-0.047508
573.337000	-0.136761
573.528000	-0.151983
573.718000	-0.029416
573.909000	0.026294
574.100000	-0.024548
574.290000	-0.166818
574.481000	-0.152359
574.672000	-0.150183
574.863000	-0.072334
575.053000	-0.162152
575.244000	-0.098832
575.435000	-0.215171
575.625000	-0.231610
575.816000	-0.224376
576.007000	-0.115546
576.197000	-0.072823
576.388000	-0.093331
576.579000	-0.005543
576.769000	-0.002076
576.960000	-0.252166
577.155000	-0.413522
577.350000	-0.184582
577.545000	-0.029561
577.740000	-0.173411
577.935000	0.141589
578.130000	0.073245
578.326000	-0.205644
578.521000	0.028649
578.716000	0.069257
578.911000	-0.195333
579.106000	-0.094372
579.301000	-0.007634
579.496000	-0.141912
579.691000	-0.340836
579.886000	-0.218378
580.081000	-0.097774
580.276000	-0.063097
580.471000	-0.170822
580.666000	-0.283619
580.861000	-0.295710
581.057000	-0.281485
581.252000	-0.162851
581.447000	-0.186837
581.642000	-0.209326
581.837000	-0.214580
582.032000	-0.169807
582.227000	0.035345
582.422000	0.023227
582.617000	-0.148109
582.812000	-0.256512
583.007000	-0.229192
583.202000	-0.279777
583.397000	-0.063590
583.592000	0.097376
583.788000	-0.135375
583.983000	-0.118045
584.178000	-0.021253
584.373000	-0.189205
584.568000	-0.201625
584.763000	-0.231751
584.958000	-0.314039
585.153000	-0.205028
585.348000	-0.198505
585.543000	-0.071441
585.738000	-0.087443
585.933000	-0.273517
586.128000	-0.067126
586.324000	-0.054441
586.519000	-0.059756
586.714000	0.023793
586.909000	0.071076
587.104000	0.048691
587.299000	-0.082495
587.494000	-0.081310
587.689000	-0.112639
587.884000	-0.114057
588.079000	-0.150720
588.274000	-0.138037
588.469000	-0.130215
588.664000	-0.022451
588.859000	-0.014917
589.055000	-0.041988
589.250000	-0.113465
589.445000	-0.232840
589.640000	-0.191803
589.835000	0.040453
590.030000	0.104582
590.225000	0.104601
590.420000	-0.061846
590.615000	-0.176332
590.810000	-0.157629
591.005000	-0.098156
591.200000	-0.181303
591.395000	-0.244689
591.591000	-0.136214
591.786000	-0.030317
591.981000	-0.126659
592.176000	-0.078693
592.371000	-0.079820
592.566000	-0.140021
592.761000	0.030892
592.956000	0.004609
593.151000	0.050722
593.346000	-0.048220
593.541000	-0.010778
593.736000	-0.041700
593.931000	-0.201746
594.126000	-0.146781
594.322000	-0.120249
594.517000	-0.203100
594.712000	-0.307106
594.907000	-0.317087
595.102000	-0.200856
595.297000	-0.087484
595.492000	-0.012016
595.687000	-0.173686
595.882000	-0.231773
596.077000	-0.109294
596.272000	0.030391
596.467000	0.040459
596.662000	-0.082564
596.857000	-0.094126
597.053000	-0.103286
597.248000	-0.075125
597.443000	-0.048198
597.638000	-0.099112
597.833000	-0.269823
598.028000	-0.106980
598.223000	-0.020126
598.418000	-0.103982
598.613000	-0.191175
598.808000	-0.081380
599.003000	-0.092814
599.198000	-0.255391
599.393000	-0.204206
599.589000	-0.101128
599.784000	-0.253908
599.979000	-0.165261
600.174000	0.031065
600.369000	-0.182697
600.564000	-0.140578
600.759000	0.055242
600.954000	0.136386
601.149000	-0.000918
601.344000	-0.255964
601.539000	-0.102137
601.734000	-0.175520
601.929000	-0.368277
602.124000	-0.315568
602.320000	-0.125615
602.515000	0.109930
602.710000	0.056930
602.905000	-0.251984
603.100000	-0.283921
603.295000	-0.215011
603.490000	-0.134389
603.685000	-0.114680
603.880000	-0.097387
604.075000	-0.242104
604.270000	-0.230941
604.465000	-0.133933
604.660000	-0.302176
604.856000	-0.198113
605.051000	-0.065230
605.246000	-0.101385
605.441000	-0.297831
605.636000	-0.330655
605.831000	-0.194212
606.026000	-0.279606
606.221000	-0.312818
606.416000	-0.165296
606.611000	0.009636
606.806000	0.007279
607.001000	0.129550
607.196000	-0.069189
607.391000	-0.226003
607.587000	-0.054077
607.782000	-0.070700
607.977000	-0.245097
608.172000	0.036915
608.367000	0.047563
608.562000	-0.114758
608.757000	-0.118276
608.952000	-0.179135
609.147000	0.174641
609.342000	0.107181
609.537000	-0.111663
609.732000	-0.083224
609.927000	-0.103289
610.122000	-0.016450
610.318000	0.271087
610.513000	0.364342
610.708000	0.236865
610.903000	0.346004
611.098000	0.421080
611.293000	0.337244
611.488000	0.320497
611.683000	0.259779
611.878000	0.233416
612.073000	0.222662
612.268000	0.190407
612.463000	0.233054
612.658000	0.208931
612.854000	0.125960
613.049000	0.042570
613.244000	0.135770
613.439000	0.185454
613.634000	-0.072570
613.829000	0.040302
614.024000	-0.058162
614.219000	-0.098302
614.414000	0.168246
614.609000	-0.011948
614.804000	-0.168052
614.999000	-0.152060
615.194000	-0.101148
615.389000	-0.081698
615.585000	-0.227656
615.780000	-0.075785
615.975000	-0.104198
616.170000	-0.101814
616.365000	0.069176
616.560000	0.198610
616.755000	0.111470
616.950000	0.022502
617.145000	0.073259
617.340000	-0.064163
617.535000	-0.285880
617.730000	-0.090296
617.925000	-0.220890
618.120000	-0.254513
618.316000	0.052558
618.511000	-0.048368
618.706000	-0.237441
618.901000	-0.151044
619.096000	-0.032382
619.291000	-0.090039
619.486000	-0.079003
619.681000	-0.333380
619.876000	-0.363440
620.071000	-0.220170
620.266000	0.002778
620.461000	0.078675
620.656000	0.035736
620.852000	-0.007341
621.047000	-0.138038
621.242000	-0.243664
621.437000	0.012989
621.632000	0.131700
621.827000	-0.016350
622.022000	-0.283525
622.217000	-0.144581
622.412000	0.034901
622.607000	0.028513
622.802000	-0.173224
622.997000	-0.181565
623.192000	-0.100316
623.387000	-0.101627
623.583000	-0.278865
623.778000	0.062458
623.973000	0.027489
624.168000	-0.033533
624.363000	0.009344
624.558000	0.076957
624.753000	-0.200575
624.948000	-0.006272
625.143000	0.013337
625.338000	-0.065224
625.533000	-0.172675
625.728000	-0.078430
625.923000	0.109191
626.119000	-0.039200
626.314000	-0.252543
626.509000	-0.248036
626.704000	-0.181155
626.899000	-0.169383
627.094000	-0.216071
627.289000	-0.211246
627.484000	-0.190409
627.679000	-0.209264
627.874000	-0.198844
628.069000	0.104653
628.264000	0.012301
628.459000	-0.088185
628.654000	-0.125825
628.850000	-0.235301
629.045000	-0.137187
629.240000	-0.188585
629.435000	-0.205038
629.630000	-0.079572
629.825000	-0.124226
630.020000	-0.102979
630.215000	-0.276723
630.410000	-0.239650
630.605000	-0.218017
630.800000	-0.132045
630.995000	0.024882
631.190000	0.207159
631.385000	0.027693
631.581000	-0.110960
631.776000	-0.073929
631.971000	-0.206513
632.166000	-0.128032
632.361000	-0.256580
632.556000	-0.194709
632.751000	-0.051055
632.946000	-0.163483
633.141000	-0.244718
633.336000	-0.208852
633.531000	-0.110202
633.726000	-0.117050
633.921000	-0.281235
634.117000	-0.399768
634.312000	-0.460589
634.507000	-0.359811
634.702000	-0.285772
634.897000	-0.255134
635.092000	-0.172330
635.287000	-0.090451
635.482000	-0.190189
635.677000	-0.075076
635.872000	-0.002560
636.067000	0.040195
636.262000	-0.137080
636.457000	-0.398742
636.652000	-0.357948
636.848000	-0.338706
637.043000	-0.294149
637.238000	-0.257478
637.433000	-0.362876
637.628000	-0.325394
637.823000	-0.106507
638.018000	-0.009833
638.213000	-0.173614
638.408000	-0.257907
638.603000	-0.314930
638.798000	-0.366303
638.993000	-0.250405
639.188000	-0.243201
639.383000	-0.287185
639.579000	0.052770
639.774000	-0.110805
639.969000	-0.260018
640.164000	-0.316312
640.359000	-0.332794
640.554000	-0.170138
640.749000	-0.133775
640.944000	-0.091247
641.139000	-0.122004
641.334000	-0.296406
641.529000	-0.612037
641.724000	-0.449893
641.919000	-0.281665
642.115000	-0.030942
642.310000	-0.045752
642.505000	-0.128892
642.700000	-0.129125
642.895000	-0.274257
643.090000	-0.159311
643.285000	0.046546
643.480000	-0.017644
643.675000	-0.052080
643.870000	0.219217
644.065000	0.067906
644.260000	-0.270052
644.455000	-0.174252
644.650000	-0.222955
644.846000	-0.138483
645.041000	-0.331435
645.236000	-0.469793
645.431000	-0.415974
645.626000	-0.547339
645.821000	-0.335413
646.016000	-0.251461
646.211000	0.062604
646.406000	-0.028621
646.601000	-0.068135
646.796000	-0.221697
646.991000	-0.393581
647.186000	-0.248133
647.381000	-0.071377
647.577000	-0.074498
647.772000	-0.021068
647.967000	-0.080767
648.162000	-0.122166
648.357000	-0.182116
648.552000	-0.036470
648.747000	-0.033425
648.942000	-0.008899
649.137000	-0.073560
649.332000	-0.232371
649.527000	-0.229193
649.722000	-0.012010
649.917000	0.057447
650.113000	-0.231052
650.308000	-0.337957
650.503000	-0.252869
650.698000	-0.122000
650.893000	-0.216596
651.088000	-0.103563
651.283000	-0.027656
651.478000	-0.293345
651.673000	-0.126967
651.868000	-0.262530
652.063000	-0.055789
652.258000	0.093885
652.453000	0.256955
652.648000	-0.051088
652.844000	-0.135294
653.039000	-0.104296
653.234000	-0.443242
653.429000	-0.539474
653.624000	-0.313939
653.819000	-0.121903
654.014000	-0.195584
654.209000	-0.298232
654.404000	-0.131538
654.599000	-0.227867
654.794000	-0.277744
654.989000	-0.020168
655.184000	-0.070670
655.380000	-0.354324
655.575000	-0.363822
655.770000	-0.328110
655.965000	-0.198684
656.160000	-0.247775
656.355000	-0.163991
656.550000	-0.183512
656.745000	-0.077387
656.940000	-0.186961
657.135000	-0.171048
657.330000	-0.139370
657.525000	-0.330089
657.720000	-0.134940
657.915000	-0.044197
658.111000	-0.139638
658.306000	0.063985
658.501000	-0.141666
658.696000	-0.320216
658.891000	-0.076262
659.086000	-0.191056
659.281000	-0.148238
659.476000	-0.308415
659.671000	-0.644284
659.866000	-0.426938
660.061000	-0.127783
660.256000	-0.044536
660.451000	-0.115128
660.646000	-0.280652
660.842000	-0.186139
661.037000	-0.308419
661.232000	-0.326575
661.427000	-0.181501
661.622000	-0.251152
661.817000	-0.388068
662.012000	-0.212939
662.207000	-0.314940
662.402000	-0.364356
662.597000	-0.171598
662.792000	-0.453394
662.987000	-0.456261
663.182000	-0.221960
663.378000	-0.231881
663.573000	-0.494526
663.768000	-0.501623
663.963000	-0.331420
664.158000	-0.350614
664.353000	0.046004
664.548000	0.231899
664.743000	-0.042122
664.938000	-0.313108
665.133000	-0.341394
665.328000	-0.002947
665.523000	-0.032485
665.718000	-0.193293
665.913000	-0.218233
666.109000	-0.251661
666.304000	-0.062236
666.499000	-0.177376
666.694000	-0.052473
666.889000	0.219769
667.084000	-0.075820
667.279000	-0.213096
667.474000	-0.201628
667.669000	-0.141999
667.864000	-0.185248
668.059000	-0.205444
668.254000	-0.197397
668.449000	-0.302418
668.644000	-0.221110
668.840000	-0.009644
669.035000	-0.266095
669.230000	-0.494233
669.425000	-0.165190
669.620000	-0.283879
669.815000	-0.331888
670.010000	-0.371813
670.205000	-0.216093
670.400000	-0.152067
670.595000	-0.117253
670.790000	-0.226747
670.985000	-0.213514
671.180000	-0.065406
671.376000	-0.379291
671.571000	-0.415642
671.766000	-0.353894
671.961000	-0.398113
672.156000	-0.362958
672.351000	-0.273046
672.546000	-0.324669
672.741000	-0.172847
672.936000	-0.122069
673.131000	0.351518
673.326000	0.003761
673.521000	-0.340140
673.716000	-0.406859
673.911000	-0.559531
674.107000	-0.064841
674.302000	0.156550
674.497000	-0.109642
674.692000	-0.386598
674.887000	-0.427606
675.082000	-0.283082
675.277000	-0.046381
675.472000	-0.131355
675.667000	-0.280815
675.862000	-0.357362
676.057000	-0.249869
676.252000	-0.194676
676.447000	-0.285922
676.643000	-0.113019
676.838000	0.054520
677.033000	-0.171140
677.228000	0.103853
677.423000	0.044235
677.618000	-0.337586
677.813000	-0.455246
678.008000	-0.223767
678.203000	-0.130374
678.398000	-0.337679
678.593000	-0.173146
678.788000	-0.093781
678.983000	-0.334928
679.178000	-0.209080
679.374000	-0.287592
679.569000	-0.227649
679.764000	-0.306933
679.959000	-0.454518
680.154000	-0.395500
680.349000	-0.542462
680.544000	-0.459164
680.739000	-0.351649
680.934000	-0.474252
681.129000	-0.452143
681.324000	-0.483386
681.519000	-0.292974
681.714000	-0.332927
681.909000	-0.417552
682.105000	-0.534839
682.300000	-0.179943
682.495000	-0.025121
682.690000	-0.043423
682.885000	-0.131104
683.080000	-0.329218
683.275000	-0.331215
683.470000	-0.025312
683.665000	0.160291
683.860000	0.357594
684.055000	0.094332
684.250000	-0.291018
684.445000	-0.323699
684.641000	0.096405
684.836000	-0.155022
685.031000	-0.222418
685.226000	-0.265478
685.421000	-0.012677
685.616000	-0.223345
685.811000	-0.334140
686.006000	-0.093058
686.201000	-0.147444
686.396000	-0.491735
686.591000	-0.466374
686.786000	-0.037324
686.981000	-0.188145
687.176000	-0.147027
687.372000	-0.236113
687.567000	0.045805
687.762000	-0.022396
687.957000	-0.100211
688.152000	-0.256386
688.347000	-0.218740
688.542000	-0.442770
688.737000	-0.728968
688.932000	-0.793320
689.127000	-0.405640
689.322000	-0.103332
689.517000	-0.331820
689.712000	-0.464032
689.908000	-0.346833
690.103000	-0.347506
690.298000	-0.274108
690.493000	-0.294207
690.688000	-0.544896
690.883000	-0.336475
691.078000	0.049086
691.273000	0.023766
691.468000	-0.237735
691.663000	-0.230803
691.858000	-0.072114
692.053000	-0.091706
692.248000	-0.001569
692.443000	-0.038837
692.639000	-0.133263
692.834000	0.035861
693.029000	0.471498
693.224000	0.350945
693.419000	-0.166120
693.614000	-0.351141
693.809000	-0.448789
694.004000	-0.485478
694.199000	-0.469426
694.394000	-0.215334
694.589000	-0.449522
694.784000	-0.453982
694.979000	-0.219792
695.174000	-0.246437
695.370000	0.168688
695.565000	0.002410
695.760000	-0.257248
695.955000	-0.005650
696.150000	0.032698
696.345000	-0.315687
696.540000	-0.080785
696.740000	-0.214600
696.940000	-0.137627
697.140000	0.000408
697.340000	-0.152884
697.539000	-0.032311
697.739000	-0.177576
697.939000	-0.165415
698.139000	-0.438151
698.339000	-0.725723
698.539000	-0.530001
698.739000	-0.533486
698.939000	-0.376397
699.138000	-0.480711
699.338000	0.093417
699.538000	0.209952
699.738000	-0.218057
699.938000	-0.316116
700.138000	-0.389661
700.338000	-0.438902
700.538000	-0.228176
700.737000	-0.169398
700.937000	-0.576505
701.137000	-0.652757
701.337000	-0.073233
701.537000	-0.039649
701.737000	-0.307107
701.937000	-0.326803
702.137000	-0.259260
702.337000	-0.365434
702.536000	-0.506040
702.736000	-0.476946
702.936000	-0.613635
703.136000	-0.146617
703.336000	-0.110364
703.536000	-0.264497
703.736000	-0.635830
703.936000	-0.576791
704.135000	-0.518809
704.335000	-0.158136
704.535000	-0.414252
704.735000	-0.619003
704.935000	-0.098298
705.135000	-0.141911
705.335000	-0.360939
705.535000	-0.140313
705.735000	-0.114309
705.934000	-0.146709
706.134000	-0.341570
706.334000	-0.366247
706.534000	-0.475415
706.734000	-0.436650
706.934000	-0.512731
707.134000	-0.523739
707.334000	-0.274197
707.533000	-0.281254
707.733000	-0.307235
707.933000	-0.383991
708.133000	-0.099918
708.333000	-0.036842
708.533000	-0.324718
708.733000	-0.105001
708.933000	-0.280984
709.132000	-0.343211
709.332000	-0.332758
709.532000	-0.410896
709.732000	-0.277800
709.932000	-0.692399
710.132000	-0.658783
710.332000	-0.817684
710.532000	-0.278420
710.732000	-0.072792
710.931000	-0.314925
711.131000	-0.391962
711.331000	-0.236072
711.531000	-0.386224
711.731000	-0.317734
711.931000	-0.223995
712.131000	-0.297704
712.331000	-0.131857
712.530000	-0.230245
712.730000	-0.475626
712.930000	-0.347508
713.130000	-0.328451
713.330000	-0.421334
713.530000	-0.273472
713.730000	0.283562
713.930000	-0.028981
714.129000	-0.442859
714.329000	-0.564540
714.529000	-0.298834
714.729000	-0.017722
714.929000	-0.176767
715.129000	-0.452435
715.329000	-0.275175
715.529000	-0.239706
715.729000	0.283545
715.928000	0.014190
716.128000	-0.283518
716.328000	-0.217748
716.528000	-0.330675
716.728000	-0.277852
716.928000	-0.420500
717.128000	-0.230086
717.328000	-0.266929
717.527000	-0.447268
717.727000	-0.424603
717.927000	-0.321678
718.127000	-0.347370
718.327000	-0.731310
718.527000	-0.682183
718.727000	-0.308637
718.927000	-0.365076
719.127000	-0.588621
719.326000	-0.416277
719.526000	-0.071839
719.726000	-0.153797
719.926000	-0.597780
720.126000	-0.604916
720.326000	-0.424176
720.526000	-0.468839
720.726000	-0.380817
720.925000	-0.190295
721.125000	-0.547942
721.325000	-0.327705
721.525000	-0.307199
721.725000	-0.458719
721.925000	-0.410165
722.125000	-0.476666
722.325000	-0.063612
722.524000	-0.263791
722.724000	-0.643135
722.924000	-0.716987
723.124000	-0.543659
723.324000	-0.181087
723.524000	-0.090387
723.724000	-0.590677
723.924000	-0.515934
724.124000	-0.319086
724.323000	-0.083724
724.523000	-0.182206
724.723000	0.099249
724.923000	-0.107953
725.123000	-0.134601
725.323000	-0.045430
725.523000	-0.241627
725.723000	-0.473557
725.922000	-0.498304
726.122000	-0.380088
726.322000	-0.456460
726.522000	-0.439877
726.722000	0.112273
726.922000	-0.196222
727.122000	-0.240769
727.322000	0.088330
727.521000	-0.146273
727.721000	-0.349809
727.921000	-0.322878
728.121000	-0.315450
728.321000	-0.625191
728.521000	-0.476735
728.721000	-0.309986
728.921000	-0.290171
729.121000	0.343449
729.320000	0.025194
729.520000	-0.372516
729.720000	-0.511693
729.920000	-0.409713
730.120000	-0.289642
730.320000	-0.255549
730.520000	-0.489424
730.720000	-0.451050
730.919000	-0.416046
731.119000	-0.144433
731.319000	-0.572669
731.519000	-0.640161
731.719000	-0.217389
731.919000	-0.425488
732.119000	-0.895559
732.319000	-0.837942
732.519000	-0.321954
732.718000	-0.604896
732.918000	-0.524627
733.118000	-0.406980
733.318000	-0.121328
733.518000	-0.375184
733.718000	-0.835805
733.918000	-0.752359
734.118000	-0.510551
734.317000	-0.331372
734.517000	-0.580754
734.717000	-0.460591
734.917000	-0.040566
735.117000	-0.086873
735.317000	-0.181925
735.517000	0.155109
735.717000	0.411401
735.916000	-0.348399
736.116000	-0.531441
736.316000	-0.381423
736.516000	-0.305978
736.716000	-0.358109
736.916000	-0.750972
737.116000	-0.523888
737.316000	0.003146
737.516000	-0.070399
737.715000	-0.125642
737.915000	-0.643747
738.115000	-0.651067
738.315000	-0.400750
738.515000	-0.722689
738.715000	-0.511880
738.915000	-0.004785
739.115000	-0.409559
739.314000	-0.467722
739.514000	-0.034177
739.714000	0.024627
739.914000	-0.114903
740.114000	-0.367949
740.314000	-0.160962
740.514000	0.272816
740.714000	-0.440364
740.913000	-0.882553
741.113000	-0.661459
741.313000	-0.287049
741.513000	-0.385804
741.713000	-0.299542
741.913000	-0.221470
742.113000	-0.347026
742.313000	-0.794816
742.513000	-0.499076
742.712000	-0.371251
742.912000	-0.572450
743.112000	-0.513574
743.312000	-0.794068
743.512000	-0.518364
743.712000	-0.300101
743.912000	-0.852682
744.112000	-0.964834
744.311000	-0.919881
744.511000	-0.534765
744.711000	-0.204549
744.911000	-0.500287
745.111000	-0.582608
745.311000	-0.174441
745.511000	-0.429074
745.711000	-0.613379
745.911000	-0.404540
746.110000	-0.759016
746.310000	-0.903194
746.510000	-0.670812
746.710000	-0.190907
746.910000	-0.059497
747.110000	-0.609679
747.310000	-0.912100
747.510000	-0.639000
747.709000	-0.290638
747.909000	-0.294274
748.109000	-0.129941
748.309000	-0.377250
748.509000	-0.686404
748.709000	-0.700634
748.909000	-0.463830
749.109000	-0.501058
749.308000	-0.072827
749.508000	-0.335408
749.708000	-0.474093
749.908000	-0.161605
750.108000	-0.123634
750.308000	-0.780012
750.508000	-0.124383
750.708000	-0.579855
750.908000	-0.953996
751.107000	-0.325562
751.307000	0.242687
751.507000	-0.236512
751.707000	-0.251199
751.907000	-0.290881
752.107000	-0.243623
752.307000	-0.692185
752.507000	-0.496839
752.706000	-0.505595
752.906000	0.222351
753.106000	-0.477945
753.306000	-0.983895
753.506000	-0.158809
753.706000	-0.475534
753.906000	-0.294336
754.106000	-0.137826
754.305000	-0.165729
754.505000	-0.126012
754.705000	-0.278865
754.905000	-0.388129
755.105000	-0.198712
755.305000	-0.810305
755.505000	-0.649986
755.705000	-0.224867
755.905000	-0.266379
756.104000	-0.785366
756.304000	-1.156309
756.504000	-1.266097
756.704000	-0.405808
756.904000	-0.224686
757.104000	-0.458878
757.304000	-0.440284
757.504000	-0.095106
757.703000	-0.458849
757.903000	-0.008956
758.103000	0.132051
758.303000	-0.250060
758.503000	-0.456968
758.703000	-0.616311
758.903000	-0.719997
759.103000	-0.365531
759.303000	-0.334725
759.502000	-0.459903
759.702000	-0.156072
759.902000	-0.452229
760.102000	-0.479630
760.302000	-0.441636
760.502000	-0.170467
760.702000	-0.154234
760.902000	-0.448490
761.101000	-0.658441
761.301000	-0.848714
761.501000	-0.633255
761.701000	-0.770878
761.901000	-0.554259
762.101000	-0.150084
762.301000	-0.351094
762.501000	-0.703435
762.700000	-0.787515
762.900000	-0.760840
763.100000	-0.495211
763.300000	-0.165293
763.500000	-0.392620
763.703000	-0.610955
763.905000	-0.840543
764.108000	-0.176332
764.311000	-0.469146
764.513000	-0.500391
764.716000	-0.382631
764.919000	-0.348873
765.121000	-0.798125
765.324000	-0.938071
765.527000	-0.766768
765.729000	-0.635382
765.932000	0.038781
766.135000	-0.072000
766.337000	-0.394128
766.540000	-0.510088
766.743000	-0.195330
766.945000	-0.705011
767.148000	-1.060260
767.351000	-0.993592
767.553000	-0.269885
767.756000	-0.569192
767.958000	-0.899779
768.161000	-0.573148
768.364000	-0.790804
768.566000	-0.962516
768.769000	-0.486061
768.972000	-0.297707
769.174000	-0.619320
769.377000	-1.114251
769.580000	-1.209738
769.782000	-0.507376
769.985000	-0.864361
770.188000	-1.629208
770.390000	-0.830928
770.593000	0.509925
770.796000	0.181425
770.998000	-0.306651
771.201000	-0.701550
771.404000	-0.379908
771.606000	-0.647098
771.809000	-0.494078
772.012000	-0.473159
772.214000	-1.203163
772.417000	-1.254373
772.620000	-0.301166
772.822000	-0.585740
773.025000	-0.809481
773.228000	-0.814665
773.430000	-0.757158
773.633000	-0.585348
773.836000	-0.512325
774.038000	-0.362354
774.241000	-0.473378
774.444000	-0.627165
774.646000	0.171515
774.849000	-0.203901
775.052000	-0.386155
775.254000	-0.308643
775.457000	-0.632364
775.659000	-0.562951
775.862000	-0.731113
776.065000	-0.429367
776.267000	0.060694
776.470000	0.320633
776.673000	-0.353241
776.875000	0.061186
777.078000	-0.025642
777.281000	-0.779008
777.483000	-0.223282
777.686000	-0.120981
777.889000	-0.208707
778.091000	0.050446
778.294000	-0.960918
778.497000	-0.878089
778.699000	-0.729648
778.902000	-0.659234
779.105000	-0.524967
779.307000	0.154487
779.510000	-0.642438
779.713000	-0.436145
779.915000	-0.662584
780.118000	0.245412
780.321000	0.272928
780.523000	-0.439571
780.726000	-0.829606
780.929000	-0.938427
781.131000	-0.900847
781.334000	-1.311628
781.537000	-1.295654
781.739000	-0.278400
781.942000	-0.837448
782.145000	-1.272952
782.347000	-1.103552
782.550000	-0.823046
782.753000	-0.937017
782.955000	-0.875811
783.158000	-0.803614
783.361000	-0.582043
783.563000	-0.669978
783.766000	-0.739767
783.968000	0.822692
784.171000	0.766052
784.374000	-0.418104
784.576000	-0.575024
784.779000	-0.123830
784.982000	0.126161
785.184000	-0.552101
785.387000	-0.166127
785.590000	0.424050
785.792000	0.254087
785.995000	0.033548
786.198000	-0.138510
786.400000	-0.571193
786.603000	-0.564392
786.806000	-0.550310
787.008000	-0.303504
787.211000	-0.255071
787.414000	-0.902016
787.616000	-0.643525
787.819000	-0.586704
788.022000	-1.238416
788.224000	-0.676800
788.427000	-1.116640
788.630000	-0.734159
788.832000	-0.414510
789.035000	-0.857859
789.238000	-1.429765
789.440000	-1.179941
789.643000	-0.049837
789.846000	-0.575177
790.048000	-0.279370
790.251000	-0.152034
790.454000	-0.393310
790.656000	0.234815
790.859000	-0.463896
791.062000	-0.823498
791.264000	-0.221069
791.467000	-1.010589
791.669000	-1.509943
791.872000	-0.650475
792.075000	-0.981479
792.277000	-0.744631
792.480000	-0.510384
792.683000	-0.893541
792.885000	-1.080380
793.088000	-0.932412
793.291000	-1.126219
793.493000	-1.110834
793.696000	-0.356757
793.899000	-0.147820
794.101000	-0.560212
794.304000	-0.636166
794.507000	-0.329115
794.709000	-0.197664
794.912000	-0.734476
795.115000	-0.980002
795.317000	-0.709064
795.520000	-0.498248
795.723000	-0.683714
795.925000	-1.074569
796.128000	-1.283531
796.331000	-0.964466
796.533000	-1.389831
796.736000	-0.727356
796.939000	-0.470648
797.141000	-0.699197
797.344000	-0.149256
797.547000	-0.162978
797.749000	-0.309100
797.952000	-0.759719
798.155000	-1.096397
798.357000	-1.314584
798.560000	-1.141606
798.763000	-0.465783
798.965000	-0.585371
799.168000	-0.624118
799.371000	-0.587764
799.573000	-0.840869
799.776000	-1.293935
799.978000	-1.317124
800.181000	-0.603159
800.384000	0.802955
800.586000	0.127872
800.789000	-1.202042
800.992000	-1.088525
801.194000	-1.288595
801.397000	-1.315518
801.600000	-1.050144
801.802000	-0.013277
802.005000	-0.317754
802.208000	-1.525572
802.410000	-0.680628
802.613000	-0.520863
802.816000	-0.679637
803.018000	-1.162015
803.221000	-1.039003
803.424000	0.242198
803.626000	-0.037691
803.829000	-0.687384
804.032000	0.039855
804.234000	0.720085
804.437000	-0.545564
804.640000	-0.608491
804.842000	-0.497485
805.045000	-0.986167
805.248000	-0.722312
805.450000	-0.760932
805.653000	-0.745969
805.856000	-0.725389
806.058000	0.085252
806.261000	-0.888314
806.464000	-0.869310
806.666000	-0.233113
806.869000	-0.660709
807.072000	-1.868634
807.274000	-2.125662
807.477000	-1.145700
807.679000	-0.733899
807.882000	-1.098838
808.085000	-0.938633
808.287000	-0.436225
808.490000	-1.160404
808.693000	-1.003198
808.895000	-0.805298
809.098000	-0.693361
809.301000	-0.634206
809.503000	-0.817034
809.706000	-0.138640
809.909000	0.156203
810.111000	0.078729
810.314000	-0.429844
810.517000	-0.909673
810.719000	-1.044890
810.922000	-0.803708
811.125000	0.027115
811.327000	-0.019928
811.530000	-0.541246
811.735000	-0.855856
811.940000	-1.052718
812.146000	-0.824342
812.351000	-0.268805
812.556000	-0.476697
812.761000	-1.127894
812.967000	-0.325174
813.172000	-0.191266
813.377000	-0.374070
813.582000	0.092569
813.788000	-0.351156
813.993000	-1.209745
814.198000	-0.442601
814.403000	-1.145364
814.609000	-0.499556
814.814000	-0.572871
815.019000	0.279364
815.224000	0.197418
815.429000	-0.899223
815.635000	-0.610176
815.840000	-0.395832
816.045000	-0.331178
816.250000	-0.098737
816.456000	-1.165757
816.661000	-1.941421
816.866000	-1.442204
817.071000	-1.379798
817.277000	-1.923243
817.482000	-1.238909
817.687000	-0.522737
817.892000	-0.610669
818.097000	-0.186382
818.303000	0.251159
818.508000	0.517217
818.713000	1.486426
818.918000	0.496590
819.124000	0.435063
819.329000	-0.646765
819.534000	-0.936234
819.739000	-1.011078
819.945000	-1.004291
820.150000	-0.742680
820.355000	-0.575270
820.560000	-0.219501
820.766000	-0.412181
820.971000	-0.478968
821.176000	-1.730350
821.381000	-2.304770
821.586000	-1.370662
821.792000	-0.223334
821.997000	-0.726218
822.202000	-0.738771
822.407000	-1.239770
822.613000	-1.462525
822.818000	-0.887681
823.023000	-0.548310
823.228000	-0.684103
823.434000	-0.118932
823.639000	0.085478
823.844000	-0.698903
824.049000	-0.016912
824.255000	0.001212
824.460000	-0.637993
824.665000	-1.041229
824.870000	-0.108880
825.075000	-0.200886
825.281000	-0.133918
825.486000	0.680977
825.691000	-1.416000
825.896000	-2.330307
826.102000	-0.768152
826.307000	-0.608305
826.512000	-0.854063
826.717000	-0.700137
826.923000	-0.846582
827.128000	-0.584088
827.333000	-1.367036
827.538000	-0.481971
827.744000	0.090510
827.949000	-0.755785
828.154000	-0.401141
828.359000	0.097043
828.564000	-0.544114
828.770000	-0.662337
828.975000	0.182104
829.180000	-0.407591
829.385000	-1.653102
829.591000	-1.184450
829.796000	-0.587982
830.001000	-0.700628
830.206000	-1.328026
830.412000	-1.182038
830.617000	-1.079453
830.822000	-0.137757
831.027000	-0.732188
831.232000	-1.195362
831.438000	-1.170329
831.643000	-0.714991
831.848000	-1.012032
832.053000	-0.854214
832.259000	-0.814802
832.464000	-2.305165
832.669000	-1.912979
832.874000	-1.530336
833.080000	-1.516680
833.285000	0.001364
833.490000	-0.216979
833.695000	-1.495891
833.901000	-1.254511
834.106000	-1.387734
834.311000	-1.026819
834.516000	-0.381299
834.721000	-0.901247
834.927000	-0.089935
835.132000	-0.589948
835.337000	0.840413
835.542000	-0.154614
835.748000	-1.704529
835.953000	-0.232981
836.158000	-0.247794
836.363000	-0.413218
836.569000	-0.301149
836.774000	-1.174956
836.979000	-1.479874
837.184000	-1.925319
837.390000	-1.711132
837.595000	-1.089967
837.800000	-0.720534
838.005000	-0.622222
838.210000	-0.725262
838.416000	-0.963884
838.621000	-1.047756
838.826000	-1.342494
839.031000	-1.007958
839.237000	-1.464161
839.442000	-1.945850
839.647000	-2.257046
839.852000	-1.733508
840.058000	-1.573935
840.263000	-1.475616
840.468000	-2.129209
840.673000	-1.181496
840.878000	-1.000437
841.084000	-1.556178
841.289000	-0.955347
841.494000	1.335093
841.699000	1.308575
841.905000	0.428034
842.110000	0.656435
842.315000	-1.201599
842.520000	-0.771124
842.726000	-1.140673
842.931000	-1.726039
843.136000	-0.833042
843.341000	-2.044990
843.547000	-1.257097
843.752000	-1.076255
843.957000	-1.724284
844.162000	-1.708384
844.367000	-1.189142
844.573000	-0.677125
844.778000	-0.449687
844.983000	-0.458869
845.188000	-0.201379
845.394000	-1.800922
845.599000	-1.600341
845.804000	-1.408970
846.009000	-0.716787
846.215000	-1.690761
846.420000	-1.362581
846.625000	-0.432305
846.830000	0.192923
847.036000	-0.842279
847.241000	-1.391290
847.446000	-0.115787
847.651000	-0.765051
847.856000	-1.732705
848.062000	-1.302957
848.267000	0.010236
848.472000	-0.974050
848.677000	-2.281419
848.883000	-0.880499
849.088000	0.512193
849.293000	-0.658400
849.498000	-1.351556
849.704000	-0.581110
849.909000	-0.800661
850.114000	-1.611838
850.319000	-0.758769
850.524000	-0.929945
850.730000	-0.864505
850.935000	-0.983352
851.140000	-0.185087
851.345000	-0.300724
851.551000	-0.319477
851.756000	-0.195588
851.961000	-1.239623
852.166000	-1.492280
852.372000	-0.927649
852.577000	-0.816260
852.782000	-1.317021
852.987000	0.138816
853.193000	-0.364789
853.398000	-0.511590
853.603000	-1.633762
853.808000	-2.278170
854.013000	-1.496984
854.219000	-0.470859
854.424000	1.137051
854.629000	1.009006
854.834000	-1.040150
855.040000	-0.640559
855.245000	-0.261770
855.450000	-2.410638
855.655000	-3.271024
855.861000	-2.978569
856.066000	-2.131977
856.271000	-2.049149
856.476000	-0.103868
856.682000	-0.982823
856.887000	-3.528491
857.092000	-2.163286
857.297000	0.079581
857.502000	-0.211987
857.708000	-1.001592
857.913000	-0.085888
858.118000	-0.667829
858.323000	-0.887127
858.529000	-0.905483
858.734000	-1.313456
858.939000	-1.118935
859.144000	-1.759727
859.350000	-2.506571
859.555000	-2.384594
859.760000	-0.740966
859.965000	0.052194
860.171000	-1.651213
860.376000	-0.706568
860.581000	-2.200485
860.786000	-4.023987
860.991000	-3.263529
861.197000	-2.402162
861.402000	-1.064989
861.607000	-1.332600
861.812000	-2.462206
862.018000	-2.533753
862.223000	-1.553394
862.428000	-0.623769
862.633000	0.137751
862.839000	-0.606963
863.044000	-1.321493
863.249000	-2.215520
863.454000	-0.737830
863.659000	-1.376234
863.865000	-1.937159
864.070000	-1.803357
864.275000	-2.309333
864.480000	-1.975892
864.686000	-3.580103
864.891000	-3.323911
865.096000	-1.028438
865.301000	-0.541266
865.507000	-0.741239
865.712000	-0.610006
865.917000	-1.340078
866.122000	-0.428049
866.328000	-3.159787
866.533000	-3.057799
866.738000	-0.097690
866.943000	-0.164643
867.148000	0.360224
867.354000	-1.722804
867.559000	-3.054125
867.764000	-1.663725
867.969000	-0.681167
868.175000	-1.643815
868.380000	-2.264755
868.585000	-2.849460
868.790000	-1.096559
868.996000	-1.230549
869.201000	-2.354334
869.406000	-3.779933
869.611000	-2.623440
869.817000	-2.307175
870.022000	1.190574
870.227000	-0.441430
870.432000	-2.262613
870.637000	-0.867074
870.843000	-1.498425
871.048000	-1.747430
871.253000	0.037855
871.458000	-0.794240
871.664000	-2.713755
871.869000	-2.898295
872.074000	-2.544854
872.279000	-1.698970
872.485000	-1.952805
872.690000	-2.071044
872.895000	-2.140841
873.100000	-2.474441
873.306000	-2.448020
873.511000	-1.336696
873.716000	-0.047222
873.921000	-1.794727
874.126000	-2.095526
874.332000	-1.639783
874.537000	-0.665205
874.742000	-0.750964
874.947000	-1.018984
875.153000	0.588103
875.358000	-0.686453
875.563000	-1.590890
875.768000	-3.760937
875.974000	-3.814952
876.179000	-0.821660
876.384000	-0.748005
876.589000	-1.930050
876.794000	-1.409311
877.000000	-2.417955
877.205000	-3.708581
877.410000	-1.336830
877.615000	-2.881517
877.821000	-4.414835
878.026000	-3.226082
878.231000	-3.661924
878.436000	-3.562058
878.642000	-2.652651
878.847000	-1.468357
879.052000	-0.317824
879.257000	-2.287215
879.463000	-3.221090
879.668000	-2.547430
879.873000	-0.606881
880.078000	-2.821847
880.283000	-4.209719
880.489000	-4.455007
880.694000	-3.885632
880.899000	-2.066450
881.104000	-0.869826
881.310000	0.875345
881.515000	-0.218585
881.720000	0.820971
881.925000	2.192305
882.131000	3.196614
882.336000	0.073082
882.541000	-3.439179
882.746000	-3.029108
882.952000	-3.494780
883.157000	-2.976028
883.362000	-2.737927
883.567000	-3.279770
883.772000	-3.541706
883.978000	-3.111076
884.183000	-1.419714
884.388000	-2.183972
884.593000	-4.126302
884.799000	0.439508
885.004000	0.401439
885.209000	-1.414500
885.414000	-1.115361
885.620000	-3.524425
885.825000	-1.444979
886.030000	-1.844407
886.235000	-2.605224
886.440000	-1.840959
886.646000	-3.985314
886.851000	-4.051081
887.056000	-0.562669
887.261000	-1.068091
887.467000	-3.822674
887.672000	-1.451005
887.877000	-2.422385
888.082000	-4.621064
888.288000	-4.775420
888.493000	-6.661819
888.698000	-5.144393
888.903000	-1.780225
889.109000	-2.816003
889.314000	0.050427
889.519000	-1.692298
889.724000	-0.295556
889.929000	-1.586535
890.135000	-1.938002
890.340000	-1.745771
890.545000	-3.111714
890.750000	-4.281284
890.956000	-3.112986
891.161000	-0.954248
891.366000	-2.797226
891.571000	-1.905552
891.777000	-1.505955
891.982000	0.100027
892.187000	-0.499038
892.392000	-0.142243
892.598000	-0.386899
892.803000	-0.964318
893.008000	-3.126014
893.213000	-3.166779
893.418000	-3.040998
893.624000	-3.337405
893.829000	-5.307744
894.034000	-2.715903
894.239000	-1.129695
894.445000	-3.487627
894.650000	-3.655573
894.855000	-3.509578
895.060000	-3.487020
895.266000	-3.660564
895.471000	-4.638106
895.676000	-1.532308
895.881000	-0.932745
896.087000	-2.499150
896.292000	-3.406424
896.497000	0.520016
896.702000	-1.025573
896.907000	-2.950926
897.113000	0.710287
897.318000	0.675465
897.523000	-0.100205
897.728000	-1.921624
897.934000	-2.762509
898.139000	-2.423427
898.344000	-0.188977
898.549000	-1.263502
898.755000	-2.692708
898.960000	-3.347661
899.165000	-4.786043
899.370000	-1.510639
899.575000	1.753813
899.781000	-2.217297
899.986000	-3.005507
900.191000	-1.420422
900.396000	-2.234167
900.602000	-1.957101
900.807000	-2.683979
901.012000	-2.204597
901.217000	-0.531302
901.423000	-2.864345
901.628000	-3.759356
901.833000	-0.311441
902.038000	-0.145722
902.244000	-3.107650
902.449000	-2.901061
902.654000	-3.139958
902.859000	-1.753353
903.064000	-0.224017
903.270000	-0.091453
903.475000	-3.599914
903.680000	-5.672460
903.885000	-5.141686
904.091000	-4.338307
904.296000	-4.994935
904.501000	-4.236671
904.706000	-3.430686
904.912000	0.220924
905.117000	-1.778762
905.322000	-3.949836
905.527000	-3.335232
905.733000	-3.297644
905.938000	-3.458378
906.143000	-3.844259
906.348000	-5.408173
906.553000	-1.261704
906.759000	-0.138741
906.964000	-1.451714
907.169000	-2.779567
907.374000	-5.201073
907.580000	-3.946398
907.785000	-3.172810
907.990000	19.271589
908.195000	12.418503
908.401000	-0.633744
908.606000	-6.752894
908.811000	-8.049277
909.016000	-2.491801
909.221000	-1.622231
909.427000	-2.040410
909.632000	-4.511815
909.837000	-4.215303
910.042000	-5.192299
910.248000	-7.113157
910.453000	-3.405425
910.658000	-3.788357
910.863000	-4.341593
911.069000	-5.811377
911.274000	-1.843193
911.479000	0.117892
911.684000	-5.907515
911.890000	-3.577517
912.095000	-3.170738
912.300000	-5.563052
912.506000	-4.576166
912.711000	-4.796331
912.917000	-3.027792
913.123000	-2.096599
913.328000	-2.649863
913.534000	-2.603048
913.740000	5.447927
913.946000	1.996210
914.151000	-4.640726
914.357000	-5.628358
914.563000	-1.988359
914.768000	-5.198711
914.974000	-6.329914
915.180000	-5.033172
915.385000	-3.987129
915.591000	-6.749248
915.797000	-2.329065
916.002000	-0.298113
916.208000	-3.566284
916.414000	-4.851340
916.620000	-5.396810
916.825000	-2.346454
917.031000	-2.911001
917.237000	-8.649272
917.442000	-5.316206
917.648000	-5.881163
917.854000	-6.713904
918.059000	-1.205652
918.265000	-0.704607
918.471000	-3.059952
918.676000	-5.335999
918.882000	-7.656266
919.088000	-6.808453
919.294000	-10.524777
919.499000	-6.990331
919.705000	-1.890357
919.911000	-2.659572
920.116000	-1.798195
920.322000	-6.515504
920.528000	-4.841330
920.733000	-7.295186
920.939000	-7.467897
921.145000	-5.857192
921.350000	-4.663974
921.556000	-3.975768
921.762000	-4.690529
921.968000	-5.081855
922.173000	-5.993922
922.379000	-8.380867
922.585000	-4.514314
922.790000	-5.147931
922.996000	-6.779261
923.202000	-7.590461
923.407000	-7.454516
923.613000	-5.505021
923.819000	-3.252118
924.024000	-3.384791
924.230000	-0.885352
924.436000	-4.077349
924.642000	4.798326
924.847000	1.525320
925.053000	-5.462646
925.259000	-9.458688
925.464000	-3.625919
925.670000	-4.991947
925.876000	-7.495158
926.081000	-7.697189
926.287000	-4.242915
926.493000	-2.997340
926.698000	-4.490283
926.904000	-3.016790
927.110000	-5.216823
927.316000	-4.043659
927.521000	2.119572
927.727000	-3.635667
927.933000	-5.566048
928.138000	-5.040980
928.344000	-9.997516
928.550000	-6.394232
928.755000	-1.998711
928.961000	-4.979841
929.167000	-5.822855
929.372000	0.326352
929.578000	-0.100239
929.784000	-5.113548
929.990000	-9.049658
930.195000	-6.966844
930.401000	-5.079224
930.607000	-3.624186
930.812000	-3.215121
931.018000	-6.427153
931.224000	-11.940968
931.429000	-7.754201
931.635000	-9.588666
931.841000	-10.559929
932.046000	-6.956958
932.252000	-2.916470
932.458000	3.268949
932.664000	-1.169967
932.869000	-6.594823
933.075000	-8.736909
933.281000	-7.175690
933.486000	-1.496365
933.692000	-4.852430
933.898000	-8.588277
934.103000	-2.792801
934.309000	-6.426338
934.515000	-3.240344
934.720000	-1.492763
934.926000	0.787245
935.132000	0.181818
935.338000	-2.047925
935.543000	-9.800621
935.749000	-11.729478
935.955000	-13.133727
936.160000	-11.054879
936.366000	-3.061061
936.572000	-3.682114
936.777000	-2.326966
936.983000	-0.468398
937.189000	-4.277540
937.394000	-9.852184
937.600000	-1.118299
937.806000	3.814100
938.012000	-5.410004
938.217000	3.195352
938.423000	0.773984
938.629000	-6.814084
938.834000	-13.171804
939.040000	-12.146850
939.246000	-7.881612
939.451000	-10.256713
939.657000	-5.868531
939.863000	-9.095287
940.068000	-2.287673
940.274000	-8.034051
940.480000	-6.521678
940.686000	-4.480270
940.891000	-7.599758
941.097000	14.742135
941.303000	4.843704
941.508000	-7.452716
941.714000	-4.991622
941.920000	-15.017861
942.125000	-6.445257
942.331000	-4.630292
942.537000	1.141829
942.742000	1.393728
942.948000	-8.519794
943.154000	-11.509902
943.360000	-22.577068
943.565000	-9.853943
943.771000	0.197964
943.977000	2.039842
944.182000	-13.604276
944.388000	-15.018576
944.594000	-2.359696
944.799000	5.309574
945.005000	-2.467729
945.211000	2.251177
945.416000	0.012629
945.622000	-11.572507
945.828000	-10.417567
946.034000	-2.133187
946.239000	-0.706312
946.445000	-6.490530
946.651000	-17.931713
946.856000	-15.343163
947.062000	-1.405653
947.268000	-0.246740
947.473000	-13.547600
947.679000	-16.253779
947.885000	-4.789946
948.090000	-2.303763
948.296000	10.044121
948.502000	-1.313739
948.708000	-10.360726
948.913000	-13.666848
949.119000	-2.626755
949.325000	-6.692992
949.530000	-17.950058
949.736000	-22.346809
949.942000	-13.444408
950.147000	-14.694502
950.353000	-11.881605
950.559000	-9.602927
950.764000	9.787562
950.970000	5.138995
951.176000	-9.457077
951.382000	-13.728147
951.587000	-1.833673
951.793000	3.162175
951.999000	1.706712
952.204000	-10.525536
952.410000	-21.936307
952.616000	-10.280502
952.821000	-5.977142
953.027000	-14.319236
953.233000	-16.445387
953.438000	-14.609217
953.644000	0.882841
953.850000	-3.171661
954.056000	-7.888649
954.261000	-7.937674
954.467000	-0.354268
954.673000	4.360167
954.878000	-5.380251
955.084000	-6.348844
955.290000	-18.558691
955.495000	-19.581583
955.701000	-15.293507
955.907000	3.042082
956.112000	-0.136227
956.318000	5.415610
956.524000	5.250382
956.730000	-7.305854
956.935000	-10.419920
957.141000	-15.416200
957.347000	-6.917902
957.552000	-8.778418
957.758000	-19.531378
957.964000	-28.933903
958.169000	0.885347
958.375000	1.839614
958.581000	-12.095580
958.786000	-22.569346
958.992000	-27.138828
959.198000	-9.514527
959.404000	-1.526011
959.609000	-10.188304
959.815000	-14.896169
960.021000	1.173719
960.226000	-4.069338
960.432000	-25.245717
960.638000	-15.317843
960.843000	-9.111766
961.049000	-11.371961
961.255000	-2.035301
961.460000	-15.055970
961.666000	-32.624496
961.872000	-19.283767
962.078000	-16.209679
962.283000	-24.504475
962.489000	-23.988613
962.695000	-16.312128
962.900000	-13.085095
963.106000	-11.257886
963.312000	-14.758331
963.517000	-19.789462
963.723000	-22.425403
963.929000	-2.739349
964.134000	5.890000
964.340000	-13.340441
964.546000	-16.229807
964.752000	-19.929064
964.957000	-25.890038
965.163000	-4.476859
965.369000	-9.575204
965.574000	-7.324138
965.780000	-8.702223
966.000000	-17.045930
966.220000	-11.622681
966.440000	-11.584995
966.661000	-2.374918
966.881000	-20.599171
967.101000	-35.756641
967.321000	-34.870947
967.541000	-12.453036
967.761000	-18.547019
967.981000	-12.793607
968.202000	-10.682037
968.422000	0.547835
968.642000	-1.239341
968.862000	-5.554201
969.082000	-13.263750
969.302000	-4.327268
969.522000	-9.734044
969.743000	1.835996
969.963000	-14.706353
970.183000	-24.682200
970.403000	-25.072881
970.623000	-24.411778
970.843000	0.698791
971.063000	-0.091558
971.284000	-20.817841
971.504000	-30.798422
971.724000	-11.439248
971.944000	-23.209161
972.164000	-29.767452
972.384000	-22.693740
972.604000	-38.897403
972.825000	-41.929443
973.045000	-27.246522
973.265000	17.879636
973.485000	8.684689
973.705000	-5.449033
973.925000	-15.003153
974.145000	-46.255119
974.365000	-17.435607
974.586000	-14.545435
974.806000	-30.211146
975.026000	-2.978188
975.246000	-14.199906
975.466000	-25.854850
975.686000	-13.624554
975.906000	-22.747428
976.127000	-40.185734
976.347000	-37.146850
976.567000	-9.887081
976.787000	-9.917597
977.007000	-19.224176
977.227000	-24.477015
977.447000	-23.806093
977.668000	-41.056380
977.888000	-28.852931
978.108000	-28.528680
978.328000	-16.692137
978.548000	8.119330
978.768000	10.036658
978.988000	-2.275390
979.209000	-14.967749
979.429000	-20.903035
979.649000	-9.449762
979.869000	-26.541413
980.089000	-39.609518
980.309000	-41.280659
980.529000	-48.544873
980.750000	-28.260257
980.970000	-34.737607
981.190000	-26.845636
981.410000	-28.607647
981.630000	-35.931122
981.850000	-21.726766
982.070000	-13.127849
982.291000	-38.195376
982.511000	-38.413484
982.731000	-8.595717
982.951000	-24.222853
983.171000	-27.206142
983.391000	-25.008194
983.611000	0.393156
983.832000	-24.978817
984.052000	-47.165637
984.272000	-24.396252
984.492000	-18.683566
984.712000	-32.019225
984.932000	-50.137594
985.152000	-55.374739
985.373000	-44.297646
985.593000	-17.915195
985.813000	-22.788103
986.033000	-36.400316
986.253000	-2.198587
986.473000	0.038715
986.693000	-29.060542
986.914000	-35.421773
987.134000	2.336276
987.354000	-26.272062
987.574000	160.766061
987.794000	93.077567
988.014000	-41.997024
988.234000	-25.835609
988.455000	-12.799396
988.675000	-7.428203
988.895000	-17.296435
989.115000	-37.201336
989.335000	-19.794547
989.555000	-3.638590
989.775000	-35.270489
989.995000	-23.977641
990.216000	-19.195327
990.436000	-17.408319
990.656000	9.530211
990.876000	-27.441434
991.096000	-17.876235
991.316000	6.955670
991.536000	-16.298791
991.757000	-34.993499
991.977000	-68.077481
992.197000	-16.022998
992.417000	-30.442141
992.637000	-73.282166
992.857000	-79.434455
993.077000	-69.869692
993.298000	-31.079748
993.518000	-29.011174
993.738000	-77.650041
993.958000	-45.348566
994.178000	-48.087146
994.398000	-42.048385
994.618000	-70.384004
994.839000	-115.010552
995.059000	-39.139750
995.279000	20.718331
995.499000	-17.269402
995.719000	-11.780690
995.939000	-23.672531
996.159000	-23.331427
996.380000	-28.281224
996.600000	-73.478344
996.820000	-37.051362
997.040000	-1.258500
997.260000	-57.616678
997.480000	-43.714278
997.700000	-91.727190
997.921000	-64.608258
998.141000	15.774414
998.361000	-2.632648
998.581000	-39.117862
998.801000	-70.908815
999.021000	-50.470003
999.241000	-32.299386
999.462000	-58.900044
999.682000	-99.517011
999.902000	-57.086366
1000.122000	-70.650587
1000.342000	-116.507340
1000.562000	-59.097407
1000.782000	-71.637834
1001.003000	-903.436944
