Wavelength	Irradiance
(nm)	(mW/cm2/nm)

294.396000	0.000000
294.577000	0.000000
294.757000	0.000000
294.938000	0.000000
295.118000	-0.000000
295.299000	0.000000
295.479000	-0.000000
295.660000	-0.000000
295.840000	-0.000000
296.021000	-0.000000
296.202000	-0.000000
296.382000	-0.000000
296.563000	-0.000000
296.743000	-0.000000
296.924000	0.000000
297.104000	-0.000000
297.285000	-0.000000
297.465000	-0.000000
297.646000	-0.000000
297.826000	-0.000000
298.007000	0.000000
298.187000	-0.000000
298.368000	-0.000000
298.548000	0.000000
298.729000	0.000000
298.909000	-0.000000
299.090000	-0.000000
299.270000	-0.000000
299.451000	-0.000000
299.631000	-0.000000
299.812000	-0.000000
299.992000	0.000000
300.173000	0.000000
300.353000	-0.000000
300.534000	0.000000
300.714000	0.000000
300.895000	0.000000
301.075000	-0.000000
301.256000	0.000000
301.436000	-0.000000
301.617000	-0.000000
301.797000	-0.000000
301.978000	0.000000
302.159000	0.000000
302.339000	0.000000
302.520000	-0.000000
302.700000	-0.000000
302.881000	0.000000
303.061000	0.000000
303.242000	0.000000
303.422000	0.000000
303.603000	-0.000000
303.783000	-0.000000
303.964000	0.000000
304.144000	-0.000000
304.325000	-0.000000
304.505000	0.000000
304.686000	-0.000000
304.866000	0.000000
305.047000	-0.000000
305.227000	-0.000000
305.408000	-0.000000
305.588000	-0.000000
305.769000	-0.000000
305.949000	-0.000000
306.130000	-0.000000
306.310000	-0.000000
306.491000	-0.000000
306.671000	0.000000
306.852000	-0.000000
307.032000	-0.000000
307.213000	-0.000000
307.393000	-0.000000
307.574000	0.000000
307.755000	0.000000
307.935000	0.000000
308.116000	-0.000000
308.296000	-0.000000
308.477000	0.000000
308.657000	0.000000
308.838000	0.000000
309.018000	0.000000
309.199000	-0.000000
309.379000	-0.000000
309.560000	0.000000
309.740000	-0.000000
309.921000	0.000000
310.101000	0.000000
310.282000	-0.000000
310.462000	-0.000000
310.643000	-0.000000
310.823000	-0.000000
311.004000	-0.000000
311.184000	-0.000000
311.365000	0.000000
311.545000	0.000000
311.726000	0.000000
311.906000	-0.000000
312.087000	0.000000
312.267000	-0.000000
312.448000	-0.000000
312.628000	-0.000000
312.809000	-0.000000
312.989000	-0.000000
313.170000	-0.000000
313.344000	-0.000000
313.518000	-0.000000
313.691000	-0.000000
313.865000	-0.000000
314.039000	-0.000000
314.213000	-0.000000
314.387000	-0.000000
314.560000	-0.000000
314.734000	-0.000000
314.908000	-0.000000
315.082000	-0.000000
315.255000	0.000000
315.429000	0.000000
315.603000	0.000000
315.777000	-0.000000
315.951000	0.000000
316.124000	-0.000000
316.298000	-0.000000
316.472000	-0.000000
316.646000	-0.000000
316.820000	-0.000000
316.993000	-0.000000
317.167000	-0.000000
317.341000	-0.000000
317.515000	-0.000000
317.688000	-0.000000
317.862000	-0.000000
318.036000	-0.000000
318.210000	-0.000000
318.384000	-0.000000
318.557000	-0.000000
318.731000	-0.000000
318.905000	-0.000000
319.079000	-0.000000
319.253000	-0.000000
319.426000	0.000000
319.600000	0.000000
319.774000	-0.000000
319.948000	-0.000000
320.122000	0.000000
320.295000	0.000000
320.469000	-0.000000
320.643000	-0.000000
320.817000	-0.000000
320.990000	-0.000000
321.164000	-0.000000
321.338000	-0.000000
321.512000	-0.000000
321.686000	-0.000000
321.859000	-0.000000
322.033000	-0.000000
322.207000	-0.000000
322.381000	-0.000000
322.555000	0.000000
322.728000	0.000000
322.902000	-0.000000
323.076000	-0.000000
323.250000	-0.000000
323.423000	-0.000000
323.597000	-0.000000
323.771000	-0.000000
323.945000	-0.000000
324.119000	-0.000000
324.292000	0.000000
324.466000	-0.000000
324.640000	0.000000
324.814000	0.000000
324.988000	-0.000000
325.161000	-0.000000
325.335000	-0.000000
325.509000	-0.000000
325.683000	-0.000000
325.856000	-0.000000
326.030000	-0.000000
326.204000	-0.000000
326.378000	-0.000000
326.552000	-0.000000
326.725000	-0.000000
326.899000	-0.000000
327.073000	-0.000000
327.247000	-0.000000
327.421000	0.000000
327.594000	0.000000
327.768000	-0.000000
327.942000	-0.000000
328.116000	0.000000
328.289000	0.000000
328.463000	0.000000
328.637000	0.000000
328.811000	-0.000000
328.985000	-0.000000
329.158000	-0.000000
329.332000	-0.000000
329.506000	0.000000
329.680000	-0.000000
329.854000	-0.000000
330.027000	-0.000000
330.201000	0.000000
330.375000	0.000000
330.549000	0.000000
330.723000	-0.000000
330.896000	-0.000000
331.070000	-0.000000
331.244000	-0.000000
331.418000	-0.000000
331.591000	-0.000000
331.765000	-0.000000
331.939000	-0.000000
332.113000	-0.000000
332.287000	-0.000000
332.460000	0.000000
332.634000	0.000000
332.808000	-0.000000
332.982000	-0.000000
333.156000	-0.000000
333.329000	-0.000000
333.503000	-0.000000
333.677000	-0.000000
333.851000	-0.000000
334.024000	-0.000000
334.198000	-0.000000
334.372000	-0.000000
334.546000	-0.000000
334.720000	-0.000000
334.893000	-0.000000
335.067000	-0.000000
335.241000	0.000000
335.415000	-0.000000
335.589000	-0.000000
335.762000	-0.000000
335.936000	-0.000000
336.110000	-0.000000
336.284000	-0.000000
336.458000	-0.000000
336.631000	-0.000000
336.805000	-0.000000
336.979000	-0.000000
337.153000	-0.000000
337.326000	-0.000000
337.500000	-0.000000
337.674000	-0.000000
337.848000	-0.000000
338.022000	-0.000000
338.195000	-0.000000
338.369000	-0.000000
338.543000	-0.000000
338.717000	-0.000000
338.891000	0.000000
339.064000	0.000000
339.238000	-0.000000
339.412000	-0.000000
339.586000	-0.000000
339.759000	-0.000000
339.933000	-0.000000
340.107000	0.000000
340.281000	-0.000000
340.455000	-0.000000
340.628000	-0.000000
340.802000	-0.000000
340.976000	-0.000000
341.150000	-0.000000
341.324000	-0.000000
341.497000	-0.000000
341.671000	-0.000000
341.845000	-0.000000
342.019000	-0.000000
342.192000	-0.000000
342.366000	-0.000000
342.540000	-0.000000
342.714000	-0.000000
342.888000	-0.000000
343.061000	-0.000000
343.235000	-0.000000
343.409000	-0.000000
343.583000	-0.000000
343.757000	-0.000000
343.930000	-0.000000
344.104000	-0.000000
344.278000	0.000000
344.452000	0.000000
344.626000	-0.000000
344.799000	-0.000000
344.973000	-0.000000
345.147000	-0.000000
345.321000	-0.000000
345.494000	-0.000000
345.668000	0.000000
345.842000	0.000000
346.016000	-0.000000
346.190000	0.000000
346.363000	0.000000
346.537000	-0.000000
346.711000	-0.000000
346.885000	-0.000000
347.059000	-0.000000
347.232000	0.000000
347.406000	0.000000
347.580000	-0.000000
347.754000	-0.000000
347.927000	-0.000000
348.101000	0.000000
348.275000	-0.000000
348.449000	-0.000000
348.623000	-0.000000
348.796000	-0.000000
348.970000	0.000000
349.144000	-0.000000
349.318000	-0.000000
349.492000	-0.000000
349.665000	-0.000000
349.839000	-0.000000
350.013000	-0.000000
350.187000	-0.000000
350.361000	-0.000000
350.534000	-0.000000
350.708000	-0.000000
350.882000	-0.000000
351.056000	0.000000
351.229000	0.000000
351.403000	-0.000000
351.577000	-0.000000
351.751000	-0.000000
351.925000	-0.000000
352.098000	-0.000000
352.272000	-0.000000
352.446000	-0.000000
352.620000	-0.000000
352.794000	-0.000000
352.967000	-0.000000
353.141000	0.000000
353.315000	0.000000
353.489000	-0.000000
353.662000	-0.000000
353.836000	-0.000000
354.010000	-0.000000
354.184000	-0.000000
354.358000	-0.000000
354.531000	-0.000000
354.705000	-0.000000
354.879000	-0.000000
355.053000	-0.000000
355.227000	0.000000
355.400000	-0.000000
355.574000	0.000000
355.748000	0.000000
355.922000	-0.000000
356.095000	-0.000000
356.269000	-0.000000
356.443000	-0.000000
356.617000	-0.000000
356.791000	-0.000000
356.964000	-0.000000
357.138000	-0.000000
357.312000	-0.000000
357.486000	-0.000000
357.660000	-0.000000
357.833000	-0.000000
358.007000	-0.000000
358.181000	-0.000000
358.355000	-0.000000
358.529000	-0.000000
358.702000	-0.000000
358.876000	-0.000000
359.050000	-0.000000
359.224000	-0.000000
359.397000	-0.000000
359.571000	-0.000000
359.745000	-0.000000
359.919000	-0.000000
360.093000	-0.026622
360.266000	0.036798
360.440000	0.090068
360.614000	0.159313
360.788000	0.046913
360.962000	-0.197787
361.135000	-0.087065
361.309000	-0.194477
361.483000	-0.316476
361.657000	-0.252841
361.830000	-0.214456
362.004000	-0.057999
362.178000	-0.360358
362.352000	-0.271605
362.526000	-0.063633
362.699000	-0.068313
362.873000	-0.379501
363.047000	-0.351280
363.221000	-0.331736
363.395000	-0.163172
363.568000	-0.191583
363.742000	-0.221492
363.916000	-0.220508
364.090000	-0.300534
364.263000	-0.280615
364.437000	-0.353164
364.611000	-0.073841
364.785000	-0.082708
364.959000	-0.237421
365.132000	-0.210760
365.306000	-0.261709
365.480000	-0.140390
365.656000	-0.186432
365.831000	-0.174041
366.007000	-0.207375
366.183000	-0.202317
366.358000	-0.297690
366.534000	-0.151381
366.710000	-0.310632
366.886000	-0.269083
367.061000	-0.106598
367.237000	0.027101
367.413000	-0.147359
367.588000	-0.350052
367.764000	-0.305273
367.940000	-0.332293
368.115000	-0.282851
368.291000	-0.302940
368.467000	-0.173935
368.643000	0.150623
368.818000	-0.236947
368.994000	-0.354223
369.170000	-0.257681
369.345000	-0.206955
369.521000	-0.271287
369.697000	-0.190610
369.872000	-0.223158
370.048000	-0.305196
370.224000	-0.268276
370.399000	-0.472563
370.575000	-0.343233
370.751000	-0.434333
370.927000	-0.391805
371.102000	-0.374055
371.278000	-0.379003
371.454000	-0.280335
371.629000	0.002708
371.805000	-0.058176
371.981000	0.101305
372.156000	0.266443
372.332000	0.050565
372.508000	-0.040618
372.683000	-0.045760
372.859000	-0.117926
373.035000	-0.141113
373.211000	0.159467
373.386000	-0.046630
373.562000	-0.381226
373.738000	-0.469253
373.913000	-0.589998
374.089000	-0.463470
374.265000	-0.039692
374.440000	-0.005523
374.616000	0.012401
374.792000	-0.190342
374.968000	0.185248
375.143000	-0.074322
375.319000	-0.306730
375.495000	-0.370100
375.670000	-0.222175
375.846000	-0.101850
376.022000	-0.279930
376.197000	-0.208219
376.373000	-0.384083
376.549000	-0.424109
376.724000	-0.474790
376.900000	-0.334131
377.076000	-0.220388
377.252000	0.010475
377.427000	0.119905
377.603000	-0.198742
377.779000	-0.193479
377.954000	-0.378446
378.130000	-0.260875
378.306000	-0.165457
378.481000	-0.174005
378.657000	-0.226890
378.833000	-0.257932
379.009000	-0.136754
379.184000	-0.018504
379.360000	-0.081227
379.536000	-0.089827
379.711000	-0.147723
379.887000	-0.239498
380.063000	-0.298487
380.238000	-0.355958
380.414000	-0.061610
380.590000	-0.285888
380.765000	-0.307434
380.941000	-0.108292
381.117000	-0.076488
381.293000	-0.142271
381.468000	-0.318462
381.644000	-0.249224
381.820000	-0.122123
381.995000	-0.024926
382.171000	0.193761
382.347000	0.125068
382.522000	-0.289316
382.698000	0.049496
382.874000	0.071532
383.050000	-0.314210
383.225000	0.078426
383.401000	0.270147
383.577000	-0.142637
383.752000	-0.275884
383.928000	-0.205479
384.104000	-0.136445
384.279000	-0.213448
384.455000	-0.143003
384.631000	-0.161274
384.806000	-0.357099
384.982000	-0.158880
385.158000	-0.228000
385.334000	-0.088522
385.509000	-0.161034
385.685000	-0.463229
385.861000	-0.273516
386.036000	-0.403975
386.212000	-0.536984
386.388000	-0.328902
386.563000	-0.287402
386.739000	-0.361439
386.915000	-0.544810
387.090000	-0.287109
387.266000	-0.099685
387.442000	0.012934
387.618000	-0.078274
387.793000	-0.324846
387.969000	-0.508363
388.145000	-0.402429
388.320000	-0.307146
388.496000	-0.329401
388.672000	-0.563131
388.847000	-0.149409
389.023000	-0.091251
389.199000	-0.377243
389.375000	-0.202488
389.550000	-0.318491
389.726000	-0.177388
389.902000	-0.379143
390.077000	-0.234273
390.253000	-0.164403
390.429000	-0.224337
390.604000	-0.129851
390.780000	-0.119072
390.956000	-0.238817
391.131000	-0.281014
391.307000	-0.005022
391.483000	-0.183220
391.659000	-0.324833
391.834000	-0.087755
392.010000	-0.226601
392.186000	-0.308299
392.361000	-0.254959
392.537000	-0.356992
392.713000	0.090136
392.888000	0.213928
393.064000	-0.084389
393.240000	-0.229007
393.416000	-0.358007
393.591000	-0.406441
393.767000	-0.430107
393.943000	-0.335102
394.118000	-0.073240
394.294000	0.101248
394.470000	-0.032851
394.645000	0.055791
394.821000	0.225680
394.997000	-0.111530
395.172000	-0.156766
395.348000	-0.240445
395.524000	-0.506244
395.700000	-0.381959
395.875000	-0.108931
396.051000	-0.136285
396.227000	-0.215587
396.402000	-0.272427
396.578000	-0.169077
396.754000	-0.331516
396.929000	-0.290574
397.105000	-0.037014
397.281000	-0.149201
397.457000	-0.241598
397.632000	-0.208434
397.808000	-0.456262
397.984000	-0.590709
398.159000	-0.514356
398.335000	-0.325515
398.511000	0.141113
398.686000	-0.099504
398.862000	-0.350620
399.038000	-0.437732
399.213000	-0.200900
399.389000	-0.485917
399.565000	-0.190066
399.741000	0.043362
399.916000	-0.033131
400.092000	0.189574
400.268000	-0.163490
400.443000	-0.297791
400.619000	0.071950
400.795000	-0.033148
400.970000	-0.227795
401.146000	-0.275596
401.322000	-0.012987
401.497000	0.401134
401.673000	0.094871
401.849000	-0.245847
402.025000	-0.051786
402.200000	-0.147893
402.376000	-0.273364
402.552000	0.127233
402.727000	-0.062146
402.903000	-0.377944
403.079000	-0.255255
403.254000	-0.017579
403.430000	-0.039579
403.606000	-0.120098
403.782000	-0.138580
403.957000	-0.350355
404.133000	-0.466005
404.309000	-0.286775
404.484000	-0.097972
404.660000	-0.119298
404.841000	-0.241082
405.023000	-0.020950
405.204000	-0.056033
405.385000	-0.365880
405.566000	-0.385248
405.748000	-0.257151
405.929000	-0.030822
406.110000	-0.077338
406.292000	-0.196054
406.473000	-0.123272
406.654000	-0.330557
406.835000	-0.183405
407.017000	-0.197841
407.198000	-0.171468
407.379000	-0.149190
407.560000	-0.204915
407.742000	-0.237828
407.923000	-0.176153
408.104000	-0.325090
408.286000	-0.190024
408.467000	-0.153723
408.648000	-0.396510
408.829000	-0.419377
409.011000	-0.263739
409.192000	-0.430828
409.373000	-0.208746
409.555000	-0.092792
409.736000	-0.126733
409.917000	-0.209309
410.098000	-0.203329
410.280000	-0.110622
410.461000	-0.121810
410.642000	-0.138002
410.823000	0.082087
411.005000	0.043379
411.186000	-0.171347
411.367000	-0.294970
411.549000	-0.298185
411.730000	-0.034264
411.911000	0.049030
412.092000	-0.169386
412.274000	-0.186162
412.455000	-0.117582
412.636000	-0.101846
412.818000	-0.293053
412.999000	-0.348166
413.180000	-0.260167
413.361000	-0.273571
413.543000	-0.297971
413.724000	-0.377959
413.905000	-0.373485
414.087000	-0.390001
414.268000	-0.382391
414.449000	-0.371970
414.630000	-0.436024
414.812000	-0.544483
414.993000	-0.191366
415.174000	-0.055334
415.355000	-0.227159
415.537000	-0.494434
415.718000	-0.204191
415.899000	-0.284352
416.081000	-0.386760
416.262000	-0.181436
416.443000	-0.302733
416.624000	-0.265920
416.806000	-0.169946
416.987000	-0.041864
417.168000	-0.129220
417.350000	-0.306552
417.531000	-0.376534
417.712000	-0.344947
417.893000	-0.092459
418.075000	-0.006502
418.256000	-0.244536
418.437000	-0.200782
418.618000	-0.093506
418.800000	-0.033653
418.981000	-0.262483
419.162000	-0.189961
419.344000	0.010803
419.525000	-0.104266
419.706000	-0.166358
419.887000	-0.030384
420.069000	0.093223
420.250000	-0.049850
420.431000	-0.098377
420.613000	-0.148807
420.794000	-0.349326
420.975000	0.006462
421.156000	-0.172651
421.338000	-0.232890
421.519000	-0.206971
421.700000	-0.284348
421.882000	-0.298350
422.063000	-0.109989
422.244000	0.307916
422.425000	0.095851
422.607000	-0.236149
422.788000	-0.268633
422.969000	-0.333469
423.150000	-0.387703
423.332000	-0.433835
423.513000	-0.215455
423.694000	-0.189513
423.876000	-0.132797
424.057000	-0.049672
424.238000	-0.001084
424.419000	0.007609
424.601000	-0.135862
424.782000	-0.132467
424.963000	0.012921
425.145000	-0.068023
425.326000	-0.035478
425.507000	-0.004294
425.688000	-0.134870
425.870000	-0.268649
426.051000	-0.353956
426.232000	-0.302290
426.413000	-0.279180
426.595000	-0.294941
426.776000	-0.312020
426.957000	-0.232323
427.139000	-0.172160
427.320000	-0.166437
427.501000	-0.042314
427.682000	-0.052904
427.864000	-0.061506
428.045000	0.102810
428.226000	0.016291
428.408000	-0.296217
428.589000	-0.170708
428.770000	-0.139060
428.951000	-0.245363
429.133000	-0.391624
429.314000	-0.227145
429.495000	-0.211440
429.677000	-0.213261
429.858000	-0.232803
430.039000	-0.166483
430.220000	-0.076273
430.402000	-0.025702
430.583000	-0.271575
430.764000	-0.227728
430.945000	-0.104980
431.127000	0.004254
431.308000	-0.128103
431.489000	0.005323
431.671000	0.066274
431.852000	-0.045657
432.033000	-0.130613
432.214000	-0.067828
432.396000	-0.019026
432.577000	-0.185386
432.758000	-0.349451
432.940000	-0.264196
433.121000	-0.170644
433.302000	-0.126767
433.483000	0.026357
433.665000	0.090719
433.846000	-0.005273
434.027000	-0.119478
434.208000	-0.210382
434.390000	-0.251079
434.571000	0.128220
434.752000	0.578992
434.934000	0.405669
435.115000	0.322434
435.296000	0.404472
435.477000	0.200088
435.659000	-0.049239
435.840000	0.020579
436.026000	-0.010259
436.211000	-0.137321
436.397000	-0.377734
436.582000	-0.272593
436.768000	-0.102011
436.953000	-0.184389
437.139000	-0.156542
437.325000	0.090071
437.510000	0.017202
437.696000	0.174594
437.881000	0.175326
438.067000	-0.172318
438.252000	-0.166431
438.438000	-0.202382
438.624000	-0.183354
438.809000	-0.087811
438.995000	-0.046844
439.180000	-0.142086
439.366000	-0.164767
439.551000	-0.141748
439.737000	-0.087053
439.923000	-0.064384
440.108000	-0.164212
440.294000	-0.105523
440.479000	0.005896
440.665000	0.088845
440.850000	0.029127
441.036000	0.012650
441.222000	-0.049839
441.407000	-0.188936
441.593000	-0.100849
441.778000	-0.002902
441.964000	0.087444
442.149000	-0.198420
442.335000	-0.227277
442.521000	-0.121209
442.706000	0.026826
442.892000	-0.053537
443.077000	-0.109350
443.263000	-0.022925
443.448000	-0.096994
443.634000	-0.163675
443.820000	0.171143
444.005000	0.053861
444.191000	-0.197900
444.376000	-0.143250
444.562000	0.187334
444.747000	0.160066
444.933000	0.013144
445.119000	-0.079613
445.304000	-0.146777
445.490000	-0.006547
445.675000	-0.014022
445.861000	-0.163092
446.046000	-0.145901
446.232000	-0.054171
446.418000	-0.004665
446.603000	-0.021455
446.789000	-0.019568
446.974000	-0.049536
447.160000	-0.249583
447.345000	-0.175088
447.531000	-0.196224
447.717000	-0.023281
447.902000	0.061719
448.088000	0.098543
448.273000	-0.024972
448.459000	-0.049803
448.644000	-0.117192
448.830000	-0.201916
449.016000	-0.264678
449.201000	-0.193145
449.387000	-0.075024
449.572000	0.015699
449.758000	-0.056293
449.943000	-0.185756
450.129000	-0.239323
450.315000	-0.180992
450.500000	-0.218851
450.686000	-0.149239
450.871000	-0.239749
451.057000	-0.079166
451.243000	-0.070799
451.428000	-0.105882
451.614000	-0.091853
451.799000	-0.150549
451.985000	0.043126
452.170000	0.089837
452.356000	-0.085192
452.542000	-0.113726
452.727000	-0.009143
452.913000	-0.108061
453.098000	0.067760
453.284000	0.228832
453.469000	0.070563
453.655000	0.167412
453.841000	0.087685
454.026000	-0.090939
454.212000	-0.038992
454.397000	-0.023608
454.583000	-0.196923
454.768000	-0.279655
454.954000	-0.047988
455.140000	0.011751
455.325000	-0.151508
455.511000	-0.277302
455.696000	-0.251952
455.882000	-0.101278
456.067000	0.094089
456.253000	-0.076000
456.439000	-0.178212
456.624000	-0.199266
456.810000	-0.218499
456.995000	-0.180978
457.181000	-0.250545
457.366000	-0.057180
457.552000	-0.033811
457.738000	0.041773
457.923000	0.041846
458.109000	0.194685
458.294000	0.121333
458.480000	0.048236
458.665000	-0.008015
458.851000	-0.126242
459.037000	-0.291428
459.222000	-0.126295
459.408000	-0.124531
459.593000	-0.080862
459.779000	0.033293
459.964000	0.171145
460.150000	0.340259
460.336000	0.226609
460.521000	0.036635
460.707000	-0.082672
460.892000	-0.192815
461.078000	0.013059
461.263000	0.083201
461.449000	-0.086977
461.635000	-0.083409
461.820000	-0.032950
462.006000	0.039717
462.191000	0.012043
462.377000	-0.180118
462.562000	0.086044
462.748000	0.266919
462.934000	-0.108269
463.119000	-0.255739
463.305000	-0.036622
463.490000	-0.083906
463.676000	-0.051831
463.861000	-0.081928
464.047000	-0.125055
464.233000	-0.043946
464.418000	-0.059939
464.604000	-0.136462
464.789000	0.031190
464.975000	0.051258
465.160000	-0.069863
465.346000	-0.077394
465.532000	-0.175233
465.717000	-0.179154
465.903000	0.045347
466.088000	-0.010065
466.274000	-0.195260
466.459000	-0.201334
466.645000	0.148073
466.831000	0.123035
467.016000	0.125323
467.202000	0.020842
467.387000	-0.076482
467.573000	-0.228521
467.758000	0.044522
467.944000	-0.066752
468.130000	-0.178926
468.315000	-0.043098
468.501000	0.109839
468.686000	0.023068
468.872000	0.008241
469.057000	0.056850
469.243000	-0.027227
469.429000	-0.070078
469.614000	-0.159560
469.800000	-0.204802
469.985000	-0.059855
470.171000	0.031041
470.356000	-0.072152
470.542000	0.008231
470.728000	-0.009843
470.913000	-0.063659
471.099000	0.039148
471.284000	-0.037784
471.470000	-0.077322
471.655000	-0.062525
471.841000	-0.064787
472.027000	-0.130514
472.212000	0.060414
472.398000	0.095014
472.583000	-0.020499
472.769000	-0.009858
472.954000	-0.035269
473.140000	-0.176408
473.326000	-0.217522
473.511000	0.063655
473.697000	0.077620
473.882000	-0.045944
474.068000	-0.101926
474.253000	-0.192338
474.439000	-0.120505
474.625000	-0.026184
474.810000	-0.051587
474.996000	-0.048312
475.181000	-0.191718
475.367000	-0.035933
475.552000	0.196295
475.738000	-0.106170
475.924000	-0.114594
476.109000	-0.001636
476.295000	-0.119521
476.480000	-0.063100
476.666000	-0.083460
476.851000	-0.071149
477.037000	-0.026307
477.223000	-0.127740
477.408000	-0.199035
477.594000	-0.273313
477.779000	-0.159896
477.965000	-0.111556
478.151000	-0.224707
478.336000	-0.095219
478.522000	-0.162141
478.707000	-0.197333
478.893000	-0.101742
479.078000	-0.259920
479.264000	-0.256696
479.450000	-0.186838
479.635000	-0.045208
479.821000	-0.119393
480.006000	-0.063354
480.192000	-0.069870
480.377000	-0.057665
480.563000	-0.040326
480.749000	-0.230583
480.934000	-0.212238
481.120000	-0.083601
481.305000	-0.004911
481.491000	-0.030407
481.676000	0.010708
481.862000	0.008256
482.048000	-0.134663
482.233000	-0.086935
482.419000	-0.069048
482.604000	-0.151402
482.790000	-0.167863
482.975000	-0.107070
483.161000	0.059123
483.347000	0.052470
483.532000	-0.000820
483.718000	-0.231182
483.903000	-0.187018
484.089000	-0.124926
484.274000	-0.227302
484.460000	-0.087979
484.646000	-0.031247
484.831000	-0.147298
485.017000	-0.092695
485.202000	-0.068776
485.388000	0.171007
485.573000	0.158421
485.759000	-0.026197
485.945000	0.133471
486.130000	-0.045002
486.316000	-0.071213
486.501000	0.012246
486.687000	-0.125544
486.872000	-0.160744
487.058000	-0.015514
487.244000	0.001634
487.429000	-0.159669
487.615000	-0.017110
487.800000	0.068431
487.986000	-0.042201
488.171000	0.067514
488.357000	0.008917
488.543000	0.003231
488.728000	0.054943
488.914000	-0.021021
489.099000	-0.116355
489.285000	-0.117080
489.470000	0.050742
489.656000	0.090275
489.842000	0.065038
490.027000	0.136886
490.213000	-0.014433
490.398000	-0.271697
490.584000	-0.019225
490.769000	0.000801
490.955000	0.037584
491.141000	0.050267
491.326000	0.010336
491.512000	0.139077
491.697000	0.038069
491.883000	-0.099971
492.068000	-0.130931
492.254000	-0.092213
492.440000	-0.035751
492.625000	-0.104557
492.811000	-0.109089
492.996000	-0.000789
493.182000	-0.016525
493.367000	-0.184659
493.553000	-0.249437
493.739000	-0.145812
493.924000	-0.036297
494.110000	-0.026744
494.295000	-0.142722
494.481000	-0.045539
494.666000	-0.033785
494.852000	0.120021
495.038000	-0.039925
495.223000	-0.157587
495.409000	-0.099336
495.594000	-0.139457
495.780000	-0.099241
495.965000	-0.168177
496.151000	0.008594
496.337000	0.087421
496.522000	-0.118961
496.708000	-0.049162
496.893000	0.087394
497.079000	-0.065380
497.264000	-0.111089
497.450000	-0.076938
497.636000	-0.014001
497.821000	-0.134995
498.007000	0.064396
498.192000	0.107466
498.378000	-0.036537
498.563000	-0.111200
498.749000	-0.076285
498.935000	-0.060625
499.120000	0.011630
499.306000	-0.146752
499.491000	-0.175781
499.677000	-0.077413
499.862000	-0.004662
500.048000	0.046706
500.234000	-0.065223
500.419000	-0.093346
500.605000	0.050607
500.790000	-0.042774
500.976000	-0.164360
501.161000	-0.239855
501.347000	-0.082544
501.533000	0.030389
501.718000	-0.044389
501.904000	-0.129575
502.089000	-0.040650
502.275000	0.045223
502.460000	-0.072299
502.646000	-0.033467
502.832000	0.016353
503.017000	-0.003901
503.203000	-0.197691
503.388000	-0.263177
503.574000	-0.044529
503.759000	0.013277
503.945000	0.049287
504.131000	-0.039117
504.316000	-0.076622
504.502000	-0.047711
504.687000	-0.096462
504.873000	-0.205586
505.058000	-0.240082
505.244000	-0.248652
505.430000	-0.176035
505.615000	-0.103866
505.801000	-0.048086
505.986000	-0.179648
506.172000	-0.117745
506.358000	-0.098344
506.543000	-0.114804
506.729000	0.066091
506.914000	0.026021
507.100000	0.098903
507.285000	-0.099862
507.471000	-0.184460
507.657000	0.066493
507.842000	-0.073516
508.028000	-0.235725
508.213000	-0.206973
508.399000	-0.153366
508.584000	-0.009545
508.770000	-0.104018
508.956000	-0.167671
509.141000	-0.117504
509.327000	-0.035006
509.512000	-0.077659
509.698000	-0.088094
509.883000	-0.017509
510.069000	-0.094961
510.255000	-0.091810
510.440000	-0.045562
510.626000	-0.123034
510.811000	-0.176016
510.997000	-0.094429
511.182000	0.163855
511.368000	0.073615
511.554000	-0.262607
511.739000	-0.197628
511.925000	-0.006405
512.110000	-0.028795
512.296000	0.087403
512.481000	0.098509
512.667000	0.020846
512.853000	-0.170803
513.038000	-0.111619
513.224000	-0.133333
513.409000	-0.247364
513.595000	-0.120664
513.780000	-0.240401
513.966000	-0.170842
514.152000	-0.182896
514.337000	-0.232725
514.523000	-0.169342
514.708000	-0.106048
514.894000	-0.072505
515.079000	-0.182159
515.265000	-0.169902
515.451000	-0.150639
515.636000	-0.221365
515.822000	-0.124925
516.007000	-0.232961
516.193000	-0.085362
516.378000	0.001613
516.564000	-0.099077
516.750000	-0.088637
516.935000	0.009674
517.121000	0.024987
517.306000	0.091972
517.492000	0.035552
517.677000	-0.188049
517.863000	-0.190505
518.049000	-0.075903
518.234000	-0.167829
518.420000	-0.053320
518.605000	0.143752
518.791000	0.100092
518.976000	-0.024312
519.162000	-0.148030
519.348000	-0.072817
519.533000	-0.085638
519.719000	0.071976
519.904000	0.005667
520.090000	-0.005656
520.275000	0.171409
520.461000	0.109368
520.647000	-0.104488
520.832000	-0.270455
521.018000	-0.143382
521.203000	-0.098505
521.389000	-0.267061
521.574000	-0.195453
521.760000	-0.043671
521.946000	-0.064895
522.131000	-0.155070
522.317000	-0.135376
522.502000	-0.182314
522.688000	-0.101330
522.873000	-0.120089
523.059000	-0.149405
523.245000	-0.133852
523.430000	-0.222558
523.616000	-0.162405
523.801000	-0.257753
523.987000	-0.204455
524.172000	-0.086334
524.358000	-0.030148
524.544000	-0.074841
524.729000	0.008925
524.915000	0.035784
525.100000	-0.094303
525.286000	-0.043965
525.471000	-0.041639
525.657000	-0.027788
525.843000	-0.223385
526.028000	-0.081884
526.214000	-0.137513
526.399000	-0.229851
526.585000	-0.281624
526.770000	-0.282412
526.956000	-0.151435
527.142000	-0.216414
527.327000	-0.102977
527.513000	-0.193012
527.698000	-0.188273
527.884000	-0.177356
528.069000	-0.196850
528.255000	-0.073708
528.441000	-0.179102
528.626000	-0.148046
528.812000	0.079781
528.997000	-0.069950
529.183000	-0.183123
529.368000	-0.106202
529.554000	-0.111514
529.740000	-0.095012
529.925000	-0.132037
530.111000	-0.134708
530.296000	-0.106240
530.482000	-0.000845
530.667000	-0.053272
530.853000	-0.011028
531.039000	-0.085865
531.224000	-0.035898
531.410000	0.051267
531.595000	-0.055591
531.781000	0.004277
531.967000	-0.129023
532.152000	0.004314
532.338000	-0.087320
532.523000	-0.226944
532.709000	-0.264298
532.894000	-0.142410
533.080000	-0.084838
533.266000	-0.217068
533.451000	-0.249502
533.637000	-0.186854
533.822000	-0.015043
534.008000	-0.154721
534.193000	-0.139322
534.379000	-0.046311
534.565000	-0.131444
534.750000	-0.175908
534.936000	0.048649
535.121000	-0.110194
535.307000	-0.055192
535.492000	-0.043500
535.678000	-0.233387
535.864000	-0.096199
536.049000	0.130848
536.235000	-0.080256
536.420000	-0.067650
536.606000	-0.126393
536.791000	-0.219697
536.977000	-0.216498
537.163000	0.006586
537.348000	0.017035
537.534000	0.047635
537.719000	-0.132757
537.905000	-0.260795
538.090000	-0.008663
538.276000	0.080178
538.462000	0.020352
538.647000	0.036003
538.833000	-0.056746
539.018000	0.048165
539.204000	0.016722
539.389000	-0.153509
539.575000	0.170488
539.761000	0.104596
539.946000	-0.167143
540.132000	-0.034162
540.317000	-0.140062
540.503000	-0.020196
540.688000	0.047760
540.874000	0.271125
541.060000	0.409609
541.245000	0.249785
541.431000	0.084263
541.616000	0.129831
541.802000	0.114473
541.987000	0.204779
542.173000	0.229440
542.359000	0.125769
542.544000	0.234566
542.730000	0.083363
542.915000	0.081475
543.101000	0.241431
543.286000	0.074360
543.472000	-0.024239
543.658000	0.092808
543.843000	0.089865
544.029000	0.258793
544.214000	0.172042
544.400000	-0.133961
544.585000	0.024507
544.771000	0.150730
544.957000	0.353534
545.142000	0.408507
545.328000	0.477308
545.513000	0.522356
545.699000	0.425096
545.884000	0.244624
546.070000	0.196005
546.261000	0.160854
546.451000	-0.029436
546.642000	-0.230434
546.833000	-0.105023
547.023000	-0.217654
547.214000	-0.203160
547.405000	-0.015371
547.595000	0.245161
547.786000	0.200857
547.977000	-0.034305
548.167000	-0.181638
548.358000	-0.129043
548.549000	0.219957
548.740000	0.042428
548.930000	-0.254658
549.121000	-0.172500
549.312000	-0.233879
549.502000	-0.306580
549.693000	-0.177943
549.884000	-0.090125
550.074000	0.040699
550.265000	-0.188114
550.456000	-0.088606
550.646000	0.009109
550.837000	-0.052397
551.028000	-0.187056
551.218000	-0.044471
551.409000	-0.164919
551.600000	-0.122649
551.790000	-0.009206
551.981000	-0.245102
552.172000	-0.214432
552.362000	0.125607
552.553000	0.149410
552.744000	-0.039353
552.934000	-0.071824
553.125000	-0.131138
553.316000	-0.184639
553.506000	0.157092
553.697000	-0.007008
553.888000	-0.010493
554.079000	0.106183
554.269000	0.053729
554.460000	-0.229508
554.651000	-0.254360
554.841000	-0.377861
555.032000	-0.282067
555.223000	-0.163593
555.413000	-0.008202
555.604000	-0.075308
555.795000	-0.139214
555.985000	-0.056746
556.176000	-0.134526
556.367000	-0.396410
556.557000	-0.276992
556.748000	-0.189766
556.939000	-0.229736
557.129000	-0.318283
557.320000	-0.144441
557.511000	-0.181987
557.701000	-0.165181
557.892000	-0.105430
558.083000	0.117148
558.273000	-0.017753
558.464000	-0.223701
558.655000	-0.219961
558.845000	-0.135597
559.036000	-0.058997
559.227000	-0.067307
559.418000	0.018928
559.608000	0.056761
559.799000	-0.237391
559.990000	-0.293693
560.180000	-0.223499
560.371000	-0.373458
560.562000	-0.310544
560.752000	-0.138931
560.943000	-0.279167
561.134000	-0.434661
561.324000	-0.217068
561.515000	0.038648
561.706000	-0.130144
561.896000	-0.348637
562.087000	-0.245407
562.278000	-0.279188
562.468000	-0.417444
562.659000	-0.290363
562.850000	0.053676
563.040000	0.085181
563.231000	-0.353836
563.422000	-0.230460
563.612000	-0.315775
563.803000	-0.212847
563.994000	-0.292853
564.185000	-0.388275
564.375000	-0.145772
564.566000	-0.150217
564.757000	-0.176127
564.947000	-0.276607
565.138000	-0.154560
565.329000	-0.211804
565.519000	-0.398078
565.710000	-0.289070
565.901000	-0.064538
566.091000	0.038004
566.282000	-0.141324
566.473000	-0.147759
566.663000	-0.156741
566.854000	-0.327052
567.045000	-0.195494
567.235000	-0.102275
567.426000	-0.099966
567.617000	-0.113188
567.807000	-0.154002
567.998000	-0.133347
568.189000	-0.231606
568.379000	-0.164530
568.570000	-0.087777
568.761000	-0.131389
568.951000	-0.196210
569.142000	-0.276185
569.333000	-0.273935
569.524000	-0.353439
569.714000	-0.432812
569.905000	-0.525853
570.096000	-0.121671
570.286000	-0.028983
570.477000	0.118954
570.668000	-0.069973
570.858000	-0.114394
571.049000	-0.230198
571.240000	-0.343256
571.430000	-0.136017
571.621000	-0.186223
571.812000	-0.115229
572.002000	-0.091247
572.193000	-0.240369
572.384000	-0.139332
572.574000	-0.099917
572.765000	-0.154534
572.956000	-0.216326
573.146000	-0.035014
573.337000	-0.161619
573.528000	-0.155887
573.718000	-0.023920
573.909000	0.015200
574.100000	-0.054092
574.290000	-0.203817
574.481000	-0.181841
574.672000	-0.171277
574.863000	-0.056865
575.053000	-0.215248
575.244000	-0.107903
575.435000	-0.225204
575.625000	-0.234836
575.816000	-0.214381
576.007000	-0.116743
576.197000	-0.107360
576.388000	-0.124942
576.579000	-0.002117
576.769000	-0.006344
576.960000	-0.264113
577.155000	-0.417200
577.350000	-0.145209
577.545000	-0.036760
577.740000	-0.219905
577.935000	0.089871
578.130000	0.021962
578.326000	-0.248146
578.521000	-0.006253
578.716000	0.013485
578.911000	-0.232109
579.106000	-0.091875
579.301000	0.010292
579.496000	-0.156965
579.691000	-0.420268
579.886000	-0.245369
580.081000	-0.125558
580.276000	-0.094702
580.471000	-0.185298
580.666000	-0.282547
580.861000	-0.310895
581.057000	-0.301947
581.252000	-0.170838
581.447000	-0.219158
581.642000	-0.220542
581.837000	-0.231410
582.032000	-0.191281
582.227000	0.024148
582.422000	0.004017
582.617000	-0.182955
582.812000	-0.309128
583.007000	-0.250158
583.202000	-0.304412
583.397000	-0.071376
583.592000	0.142502
583.788000	-0.128237
583.983000	-0.120231
584.178000	-0.017711
584.373000	-0.177558
584.568000	-0.227112
584.763000	-0.279267
584.958000	-0.331177
585.153000	-0.245951
585.348000	-0.210560
585.543000	-0.064703
585.738000	-0.116609
585.933000	-0.294047
586.128000	-0.080344
586.324000	-0.085467
586.519000	-0.058900
586.714000	0.043227
586.909000	0.074798
587.104000	0.042461
587.299000	-0.055140
587.494000	-0.051132
587.689000	-0.125125
587.884000	-0.111667
588.079000	-0.168995
588.274000	-0.147524
588.469000	-0.138335
588.664000	-0.063322
588.859000	-0.076295
589.055000	-0.092254
589.250000	-0.112148
589.445000	-0.222578
589.640000	-0.209830
589.835000	0.029905
590.030000	0.118588
590.225000	0.113626
590.420000	-0.096816
590.615000	-0.197802
590.810000	-0.156667
591.005000	-0.181356
591.200000	-0.254604
591.395000	-0.274610
591.591000	-0.116058
591.786000	-0.008997
591.981000	-0.151396
592.176000	-0.098457
592.371000	-0.080404
592.566000	-0.155670
592.761000	0.031130
592.956000	-0.004024
593.151000	0.057364
593.346000	-0.050459
593.541000	-0.042341
593.736000	-0.046517
593.931000	-0.194241
594.126000	-0.148936
594.322000	-0.093208
594.517000	-0.197520
594.712000	-0.305024
594.907000	-0.340700
595.102000	-0.218946
595.297000	-0.050884
595.492000	0.012238
595.687000	-0.170658
595.882000	-0.274008
596.077000	-0.153660
596.272000	0.020484
596.467000	0.030736
596.662000	-0.117936
596.857000	-0.102962
597.053000	-0.084571
597.248000	-0.051545
597.443000	-0.029936
597.638000	-0.115894
597.833000	-0.308654
598.028000	-0.108616
598.223000	0.006219
598.418000	-0.100716
598.613000	-0.206597
598.808000	-0.069611
599.003000	-0.080087
599.198000	-0.266600
599.393000	-0.195726
599.589000	-0.087690
599.784000	-0.260119
599.979000	-0.173669
600.174000	0.008375
600.369000	-0.216939
600.564000	-0.145863
600.759000	0.082997
600.954000	0.180399
601.149000	0.019989
601.344000	-0.301191
601.539000	-0.123359
601.734000	-0.195852
601.929000	-0.380023
602.124000	-0.327516
602.320000	-0.119592
602.515000	0.139722
602.710000	0.073188
602.905000	-0.247106
603.100000	-0.284826
603.295000	-0.218521
603.490000	-0.139360
603.685000	-0.097888
603.880000	-0.078832
604.075000	-0.263794
604.270000	-0.271845
604.465000	-0.180736
604.660000	-0.387451
604.856000	-0.252406
605.051000	-0.067509
605.246000	-0.091009
605.441000	-0.304299
605.636000	-0.327966
605.831000	-0.214750
606.026000	-0.301599
606.221000	-0.315984
606.416000	-0.174336
606.611000	0.011850
606.806000	0.010762
607.001000	0.169188
607.196000	-0.070111
607.391000	-0.293797
607.587000	-0.080092
607.782000	-0.099706
607.977000	-0.274624
608.172000	0.053144
608.367000	0.094356
608.562000	-0.117366
608.757000	-0.142315
608.952000	-0.209069
609.147000	0.204459
609.342000	0.114370
609.537000	-0.112397
609.732000	-0.044811
609.927000	-0.101444
610.122000	-0.046985
610.318000	0.287652
610.513000	0.448663
610.708000	0.316597
610.903000	0.388238
611.098000	0.451714
611.293000	0.386975
611.488000	0.392525
611.683000	0.342547
611.878000	0.297479
612.073000	0.282134
612.268000	0.232794
612.463000	0.300766
612.658000	0.232213
612.854000	0.146269
613.049000	0.047670
613.244000	0.166385
613.439000	0.229700
613.634000	-0.074532
613.829000	0.065652
614.024000	-0.066923
614.219000	-0.090333
614.414000	0.201988
614.609000	-0.016764
614.804000	-0.172158
614.999000	-0.189871
615.194000	-0.129896
615.389000	-0.072872
615.585000	-0.219018
615.780000	-0.073067
615.975000	-0.100245
616.170000	-0.101445
616.365000	0.110575
616.560000	0.217974
616.755000	0.115549
616.950000	-0.003400
617.145000	0.074868
617.340000	-0.071533
617.535000	-0.337222
617.730000	-0.092095
617.925000	-0.226625
618.120000	-0.267707
618.316000	0.060508
618.511000	-0.058279
618.706000	-0.235085
618.901000	-0.145563
619.096000	-0.019559
619.291000	-0.112654
619.486000	-0.050739
619.681000	-0.350838
619.876000	-0.393370
620.071000	-0.245928
620.266000	0.025463
620.461000	0.098555
620.656000	0.012778
620.852000	-0.025524
621.047000	-0.153517
621.242000	-0.263185
621.437000	0.052529
621.632000	0.161434
621.827000	-0.039810
622.022000	-0.305831
622.217000	-0.139817
622.412000	0.018819
622.607000	0.034143
622.802000	-0.207320
622.997000	-0.250597
623.192000	-0.117014
623.387000	-0.078026
623.583000	-0.335228
623.778000	0.011878
623.973000	0.014263
624.168000	-0.033360
624.363000	0.042825
624.558000	0.095330
624.753000	-0.218768
624.948000	0.002395
625.143000	0.022773
625.338000	-0.060029
625.533000	-0.181344
625.728000	-0.075742
625.923000	0.111881
626.119000	-0.019293
626.314000	-0.273983
626.509000	-0.292985
626.704000	-0.210001
626.899000	-0.166445
627.094000	-0.233590
627.289000	-0.258515
627.484000	-0.218789
627.679000	-0.223878
627.874000	-0.200893
628.069000	0.139849
628.264000	0.029415
628.459000	-0.105652
628.654000	-0.148785
628.850000	-0.282572
629.045000	-0.138355
629.240000	-0.194138
629.435000	-0.235249
629.630000	-0.120328
629.825000	-0.155057
630.020000	-0.099628
630.215000	-0.247688
630.410000	-0.222428
630.605000	-0.220109
630.800000	-0.158804
630.995000	0.001253
631.190000	0.251185
631.385000	0.031417
631.581000	-0.114553
631.776000	-0.051645
631.971000	-0.211039
632.166000	-0.151762
632.361000	-0.289884
632.556000	-0.188878
632.751000	0.003815
632.946000	-0.132304
633.141000	-0.265413
633.336000	-0.209596
633.531000	-0.108967
633.726000	-0.131879
633.921000	-0.299139
634.117000	-0.446487
634.312000	-0.544824
634.507000	-0.447419
634.702000	-0.316467
634.897000	-0.275525
635.092000	-0.159526
635.287000	-0.070177
635.482000	-0.183721
635.677000	-0.070384
635.872000	0.032589
636.067000	0.079700
636.262000	-0.094439
636.457000	-0.414109
636.652000	-0.419961
636.848000	-0.388101
637.043000	-0.338363
637.238000	-0.289087
637.433000	-0.393668
637.628000	-0.319677
637.823000	-0.088636
638.018000	-0.033137
638.213000	-0.201922
638.408000	-0.277901
638.603000	-0.371510
638.798000	-0.406721
638.993000	-0.272559
639.188000	-0.280672
639.383000	-0.304988
639.579000	0.057459
639.774000	-0.152759
639.969000	-0.335138
640.164000	-0.377556
640.359000	-0.379309
640.554000	-0.138721
640.749000	-0.128299
640.944000	-0.096095
641.139000	-0.105354
641.334000	-0.257092
641.529000	-0.646721
641.724000	-0.481904
641.919000	-0.330563
642.115000	-0.020454
642.310000	0.010893
642.505000	-0.129312
642.700000	-0.155456
642.895000	-0.272193
643.090000	-0.144941
643.285000	0.053334
643.480000	-0.016448
643.675000	-0.042527
643.870000	0.257028
644.065000	0.119813
644.260000	-0.265722
644.455000	-0.187594
644.650000	-0.276557
644.846000	-0.190829
645.041000	-0.396701
645.236000	-0.543154
645.431000	-0.452354
645.626000	-0.618492
645.821000	-0.429726
646.016000	-0.298907
646.211000	0.114217
646.406000	-0.027910
646.601000	-0.071101
646.796000	-0.217439
646.991000	-0.476769
647.186000	-0.352081
647.381000	-0.128620
647.577000	-0.135741
647.772000	-0.027989
647.967000	-0.091143
648.162000	-0.096829
648.357000	-0.108202
648.552000	0.022475
648.747000	-0.016866
648.942000	-0.018283
649.137000	-0.056427
649.332000	-0.230240
649.527000	-0.282383
649.722000	-0.016937
649.917000	0.104753
650.113000	-0.221978
650.308000	-0.355385
650.503000	-0.283024
650.698000	-0.097925
650.893000	-0.190309
651.088000	-0.065373
651.283000	-0.008545
651.478000	-0.341822
651.673000	-0.130899
651.868000	-0.296539
652.063000	-0.029999
652.258000	0.138671
652.453000	0.279457
652.648000	-0.098516
652.844000	-0.150023
653.039000	-0.074423
653.234000	-0.456700
653.429000	-0.577989
653.624000	-0.364021
653.819000	-0.074688
654.014000	-0.137912
654.209000	-0.315438
654.404000	-0.122303
654.599000	-0.252442
654.794000	-0.300968
654.989000	0.007221
655.184000	-0.047718
655.380000	-0.362651
655.575000	-0.364137
655.770000	-0.293820
655.965000	-0.230192
656.160000	-0.299842
656.355000	-0.108617
656.550000	-0.140909
656.745000	-0.103209
656.940000	-0.200768
657.135000	-0.155630
657.330000	-0.158604
657.525000	-0.343644
657.720000	-0.102107
657.915000	0.001457
658.111000	-0.147246
658.306000	0.080247
658.501000	-0.127228
658.696000	-0.321598
658.891000	-0.076049
659.086000	-0.160808
659.281000	-0.096643
659.476000	-0.334330
659.671000	-0.719915
659.866000	-0.440060
660.061000	-0.092475
660.256000	-0.016154
660.451000	-0.099948
660.646000	-0.301712
660.842000	-0.169449
661.037000	-0.347869
661.232000	-0.371986
661.427000	-0.182895
661.622000	-0.283714
661.817000	-0.403298
662.012000	-0.210300
662.207000	-0.351235
662.402000	-0.405606
662.597000	-0.211119
662.792000	-0.518400
662.987000	-0.519459
663.182000	-0.226070
663.378000	-0.211367
663.573000	-0.528222
663.768000	-0.547973
663.963000	-0.402485
664.158000	-0.327651
664.353000	0.080753
664.548000	0.239183
664.743000	-0.053877
664.938000	-0.356151
665.133000	-0.386684
665.328000	0.031521
665.523000	-0.022559
665.718000	-0.210576
665.913000	-0.254577
666.109000	-0.229481
666.304000	-0.019620
666.499000	-0.173455
666.694000	-0.036302
666.889000	0.225351
667.084000	-0.103190
667.279000	-0.204741
667.474000	-0.195751
667.669000	-0.133503
667.864000	-0.205048
668.059000	-0.150598
668.254000	-0.140127
668.449000	-0.300394
668.644000	-0.209095
668.840000	0.065542
669.035000	-0.222856
669.230000	-0.491644
669.425000	-0.133339
669.620000	-0.283517
669.815000	-0.341452
670.010000	-0.374942
670.205000	-0.213772
670.400000	-0.145843
670.595000	-0.138587
670.790000	-0.280631
670.985000	-0.229988
671.180000	0.054084
671.376000	-0.320154
671.571000	-0.454168
671.766000	-0.394628
671.961000	-0.469382
672.156000	-0.469966
672.351000	-0.298856
672.546000	-0.307285
672.741000	-0.169649
672.936000	-0.149611
673.131000	0.359416
673.326000	0.018804
673.521000	-0.420328
673.716000	-0.500304
673.911000	-0.608955
674.107000	-0.064469
674.302000	0.193542
674.497000	-0.072464
674.692000	-0.389379
674.887000	-0.431833
675.082000	-0.248719
675.277000	-0.020623
675.472000	-0.147731
675.667000	-0.330915
675.862000	-0.364510
676.057000	-0.261221
676.252000	-0.196330
676.447000	-0.308818
676.643000	-0.115112
676.838000	0.072082
677.033000	-0.178052
677.228000	0.130255
677.423000	0.119071
677.618000	-0.316231
677.813000	-0.488581
678.008000	-0.268532
678.203000	-0.113356
678.398000	-0.384491
678.593000	-0.214220
678.788000	-0.087920
678.983000	-0.369137
679.178000	-0.286346
679.374000	-0.369859
679.569000	-0.254724
679.764000	-0.337364
679.959000	-0.515467
680.154000	-0.479449
680.349000	-0.599739
680.544000	-0.511728
680.739000	-0.423098
680.934000	-0.499331
681.129000	-0.437931
681.324000	-0.521201
681.519000	-0.315367
681.714000	-0.361969
681.909000	-0.424548
682.105000	-0.545483
682.300000	-0.125214
682.495000	0.026698
682.690000	-0.038466
682.885000	-0.155663
683.080000	-0.345758
683.275000	-0.307308
683.470000	0.067253
683.665000	0.225792
683.860000	0.324081
684.055000	0.030400
684.250000	-0.356703
684.445000	-0.391581
684.641000	0.049095
684.836000	-0.205185
685.031000	-0.241665
685.226000	-0.214725
685.421000	0.080321
685.616000	-0.182859
685.811000	-0.327194
686.006000	-0.053100
686.201000	-0.118348
686.396000	-0.526859
686.591000	-0.458908
686.786000	-0.003456
686.981000	-0.124425
687.176000	-0.107404
687.372000	-0.220253
687.567000	0.034701
687.762000	-0.060894
687.957000	-0.099167
688.152000	-0.259778
688.347000	-0.235794
688.542000	-0.467506
688.737000	-0.826087
688.932000	-0.838010
689.127000	-0.414322
689.322000	-0.105636
689.517000	-0.285157
689.712000	-0.468111
689.908000	-0.360722
690.103000	-0.382682
690.298000	-0.297691
690.493000	-0.351769
690.688000	-0.565660
690.883000	-0.380189
691.078000	0.032139
691.273000	0.037500
691.468000	-0.223650
691.663000	-0.238868
691.858000	-0.100594
692.053000	-0.105978
692.248000	-0.021577
692.443000	-0.034162
692.639000	-0.158553
692.834000	0.000000
693.029000	0.505928
693.224000	0.406663
693.419000	-0.223509
693.614000	-0.398708
693.809000	-0.506494
694.004000	-0.511100
694.199000	-0.468994
694.394000	-0.195925
694.589000	-0.515077
694.784000	-0.510095
694.979000	-0.234872
695.174000	-0.286975
695.370000	0.216704
695.565000	-0.033137
695.760000	-0.322902
695.955000	0.044391
696.150000	0.086959
696.345000	-0.364046
696.540000	-0.156293
696.740000	-0.254728
696.940000	-0.094898
697.140000	0.020574
697.340000	-0.206093
697.539000	-0.044990
697.739000	-0.170654
697.939000	-0.176402
698.139000	-0.495942
698.339000	-0.839100
698.539000	-0.587976
698.739000	-0.564991
698.939000	-0.470669
699.138000	-0.539884
699.338000	0.174295
699.538000	0.270046
699.738000	-0.253672
699.938000	-0.334060
700.138000	-0.401551
700.338000	-0.479417
700.538000	-0.253762
700.737000	-0.232538
700.937000	-0.670638
701.137000	-0.685102
701.337000	-0.106096
701.537000	-0.050265
701.737000	-0.272247
701.937000	-0.388976
702.137000	-0.307713
702.337000	-0.410972
702.536000	-0.547786
702.736000	-0.569838
702.936000	-0.679751
703.136000	-0.097673
703.336000	-0.126947
703.536000	-0.336853
703.736000	-0.659824
703.936000	-0.591827
704.135000	-0.601325
704.335000	-0.194455
704.535000	-0.472694
704.735000	-0.693995
704.935000	-0.100337
705.135000	-0.156181
705.335000	-0.414568
705.535000	-0.202458
705.735000	-0.150825
705.934000	-0.178517
706.134000	-0.394854
706.334000	-0.431591
706.534000	-0.519849
706.734000	-0.506308
706.934000	-0.556111
707.134000	-0.540305
707.334000	-0.319678
707.533000	-0.268225
707.733000	-0.262030
707.933000	-0.356397
708.133000	-0.151985
708.333000	-0.100510
708.533000	-0.318201
708.733000	0.012082
708.933000	-0.217663
709.132000	-0.375593
709.332000	-0.382297
709.532000	-0.462202
709.732000	-0.287443
709.932000	-0.740618
710.132000	-0.671208
710.332000	-0.871562
710.532000	-0.326631
710.732000	-0.097648
710.931000	-0.390880
711.131000	-0.443503
711.331000	-0.255671
711.531000	-0.403621
711.731000	-0.343017
711.931000	-0.279807
712.131000	-0.347284
712.331000	-0.213782
712.530000	-0.301805
712.730000	-0.491982
712.930000	-0.331308
713.130000	-0.410939
713.330000	-0.523097
713.530000	-0.319578
713.730000	0.406922
713.930000	-0.012453
714.129000	-0.503814
714.329000	-0.621909
714.529000	-0.301365
714.729000	0.022909
714.929000	-0.104136
715.129000	-0.446442
715.329000	-0.348715
715.529000	-0.352240
715.729000	0.261591
715.928000	0.004196
716.128000	-0.335885
716.328000	-0.242134
716.528000	-0.364670
716.728000	-0.200300
716.928000	-0.413292
717.128000	-0.259941
717.328000	-0.249334
717.527000	-0.414650
717.727000	-0.393879
717.927000	-0.337786
718.127000	-0.384743
718.327000	-0.790046
718.527000	-0.700256
718.727000	-0.281213
718.927000	-0.392705
719.127000	-0.670712
719.326000	-0.458843
719.526000	-0.117594
719.726000	-0.272106
719.926000	-0.655923
720.126000	-0.587200
720.326000	-0.404312
720.526000	-0.466766
720.726000	-0.345199
720.925000	-0.088514
721.125000	-0.606723
721.325000	-0.328965
721.525000	-0.310236
721.725000	-0.499036
721.925000	-0.513497
722.125000	-0.465667
722.325000	-0.036988
722.524000	-0.349182
722.724000	-0.740749
722.924000	-0.775663
723.124000	-0.599425
723.324000	-0.181764
723.524000	-0.127131
723.724000	-0.649394
723.924000	-0.422739
724.124000	-0.257696
724.323000	-0.077188
724.523000	-0.169666
724.723000	0.240694
724.923000	0.033133
725.123000	-0.101714
725.323000	-0.017721
725.523000	-0.224155
725.723000	-0.465576
725.922000	-0.499394
726.122000	-0.315528
726.322000	-0.452288
726.522000	-0.526327
726.722000	0.126975
726.922000	-0.135793
727.122000	-0.192112
727.322000	0.084995
727.521000	-0.204040
727.721000	-0.417664
727.921000	-0.312140
728.121000	-0.312062
728.321000	-0.665758
728.521000	-0.552460
728.721000	-0.379474
728.921000	0.056449
729.121000	0.726005
729.320000	0.083776
729.520000	-0.380421
729.720000	-0.578377
729.920000	-0.517321
730.120000	-0.331881
730.320000	-0.246103
730.520000	-0.517484
730.720000	-0.496246
730.919000	-0.466430
731.119000	-0.114530
731.319000	-0.534583
731.519000	-0.681328
731.719000	-0.365028
731.919000	-0.503044
732.119000	-0.945634
732.319000	-0.923214
732.519000	-0.385648
732.718000	-0.677502
732.918000	-0.594771
733.118000	-0.457051
733.318000	-0.130297
733.518000	-0.390922
733.718000	-0.922741
733.918000	-0.844008
734.118000	-0.589668
734.317000	-0.336988
734.517000	-0.560869
734.717000	-0.500169
734.917000	-0.061192
735.117000	-0.117802
735.317000	-0.200212
735.517000	0.172415
735.717000	0.397963
735.916000	-0.419345
736.116000	-0.563376
736.316000	-0.457292
736.516000	-0.423815
736.716000	-0.414502
736.916000	-0.791721
737.116000	-0.555221
737.316000	0.088917
737.516000	0.004816
737.715000	-0.089150
737.915000	-0.660490
738.115000	-0.696441
738.315000	-0.404138
738.515000	-0.740373
738.715000	-0.508649
738.915000	0.029244
739.115000	-0.451589
739.314000	-0.478009
739.514000	-0.007343
739.714000	0.105512
739.914000	-0.095976
740.114000	-0.313124
740.314000	-0.115967
740.514000	0.232289
740.714000	-0.419040
740.913000	-0.814470
741.113000	-0.641653
741.313000	-0.318340
741.513000	-0.394057
741.713000	-0.335098
741.913000	-0.278893
742.113000	-0.323626
742.313000	-0.801993
742.513000	-0.445408
742.712000	-0.424129
742.912000	-0.702018
743.112000	-0.547297
743.312000	-0.878145
743.512000	-0.587599
743.712000	-0.387886
743.912000	-0.917605
744.112000	-0.987248
744.311000	-1.020691
744.511000	-0.629452
744.711000	-0.200896
744.911000	-0.598393
745.111000	-0.619796
745.311000	-0.126785
745.511000	-0.468976
745.711000	-0.695050
745.911000	-0.371347
746.110000	-0.756040
746.310000	-0.865038
746.510000	-0.672803
746.710000	-0.241015
746.910000	-0.091772
747.110000	-0.572529
747.310000	-0.915544
747.510000	-0.723605
747.709000	-0.417599
747.909000	-0.423970
748.109000	-0.109009
748.309000	-0.319704
748.509000	-0.741809
748.709000	-0.827584
748.909000	-0.471229
749.109000	-0.508245
749.308000	-0.110366
749.508000	-0.329612
749.708000	-0.418910
749.908000	-0.175711
750.108000	-0.130141
750.308000	-0.835267
750.508000	-0.120019
750.708000	-0.673967
750.908000	-1.050052
751.107000	-0.337382
751.307000	0.304106
751.507000	-0.239363
751.707000	-0.241807
751.907000	-0.333301
752.107000	-0.229402
752.307000	-0.743211
752.507000	-0.561648
752.706000	-0.547374
752.906000	0.431590
753.106000	-0.449852
753.306000	-1.051007
753.506000	-0.101172
753.706000	-0.467445
753.906000	-0.247841
754.106000	-0.090243
754.305000	-0.192016
754.505000	-0.121740
754.705000	-0.298895
754.905000	-0.336399
755.105000	-0.157029
755.305000	-0.897740
755.505000	-0.713952
755.705000	-0.261248
755.905000	-0.362816
756.104000	-0.864594
756.304000	-1.228132
756.504000	-1.494171
756.704000	-0.404590
756.904000	-0.139635
757.104000	-0.476413
757.304000	-0.473961
757.504000	-0.038032
757.703000	-0.450446
757.903000	-0.073301
758.103000	0.155716
758.303000	-0.223918
758.503000	-0.466743
758.703000	-0.692866
758.903000	-0.761308
759.103000	-0.311900
759.303000	-0.268626
759.502000	-0.497031
759.702000	-0.182574
759.902000	-0.514419
760.102000	-0.503589
760.302000	-0.656568
760.502000	-0.271496
760.702000	-0.148027
760.902000	-0.369338
761.101000	-0.725621
761.301000	-0.991494
761.501000	-0.705830
761.701000	-0.823091
761.901000	-0.585292
762.101000	-0.239531
762.301000	-0.390011
762.501000	-0.759149
762.700000	-0.892326
762.900000	-0.827781
763.100000	-0.463838
763.300000	-0.192503
763.500000	-0.459978
763.703000	-0.644296
763.905000	-0.973227
764.108000	-0.215309
764.311000	-0.465004
764.513000	-0.581176
764.716000	-0.329412
764.919000	-0.342419
765.121000	-0.892520
765.324000	-1.068569
765.527000	-0.922161
765.729000	-0.725665
765.932000	-0.006348
766.135000	-0.111058
766.337000	-0.377792
766.540000	-0.551032
766.743000	-0.369016
766.945000	-0.861466
767.148000	-1.216487
767.351000	-1.049434
767.553000	-0.222269
767.756000	-0.538528
767.958000	-0.864135
768.161000	-0.513122
768.364000	-0.851875
768.566000	-1.136156
768.769000	-0.586258
768.972000	-0.224701
769.174000	-0.699022
769.377000	-1.238255
769.580000	-1.194936
769.782000	-0.429671
769.985000	-0.865378
770.188000	-1.761257
770.390000	-0.928074
770.593000	0.579323
770.796000	0.245153
770.998000	-0.311593
771.201000	-0.829577
771.404000	-0.458573
771.606000	-0.673908
771.809000	-0.596981
772.012000	-0.477837
772.214000	-1.304217
772.417000	-1.347836
772.620000	-0.286738
772.822000	-0.635041
773.025000	-0.887203
773.228000	-0.935996
773.430000	-0.826263
773.633000	-0.513593
773.836000	-0.362036
774.038000	-0.224156
774.241000	-0.505912
774.444000	-0.705003
774.646000	0.326695
774.849000	-0.214877
775.052000	-0.429681
775.254000	-0.324609
775.457000	-0.693006
775.659000	-0.592007
775.862000	-0.787248
776.065000	-0.610264
776.267000	0.034343
776.470000	0.324271
776.673000	-0.452222
776.875000	0.079630
777.078000	0.017284
777.281000	-0.839698
777.483000	-0.268028
777.686000	-0.048824
777.889000	-0.198995
778.091000	-0.021019
778.294000	-1.056450
778.497000	-0.998262
778.699000	-0.771204
778.902000	-0.699972
779.105000	-0.552277
779.307000	0.197272
779.510000	-0.755545
779.713000	-0.446584
779.915000	-0.636528
780.118000	0.331034
780.321000	0.466868
780.523000	-0.400082
780.726000	-0.918427
780.929000	-1.043129
781.131000	-0.994653
781.334000	-1.411332
781.537000	-1.418882
781.739000	-0.288361
781.942000	-0.800849
782.145000	-1.399667
782.347000	-1.346125
782.550000	-0.969397
782.753000	-1.136501
782.955000	-1.000794
783.158000	-0.890692
783.361000	-0.607459
783.563000	-0.541679
783.766000	-0.711879
783.968000	1.014332
784.171000	0.897151
784.374000	-0.483693
784.576000	-0.476167
784.779000	-0.154787
784.982000	0.111199
785.184000	-0.551559
785.387000	-0.078381
785.590000	0.511071
785.792000	0.351991
785.995000	0.090008
786.198000	-0.135232
786.400000	-0.441358
786.603000	-0.438696
786.806000	-0.667323
787.008000	-0.456147
787.211000	-0.245922
787.414000	-0.998443
787.616000	-0.712603
787.819000	-0.672266
788.022000	-1.388419
788.224000	-0.766872
788.427000	-1.296748
788.630000	-0.800799
788.832000	-0.519186
789.035000	-0.967604
789.238000	-1.511955
789.440000	-1.241449
789.643000	-0.081301
789.846000	-0.648381
790.048000	-0.194596
790.251000	-0.140143
790.454000	-0.520599
790.656000	0.261260
790.859000	-0.433836
791.062000	-0.896608
791.264000	-0.238637
791.467000	-1.131448
791.669000	-1.628833
791.872000	-0.719634
792.075000	-1.149296
792.277000	-0.904575
792.480000	-0.575879
792.683000	-0.938693
792.885000	-1.189369
793.088000	-1.078337
793.291000	-1.336334
793.493000	-1.382729
793.696000	-0.427775
793.899000	-0.124276
794.101000	-0.546477
794.304000	-0.692695
794.507000	-0.367028
794.709000	-0.194134
794.912000	-0.779661
795.115000	-1.171742
795.317000	-0.764677
795.520000	-0.571930
795.723000	-0.676778
795.925000	-1.076212
796.128000	-1.407126
796.331000	-0.979582
796.533000	-1.278962
796.736000	-0.704890
796.939000	-0.552793
797.141000	-0.833460
797.344000	-0.145995
797.547000	-0.095981
797.749000	-0.229850
797.952000	-0.781255
798.155000	-1.165131
798.357000	-1.475726
798.560000	-1.199966
798.763000	-0.385457
798.965000	-0.579754
799.168000	-0.594178
799.371000	-0.437656
799.573000	-0.784439
799.776000	-1.374826
799.978000	-1.366745
800.181000	-0.643901
800.384000	0.795372
800.586000	0.116354
800.789000	-1.343956
800.992000	-1.252649
801.194000	-1.376211
801.397000	-1.375443
801.600000	-1.262967
801.802000	-0.030426
802.005000	-0.279066
802.208000	-1.469281
802.410000	-0.602937
802.613000	-0.522219
802.816000	-0.557976
803.018000	-1.229054
803.221000	-1.143080
803.424000	0.221131
803.626000	-0.208185
803.829000	-0.666540
804.032000	0.191580
804.234000	0.806168
804.437000	-0.505468
804.640000	-0.581024
804.842000	-0.559955
805.045000	-1.075960
805.248000	-0.852456
805.450000	-0.797553
805.653000	-0.789005
805.856000	-0.987445
806.058000	-0.013630
806.261000	-0.897174
806.464000	-0.957336
806.666000	-0.465728
806.869000	-0.703069
807.072000	-1.966543
807.274000	-2.183928
807.477000	-0.958942
807.679000	-0.669049
807.882000	-1.294926
808.085000	-0.968431
808.287000	-0.344879
808.490000	-1.228069
808.693000	-0.985951
808.895000	-0.757837
809.098000	-0.725442
809.301000	-0.690301
809.503000	-0.801770
809.706000	0.033194
809.909000	0.203874
810.111000	0.104454
810.314000	-0.314077
810.517000	-0.948654
810.719000	-1.197270
810.922000	-0.914928
811.125000	0.129057
811.327000	0.221133
811.530000	-0.482629
811.735000	-0.997534
811.940000	-1.101192
812.146000	-1.057324
812.351000	-0.421992
812.556000	-0.569329
812.761000	-1.161798
812.967000	-0.220615
813.172000	-0.181204
813.377000	-0.461782
813.582000	0.113469
813.788000	-0.312951
813.993000	-1.213979
814.198000	-0.426549
814.403000	-1.264064
814.609000	-0.508807
814.814000	-0.460994
815.019000	0.480157
815.224000	0.334937
815.429000	-0.991359
815.635000	-0.605770
815.840000	-0.323428
816.045000	-0.197987
816.250000	-0.111865
816.456000	-1.390519
816.661000	-2.118371
816.866000	-1.589706
817.071000	-1.501583
817.277000	-2.254005
817.482000	-1.446709
817.687000	-0.671259
817.892000	-0.633517
818.097000	-0.125013
818.303000	0.338572
818.508000	0.660227
818.713000	7.522236
818.918000	3.998729
819.124000	0.565240
819.329000	-0.683270
819.534000	-0.827639
819.739000	-0.890972
819.945000	-0.926956
820.150000	-0.665875
820.355000	-0.667169
820.560000	-0.361963
820.766000	-0.485633
820.971000	-0.585047
821.176000	-2.028427
821.381000	-2.510783
821.586000	-1.494991
821.792000	-0.027080
821.997000	-0.693889
822.202000	-0.851935
822.407000	-1.442341
822.613000	-1.548999
822.818000	-0.962450
823.023000	-0.651541
823.228000	-0.788001
823.434000	-0.016518
823.639000	0.215200
823.844000	-0.791144
824.049000	-0.077512
824.255000	0.205516
824.460000	-0.569202
824.665000	-1.117635
824.870000	-0.078500
825.075000	-0.320009
825.281000	-0.230876
825.486000	0.810025
825.691000	-1.423942
825.896000	-2.501039
826.102000	-0.881596
826.307000	-0.587261
826.512000	-0.961445
826.717000	-0.803675
826.923000	-0.995949
827.128000	-0.767350
827.333000	-1.515585
827.538000	-0.507087
827.744000	0.029214
827.949000	-0.944732
828.154000	-0.673360
828.359000	0.011705
828.564000	-0.694044
828.770000	-0.803223
828.975000	0.378845
829.180000	-0.255826
829.385000	-1.867417
829.591000	-1.463189
829.796000	-0.714243
830.001000	-0.835877
830.206000	-1.520188
830.412000	-1.331820
830.617000	-1.159851
830.822000	-0.084994
831.027000	-0.908627
831.232000	-1.499189
831.438000	-1.313384
831.643000	-0.681183
831.848000	-1.008900
832.053000	-0.796616
832.259000	-0.902712
832.464000	-2.573132
832.669000	-2.221513
832.874000	-1.789232
833.080000	-1.734742
833.285000	0.025001
833.490000	-0.268950
833.695000	-1.580255
833.901000	-1.189186
834.106000	-1.495086
834.311000	-1.356471
834.516000	-0.599548
834.721000	-1.058336
834.927000	0.070847
835.132000	-0.400104
835.337000	1.059916
835.542000	-0.247051
835.748000	-1.881730
835.953000	-0.039067
836.158000	-0.274140
836.363000	-0.360433
836.569000	-0.165103
836.774000	-1.250375
836.979000	-1.649323
837.184000	-2.084917
837.390000	-1.895815
837.595000	-1.167215
837.800000	-0.708622
838.005000	-0.618798
838.210000	-0.968973
838.416000	-1.337500
838.621000	-1.185314
838.826000	-1.238742
839.031000	-0.945734
839.237000	-1.590288
839.442000	-2.327455
839.647000	-2.474798
839.852000	-1.673045
840.058000	-1.513254
840.263000	-1.499856
840.468000	-2.238147
840.673000	-1.251264
840.878000	-1.050662
841.084000	-1.700877
841.289000	-0.926258
841.494000	1.773572
841.699000	1.552580
841.905000	0.412267
842.110000	0.593156
842.315000	-1.439497
842.520000	-0.887156
842.726000	-1.247856
842.931000	-1.827271
843.136000	-0.851677
843.341000	-2.275957
843.547000	-1.356973
843.752000	-1.104257
843.957000	-1.948276
844.162000	-1.722031
844.367000	-1.121023
844.573000	-0.451821
844.778000	-0.339817
844.983000	-0.407300
845.188000	-0.461493
845.394000	-2.020370
845.599000	-1.573369
845.804000	-1.323131
846.009000	-0.658568
846.215000	-1.870788
846.420000	-1.410690
846.625000	-0.558464
846.830000	0.083849
847.036000	-0.926813
847.241000	-1.507651
847.446000	-0.338411
847.651000	-0.857312
847.856000	-1.956166
848.062000	-1.672754
848.267000	-0.109465
848.472000	-1.420133
848.677000	-2.549215
848.883000	-0.722329
849.088000	0.737575
849.293000	-0.644937
849.498000	-1.447270
849.704000	-0.318972
849.909000	-0.799498
850.114000	-1.814917
850.319000	-0.849390
850.524000	-0.821832
850.730000	-0.737363
850.935000	-1.065742
851.140000	-0.065255
851.345000	-0.171270
851.551000	-0.376292
851.756000	-0.254953
851.961000	-1.311140
852.166000	-1.468579
852.372000	-1.050523
852.577000	-1.049867
852.782000	-1.385253
852.987000	0.251147
853.193000	-0.445293
853.398000	-0.722766
853.603000	-2.282642
853.808000	-2.620938
854.013000	-1.280640
854.219000	0.084965
854.424000	1.774122
854.629000	1.384819
854.834000	-1.161720
855.040000	-0.892027
855.245000	-0.414313
855.450000	-2.753584
855.655000	-3.648620
855.861000	-3.436871
856.066000	-2.578850
856.271000	-2.442430
856.476000	-0.352639
856.682000	-1.283237
856.887000	-3.864009
857.092000	-2.356931
857.297000	0.213511
857.502000	-0.205018
857.708000	-0.866325
857.913000	0.152094
858.118000	-0.496603
858.323000	-0.715399
858.529000	-0.768543
858.734000	-1.314610
858.939000	-1.045695
859.144000	-1.706146
859.350000	-2.691893
859.555000	-2.444009
859.760000	-0.487786
859.965000	0.266824
860.171000	-1.607866
860.376000	-0.547472
860.581000	-2.400437
860.786000	-4.699578
860.991000	-3.734769
861.197000	-2.447689
861.402000	-1.081576
861.607000	-1.741038
861.812000	-2.977227
862.018000	-2.846332
862.223000	-1.568431
862.428000	-0.688441
862.633000	0.248716
862.839000	-0.635316
863.044000	-1.698633
863.249000	-2.536197
863.454000	-0.503867
863.659000	-1.341245
863.865000	-2.031637
864.070000	-1.988001
864.275000	-2.481802
864.480000	-2.148254
864.686000	-3.689262
864.891000	-3.029100
865.096000	-0.805501
865.301000	-0.209224
865.507000	-0.350759
865.712000	-0.190399
865.917000	-1.159824
866.122000	-0.343837
866.328000	-3.325654
866.533000	-3.069255
866.738000	0.264577
866.943000	0.132568
867.148000	0.758858
867.354000	-1.850023
867.559000	-3.235892
867.764000	-1.703769
867.969000	-0.678699
868.175000	-1.873131
868.380000	-2.349627
868.585000	-3.136916
868.790000	-1.196142
868.996000	-1.499779
869.201000	-2.965059
869.406000	-3.849931
869.611000	-3.067263
869.817000	-2.563850
870.022000	2.007588
870.227000	-0.160573
870.432000	-2.302123
870.637000	-0.775432
870.843000	-1.603204
871.048000	-1.744869
871.253000	0.021688
871.458000	-1.122598
871.664000	-3.367266
871.869000	-3.298896
872.074000	-2.390328
872.279000	-1.426869
872.485000	-1.914753
872.690000	-2.012499
872.895000	-2.166764
873.100000	-2.652647
873.306000	-2.923545
873.511000	-1.761802
873.716000	-0.022783
873.921000	-1.658800
874.126000	-2.389744
874.332000	-1.700794
874.537000	-0.415753
874.742000	-0.541037
874.947000	-1.156026
875.153000	0.536761
875.358000	-0.748548
875.563000	-1.448967
875.768000	-3.977914
875.974000	-4.465560
876.179000	-1.192351
876.384000	-0.759221
876.589000	-2.429974
876.794000	-2.049254
877.000000	-2.902505
877.205000	-4.084710
877.410000	-1.239873
877.615000	-2.848087
877.821000	-4.813158
878.026000	-3.481249
878.231000	-3.977668
878.436000	-3.947903
878.642000	-2.923298
878.847000	-1.446515
879.052000	-0.330510
879.257000	-2.346034
879.463000	-3.288982
879.668000	-2.584985
879.873000	-0.298022
880.078000	-2.813247
880.283000	-4.561210
880.489000	-4.698569
880.694000	-3.777698
880.899000	-1.757678
881.104000	-0.507860
881.310000	1.282315
881.515000	-0.253632
881.720000	1.118665
881.925000	2.237164
882.131000	3.375133
882.336000	0.657031
882.541000	-2.791618
882.746000	-3.014161
882.952000	-3.649282
883.157000	-3.161792
883.362000	-3.323674
883.567000	-3.810630
883.772000	-3.806225
883.978000	-2.960688
884.183000	-1.450441
884.388000	-2.071008
884.593000	-4.210094
884.799000	0.640342
885.004000	0.108231
885.209000	-1.786581
885.414000	-1.308367
885.620000	-4.198038
885.825000	-0.916795
886.030000	-1.324705
886.235000	-2.885533
886.440000	-2.161388
886.646000	-4.462247
886.851000	-4.484690
887.056000	-0.126142
887.261000	-0.771484
887.467000	-3.774532
887.672000	-1.148584
887.877000	-2.565427
888.082000	-4.954860
888.288000	-5.293484
888.493000	-7.041742
888.698000	-5.295776
888.903000	-2.083243
889.109000	-3.623687
889.314000	-0.780041
889.519000	-2.043421
889.724000	0.201754
889.929000	-1.269648
890.135000	-1.938528
890.340000	-1.967569
890.545000	-3.481740
890.750000	-4.861838
890.956000	-3.486395
891.161000	-0.775260
891.366000	-3.065800
891.571000	-2.029060
891.777000	-1.648309
891.982000	-0.088734
892.187000	-0.683207
892.392000	0.503778
892.598000	0.029803
892.803000	-0.721599
893.008000	-3.108811
893.213000	-2.995749
893.418000	-2.956526
893.624000	-3.653559
893.829000	-5.717792
894.034000	-3.085375
894.239000	-1.405177
894.445000	-3.702903
894.650000	-3.844088
894.855000	-3.603535
895.060000	-3.765915
895.266000	-3.697540
895.471000	-4.747977
895.676000	-1.345832
895.881000	-0.889342
896.087000	-2.137954
896.292000	-3.424130
896.497000	0.584013
896.702000	-1.194787
896.907000	-3.448186
897.113000	1.122035
897.318000	1.026696
897.523000	0.063348
897.728000	-2.321096
897.934000	-2.741476
898.139000	-2.415338
898.344000	-0.336834
898.549000	-1.693761
898.755000	-3.214626
898.960000	-3.689579
899.165000	-5.528725
899.370000	-1.649293
899.575000	1.849958
899.781000	-2.708935
899.986000	-3.727032
900.191000	-2.131534
900.396000	-2.795717
900.602000	-1.764053
900.807000	-2.363108
901.012000	-2.142336
901.217000	-0.169107
901.423000	-2.831252
901.628000	-4.328732
901.833000	0.000000
902.038000	-0.068502
902.244000	-3.347369
902.449000	-2.731458
902.654000	-3.003287
902.859000	-2.043689
903.064000	0.052207
903.270000	0.209580
903.475000	-4.177336
903.680000	-6.250880
903.885000	-5.315123
904.091000	-4.723312
904.296000	-5.985332
904.501000	-4.921385
904.706000	-4.382678
904.912000	-0.072326
905.117000	-1.997310
905.322000	-4.429754
905.527000	-3.990154
905.733000	-3.646370
905.938000	-3.283925
906.143000	-3.713282
906.348000	-5.815949
906.553000	-1.066732
906.759000	0.037406
906.964000	-1.898369
907.169000	-2.986454
907.374000	-5.846406
907.580000	-4.265957
907.785000	-3.857307
907.990000	17.061405
908.195000	11.747470
908.401000	-0.701797
908.606000	-7.899403
908.811000	-9.575607
909.016000	-2.151170
909.221000	-1.432115
909.427000	-2.663510
909.632000	-4.876220
909.837000	-4.669702
910.042000	-5.849011
910.248000	-7.918199
910.453000	-3.491041
910.658000	-4.335712
910.863000	-4.372053
911.069000	-5.802803
911.274000	-1.735035
911.479000	0.228605
911.684000	-6.499097
911.890000	-3.743692
912.095000	-3.832069
912.300000	-6.959566
912.506000	-5.549483
912.711000	-5.340909
912.917000	-3.314320
913.123000	-2.397003
913.328000	-2.433348
913.534000	-2.238353
913.740000	6.805930
913.946000	2.529252
914.151000	-4.548301
914.357000	-5.901484
914.563000	-2.201283
914.768000	-5.280193
914.974000	-6.367418
915.180000	-5.886028
915.385000	-4.864066
915.591000	-7.934161
915.797000	-3.450932
916.002000	0.416852
916.208000	-3.481193
916.414000	-5.780248
916.620000	-6.376542
916.825000	-2.881947
917.031000	-3.611040
917.237000	-9.533973
917.442000	-5.282460
917.648000	-6.570962
917.854000	-7.549220
918.059000	-1.399574
918.265000	-1.084516
918.471000	-3.948254
918.676000	-6.609908
918.882000	-8.551020
919.088000	-7.233533
919.294000	-12.215128
919.499000	-7.615216
919.705000	-2.090475
919.911000	-3.198538
920.116000	-1.475371
920.322000	-7.459296
920.528000	-5.547358
920.733000	-7.994498
920.939000	-8.602725
921.145000	-7.357066
921.350000	-6.420891
921.556000	-4.901898
921.762000	-4.703575
921.968000	-5.063443
922.173000	-6.680238
922.379000	-9.555704
922.585000	-4.852343
922.790000	-5.844054
922.996000	-7.485809
923.202000	-8.272630
923.407000	-7.679761
923.613000	-5.978061
923.819000	-3.662987
924.024000	-3.276343
924.230000	-1.127185
924.436000	-4.565620
924.642000	4.794672
924.847000	1.943570
925.053000	-5.360959
925.259000	-10.069114
925.464000	-3.504842
925.670000	-4.669338
925.876000	-5.695955
926.081000	-7.091362
926.287000	-3.865551
926.493000	-1.876089
926.698000	-3.515956
926.904000	-1.536328
927.110000	-4.697235
927.316000	-3.651908
927.521000	2.213477
927.727000	-3.245321
927.933000	-5.233840
928.138000	-4.469807
928.344000	-10.476318
928.550000	-7.302806
928.755000	-1.838603
928.961000	-6.502825
929.167000	-6.348137
929.372000	0.812924
929.578000	-0.525062
929.784000	-6.512141
929.990000	-9.165586
930.195000	-6.392933
930.401000	-5.601906
930.607000	-4.102276
930.812000	-3.667016
931.018000	-6.887121
931.224000	-12.438508
931.429000	-8.676779
931.635000	-12.432900
931.841000	-12.029977
932.046000	-6.875321
932.252000	-2.151442
932.458000	4.128245
932.664000	0.107967
932.869000	-5.620141
933.075000	-8.233719
933.281000	-8.277327
933.486000	-1.155481
933.692000	-4.680199
933.898000	-8.697760
934.103000	-2.303306
934.309000	-6.553912
934.515000	-3.174084
934.720000	-1.297588
934.926000	1.308471
935.132000	1.150794
935.338000	-2.125962
935.543000	-10.334743
935.749000	-12.608367
935.955000	-13.697844
936.160000	-10.768035
936.366000	-2.310307
936.572000	-3.512338
936.777000	-1.660983
936.983000	0.613378
937.189000	-4.194847
937.394000	-9.129625
937.600000	0.494569
937.806000	4.121237
938.012000	-4.784357
938.217000	4.773646
938.423000	0.933533
938.629000	-7.702767
938.834000	-14.152337
939.040000	-14.266523
939.246000	-7.713491
939.451000	-10.042370
939.657000	-6.320162
939.863000	-10.036615
940.068000	-2.458245
940.274000	-9.041521
940.480000	-4.760043
940.686000	-2.136846
940.891000	-5.684784
941.097000	16.025098
941.303000	3.849460
941.508000	-7.690917
941.714000	-4.159685
941.920000	-15.776220
942.125000	-7.276585
942.331000	-4.200789
942.537000	3.706981
942.742000	0.991229
942.948000	-9.803571
943.154000	-11.606918
943.360000	-23.136274
943.565000	-8.931668
943.771000	3.005547
943.977000	5.688414
944.182000	-13.381423
944.388000	-16.545280
944.594000	-1.316144
944.799000	6.994302
945.005000	-1.818762
945.211000	3.021262
945.416000	-1.794417
945.622000	-14.797995
945.828000	-10.675660
946.034000	-1.013481
946.239000	-1.198987
946.445000	-7.496090
946.651000	-18.975272
946.856000	-16.726704
947.062000	-1.241230
947.268000	0.178562
947.473000	-16.195619
947.679000	-19.240416
947.885000	-3.317213
948.090000	0.424784
948.296000	12.959070
948.502000	-0.669034
948.708000	-10.613943
948.913000	-13.595737
949.119000	-1.551456
949.325000	-6.892833
949.530000	-20.194945
949.736000	-24.336270
949.942000	-15.543836
950.147000	-14.538610
950.353000	-12.443875
950.559000	-9.061585
950.764000	12.505953
950.970000	6.765433
951.176000	-8.554922
951.382000	-14.131574
951.587000	-3.062045
951.793000	1.573933
951.999000	1.422260
952.204000	-11.946269
952.410000	-25.232399
952.616000	-12.838956
952.821000	-7.107255
953.027000	-13.980319
953.233000	-17.789481
953.438000	-17.386754
953.644000	-0.530670
953.850000	-4.779216
954.056000	-10.062053
954.261000	-12.284496
954.467000	-2.841526
954.673000	4.590941
954.878000	-5.487413
955.084000	-7.054271
955.290000	-20.430905
955.495000	-21.583455
955.701000	-15.599426
955.907000	1.803556
956.112000	-1.387493
956.318000	6.325713
956.524000	4.242541
956.730000	-8.901120
956.935000	-12.116635
957.141000	-15.482738
957.347000	-4.356149
957.552000	-8.774527
957.758000	-22.486784
957.964000	-30.575431
958.169000	3.695534
958.375000	3.125494
958.581000	-10.225732
958.786000	-21.895027
958.992000	-28.171372
959.198000	-10.006002
959.404000	-3.720329
959.609000	-11.342657
959.815000	-18.251494
960.021000	0.757683
960.226000	-4.662783
960.432000	-27.029261
960.638000	-17.399733
960.843000	-12.551922
961.049000	-14.078339
961.255000	-2.116542
961.460000	-14.606645
961.666000	-33.502758
961.872000	-20.346802
962.078000	-17.557530
962.283000	-27.857274
962.489000	-29.286324
962.695000	-19.140872
962.900000	-13.390532
963.106000	-11.812726
963.312000	-17.035236
963.517000	-20.165231
963.723000	-24.722129
963.929000	-2.443659
964.134000	6.812033
964.340000	-13.436305
964.546000	-15.939989
964.752000	-24.840760
964.957000	-30.013653
965.163000	-2.630633
965.369000	-5.508004
965.574000	-3.859533
965.780000	-7.545846
966.000000	-15.103988
966.220000	-12.661947
966.440000	-12.638026
966.661000	0.914709
966.881000	-19.359684
967.101000	-39.077332
967.321000	-37.405891
967.541000	-13.107125
967.761000	-18.806897
967.981000	-13.813610
968.202000	-11.157727
968.422000	0.676015
968.642000	-2.406912
968.862000	-5.602452
969.082000	-13.564381
969.302000	-3.680408
969.522000	-10.249247
969.743000	3.326853
969.963000	-15.300934
970.183000	-26.012012
970.403000	-24.544461
970.623000	-24.104988
970.843000	1.549737
971.063000	0.629462
971.284000	-24.170419
971.504000	-35.831115
971.724000	-11.901263
971.944000	-25.555633
972.164000	-33.544094
972.384000	-23.737401
972.604000	-41.915991
972.825000	-45.995653
973.045000	-30.892491
973.265000	23.604683
973.485000	12.020830
973.705000	-6.158154
973.925000	-14.586398
974.145000	-47.799931
974.365000	-16.124918
974.586000	-13.834210
974.806000	-28.421710
975.026000	0.957897
975.246000	-15.478518
975.466000	-29.776654
975.686000	-14.419753
975.906000	-23.380747
976.127000	-45.742018
976.347000	-37.558387
976.567000	-9.337045
976.787000	-9.490741
977.007000	-20.857793
977.227000	-23.952929
977.447000	-28.734397
977.668000	-48.086290
977.888000	-29.767757
978.108000	-28.891207
978.328000	-18.286055
978.548000	6.886502
978.768000	12.815625
978.988000	0.986515
979.209000	-13.888786
979.429000	-19.753727
979.649000	-11.724425
979.869000	-34.657195
980.089000	-43.632201
980.309000	-48.316415
980.529000	-53.317333
980.750000	-29.913326
980.970000	-44.176705
981.190000	-30.503981
981.410000	-25.944040
981.630000	-32.495179
981.850000	-24.097328
982.070000	-17.145871
982.291000	-47.238990
982.511000	-44.856510
982.731000	-12.432671
982.951000	-27.755353
983.171000	-29.134303
983.391000	-23.441508
983.611000	2.948668
983.832000	-27.784673
984.052000	-51.074510
984.272000	-31.529055
984.492000	-19.029558
984.712000	-30.751875
984.932000	-56.039527
985.152000	-61.318584
985.373000	-41.354841
985.593000	-16.988547
985.813000	-26.799716
986.033000	-41.428771
986.253000	2.239302
986.473000	7.275281
986.693000	-26.858079
986.914000	-38.053721
987.134000	9.178227
987.354000	-27.039569
987.574000	147.720139
987.794000	83.938141
988.014000	-45.256033
988.234000	-24.132571
988.455000	-10.328151
988.675000	-11.417842
988.895000	-21.054152
989.115000	-37.189473
989.335000	-24.531704
989.555000	-4.644192
989.775000	-42.797924
989.995000	-35.875638
990.216000	-22.950934
990.436000	-17.514467
990.656000	9.605056
990.876000	-24.054991
991.096000	-14.378169
991.316000	3.165405
991.536000	-25.693953
991.757000	-32.125322
991.977000	-67.516306
992.197000	-19.325984
992.417000	-32.927302
992.637000	-82.030043
992.857000	-80.547475
993.077000	-76.414262
993.298000	-36.512159
993.518000	-33.989745
993.738000	-87.256852
993.958000	-44.126871
994.178000	-48.002684
994.398000	-40.682809
994.618000	-77.488352
994.839000	-126.580967
995.059000	-34.802893
995.279000	30.409836
995.499000	-16.754682
995.719000	-13.081222
995.939000	-25.660456
996.159000	-30.084976
996.380000	-19.919682
996.600000	-68.570319
996.820000	-39.097110
997.040000	10.625496
997.260000	-50.649160
997.480000	-32.866150
997.700000	-98.328247
997.921000	-59.592852
998.141000	27.571805
998.361000	-3.403316
998.581000	-51.269629
998.801000	-90.959810
999.021000	-62.527905
999.241000	-35.133645
999.462000	-61.224018
999.682000	-102.233711
999.902000	-61.338220
1000.122000	-81.784946
1000.342000	-128.664294
1000.562000	-62.878938
1000.782000	-68.367893
1001.003000	-1038.137419
