Wavelength	Irradiance
(nm)	(mW/cm2/nm)

294.396000	0.000000
294.577000	0.000000
294.757000	0.000000
294.938000	-0.000000
295.118000	-0.000000
295.299000	0.000000
295.479000	-0.000000
295.660000	-0.000000
295.840000	-0.000000
296.021000	-0.000000
296.202000	-0.000000
296.382000	-0.000000
296.563000	-0.000000
296.743000	-0.000000
296.924000	0.000000
297.104000	-0.000000
297.285000	-0.000000
297.465000	-0.000000
297.646000	-0.000000
297.826000	-0.000000
298.007000	0.000000
298.187000	-0.000000
298.368000	-0.000000
298.548000	0.000000
298.729000	0.000000
298.909000	-0.000000
299.090000	-0.000000
299.270000	-0.000000
299.451000	-0.000000
299.631000	-0.000000
299.812000	-0.000000
299.992000	0.000000
300.173000	0.000000
300.353000	-0.000000
300.534000	0.000000
300.714000	0.000000
300.895000	0.000000
301.075000	-0.000000
301.256000	0.000000
301.436000	-0.000000
301.617000	-0.000000
301.797000	-0.000000
301.978000	-0.000000
302.159000	0.000000
302.339000	0.000000
302.520000	-0.000000
302.700000	-0.000000
302.881000	0.000000
303.061000	0.000000
303.242000	0.000000
303.422000	0.000000
303.603000	-0.000000
303.783000	-0.000000
303.964000	-0.000000
304.144000	-0.000000
304.325000	-0.000000
304.505000	-0.000000
304.686000	-0.000000
304.866000	0.000000
305.047000	-0.000000
305.227000	-0.000000
305.408000	-0.000000
305.588000	-0.000000
305.769000	-0.000000
305.949000	-0.000000
306.130000	-0.000000
306.310000	-0.000000
306.491000	-0.000000
306.671000	0.000000
306.852000	-0.000000
307.032000	-0.000000
307.213000	-0.000000
307.393000	-0.000000
307.574000	0.000000
307.755000	0.000000
307.935000	0.000000
308.116000	-0.000000
308.296000	-0.000000
308.477000	0.000000
308.657000	0.000000
308.838000	0.000000
309.018000	0.000000
309.199000	-0.000000
309.379000	-0.000000
309.560000	0.000000
309.740000	-0.000000
309.921000	0.000000
310.101000	0.000000
310.282000	-0.000000
310.462000	-0.000000
310.643000	-0.000000
310.823000	-0.000000
311.004000	-0.000000
311.184000	-0.000000
311.365000	0.000000
311.545000	0.000000
311.726000	0.000000
311.906000	-0.000000
312.087000	0.000000
312.267000	-0.000000
312.448000	-0.000000
312.628000	-0.000000
312.809000	-0.000000
312.989000	-0.000000
313.170000	-0.000000
313.344000	-0.000000
313.518000	-0.000000
313.691000	-0.000000
313.865000	-0.000000
314.039000	-0.000000
314.213000	-0.000000
314.387000	-0.000000
314.560000	-0.000000
314.734000	-0.000000
314.908000	-0.000000
315.082000	-0.000000
315.255000	0.000000
315.429000	0.000000
315.603000	0.000000
315.777000	-0.000000
315.951000	0.000000
316.124000	-0.000000
316.298000	-0.000000
316.472000	-0.000000
316.646000	-0.000000
316.820000	-0.000000
316.993000	0.000000
317.167000	-0.000000
317.341000	-0.000000
317.515000	-0.000000
317.688000	-0.000000
317.862000	-0.000000
318.036000	-0.000000
318.210000	-0.000000
318.384000	-0.000000
318.557000	-0.000000
318.731000	-0.000000
318.905000	-0.000000
319.079000	0.000000
319.253000	-0.000000
319.426000	0.000000
319.600000	0.000000
319.774000	-0.000000
319.948000	-0.000000
320.122000	0.000000
320.295000	-0.000000
320.469000	-0.000000
320.643000	-0.000000
320.817000	-0.000000
320.990000	-0.000000
321.164000	-0.000000
321.338000	-0.000000
321.512000	-0.000000
321.686000	-0.000000
321.859000	-0.000000
322.033000	0.000000
322.207000	-0.000000
322.381000	-0.000000
322.555000	0.000000
322.728000	0.000000
322.902000	-0.000000
323.076000	-0.000000
323.250000	-0.000000
323.423000	-0.000000
323.597000	-0.000000
323.771000	-0.000000
323.945000	-0.000000
324.119000	-0.000000
324.292000	0.000000
324.466000	-0.000000
324.640000	0.000000
324.814000	0.000000
324.988000	-0.000000
325.161000	-0.000000
325.335000	-0.000000
325.509000	-0.000000
325.683000	-0.000000
325.856000	-0.000000
326.030000	-0.000000
326.204000	-0.000000
326.378000	-0.000000
326.552000	-0.000000
326.725000	-0.000000
326.899000	-0.000000
327.073000	-0.000000
327.247000	-0.000000
327.421000	0.000000
327.594000	-0.000000
327.768000	-0.000000
327.942000	-0.000000
328.116000	0.000000
328.289000	0.000000
328.463000	-0.000000
328.637000	0.000000
328.811000	-0.000000
328.985000	-0.000000
329.158000	-0.000000
329.332000	-0.000000
329.506000	0.000000
329.680000	-0.000000
329.854000	-0.000000
330.027000	-0.000000
330.201000	0.000000
330.375000	0.000000
330.549000	0.000000
330.723000	-0.000000
330.896000	-0.000000
331.070000	-0.000000
331.244000	-0.000000
331.418000	-0.000000
331.591000	-0.000000
331.765000	-0.000000
331.939000	-0.000000
332.113000	-0.000000
332.287000	-0.000000
332.460000	0.000000
332.634000	0.000000
332.808000	-0.000000
332.982000	-0.000000
333.156000	-0.000000
333.329000	-0.000000
333.503000	-0.000000
333.677000	-0.000000
333.851000	-0.000000
334.024000	-0.000000
334.198000	-0.000000
334.372000	-0.000000
334.546000	-0.000000
334.720000	-0.000000
334.893000	-0.000000
335.067000	-0.000000
335.241000	0.000000
335.415000	-0.000000
335.589000	-0.000000
335.762000	-0.000000
335.936000	-0.000000
336.110000	-0.000000
336.284000	-0.000000
336.458000	-0.000000
336.631000	-0.000000
336.805000	-0.000000
336.979000	-0.000000
337.153000	-0.000000
337.326000	-0.000000
337.500000	-0.000000
337.674000	-0.000000
337.848000	-0.000000
338.022000	-0.000000
338.195000	-0.000000
338.369000	-0.000000
338.543000	-0.000000
338.717000	-0.000000
338.891000	0.000000
339.064000	0.000000
339.238000	-0.000000
339.412000	-0.000000
339.586000	-0.000000
339.759000	-0.000000
339.933000	-0.000000
340.107000	0.000000
340.281000	-0.000000
340.455000	-0.000000
340.628000	-0.000000
340.802000	-0.000000
340.976000	-0.000000
341.150000	-0.000000
341.324000	-0.000000
341.497000	-0.000000
341.671000	-0.000000
341.845000	-0.000000
342.019000	-0.000000
342.192000	-0.000000
342.366000	-0.000000
342.540000	-0.000000
342.714000	-0.000000
342.888000	-0.000000
343.061000	-0.000000
343.235000	-0.000000
343.409000	-0.000000
343.583000	-0.000000
343.757000	-0.000000
343.930000	-0.000000
344.104000	-0.000000
344.278000	0.000000
344.452000	0.000000
344.626000	-0.000000
344.799000	-0.000000
344.973000	-0.000000
345.147000	-0.000000
345.321000	-0.000000
345.494000	-0.000000
345.668000	0.000000
345.842000	0.000000
346.016000	-0.000000
346.190000	0.000000
346.363000	0.000000
346.537000	-0.000000
346.711000	-0.000000
346.885000	-0.000000
347.059000	-0.000000
347.232000	-0.000000
347.406000	0.000000
347.580000	-0.000000
347.754000	-0.000000
347.927000	0.000000
348.101000	0.000000
348.275000	-0.000000
348.449000	-0.000000
348.623000	-0.000000
348.796000	-0.000000
348.970000	0.000000
349.144000	-0.000000
349.318000	-0.000000
349.492000	-0.000000
349.665000	-0.000000
349.839000	-0.000000
350.013000	-0.000000
350.187000	-0.000000
350.361000	-0.000000
350.534000	-0.000000
350.708000	-0.000000
350.882000	-0.000000
351.056000	0.000000
351.229000	-0.000000
351.403000	-0.000000
351.577000	-0.000000
351.751000	-0.000000
351.925000	-0.000000
352.098000	-0.000000
352.272000	-0.000000
352.446000	-0.000000
352.620000	-0.000000
352.794000	-0.000000
352.967000	-0.000000
353.141000	0.000000
353.315000	0.000000
353.489000	-0.000000
353.662000	-0.000000
353.836000	-0.000000
354.010000	-0.000000
354.184000	-0.000000
354.358000	-0.000000
354.531000	-0.000000
354.705000	-0.000000
354.879000	-0.000000
355.053000	-0.000000
355.227000	0.000000
355.400000	-0.000000
355.574000	-0.000000
355.748000	0.000000
355.922000	-0.000000
356.095000	-0.000000
356.269000	-0.000000
356.443000	-0.000000
356.617000	-0.000000
356.791000	-0.000000
356.964000	-0.000000
357.138000	-0.000000
357.312000	-0.000000
357.486000	-0.000000
357.660000	-0.000000
357.833000	-0.000000
358.007000	-0.000000
358.181000	-0.000000
358.355000	-0.000000
358.529000	-0.000000
358.702000	-0.000000
358.876000	-0.000000
359.050000	-0.000000
359.224000	-0.000000
359.397000	-0.000000
359.571000	-0.000000
359.745000	-0.000000
359.919000	-0.000000
360.093000	-0.050171
360.266000	0.043958
360.440000	0.080205
360.614000	0.107042
360.788000	0.025776
360.962000	-0.187701
361.135000	-0.094793
361.309000	-0.181581
361.483000	-0.296335
361.657000	-0.244852
361.830000	-0.215766
362.004000	-0.067457
362.178000	-0.346410
362.352000	-0.216573
362.526000	-0.120740
362.699000	-0.105459
362.873000	-0.349227
363.047000	-0.327568
363.221000	-0.293969
363.395000	-0.162714
363.568000	-0.206688
363.742000	-0.202231
363.916000	-0.198997
364.090000	-0.308367
364.263000	-0.278174
364.437000	-0.308719
364.611000	-0.082024
364.785000	-0.101012
364.959000	-0.219158
365.132000	-0.215026
365.306000	-0.249747
365.480000	-0.116863
365.656000	-0.194036
365.831000	-0.182233
366.007000	-0.202396
366.183000	-0.180768
366.358000	-0.279655
366.534000	-0.171984
366.710000	-0.298636
366.886000	-0.248384
367.061000	-0.111598
367.237000	0.021443
367.413000	-0.108580
367.588000	-0.310932
367.764000	-0.295093
367.940000	-0.300718
368.115000	-0.270763
368.291000	-0.306269
368.467000	-0.189311
368.643000	0.130574
368.818000	-0.208945
368.994000	-0.326975
369.170000	-0.253881
369.345000	-0.197081
369.521000	-0.236646
369.697000	-0.148298
369.872000	-0.224606
370.048000	-0.311636
370.224000	-0.263736
370.399000	-0.419822
370.575000	-0.358652
370.751000	-0.432442
370.927000	-0.395011
371.102000	-0.361723
371.278000	-0.333489
371.454000	-0.253818
371.629000	-0.011251
371.805000	-0.037466
371.981000	0.109940
372.156000	0.237164
372.332000	0.034392
372.508000	-0.067489
372.683000	-0.053422
372.859000	-0.146391
373.035000	-0.185902
373.211000	0.152276
373.386000	-0.029117
373.562000	-0.351901
373.738000	-0.440604
373.913000	-0.596063
374.089000	-0.413977
374.265000	-0.025268
374.440000	-0.003824
374.616000	-0.005087
374.792000	-0.185599
374.968000	0.163564
375.143000	-0.054884
375.319000	-0.294511
375.495000	-0.337890
375.670000	-0.200113
375.846000	-0.109058
376.022000	-0.282464
376.197000	-0.219839
376.373000	-0.363186
376.549000	-0.382868
376.724000	-0.428583
376.900000	-0.299827
377.076000	-0.175078
377.252000	0.035051
377.427000	0.105816
377.603000	-0.200692
377.779000	-0.185986
377.954000	-0.344483
378.130000	-0.240807
378.306000	-0.156395
378.481000	-0.158186
378.657000	-0.249388
378.833000	-0.268305
379.009000	-0.121332
379.184000	-0.018300
379.360000	-0.117306
379.536000	-0.119498
379.711000	-0.166111
379.887000	-0.255275
380.063000	-0.291236
380.238000	-0.339529
380.414000	-0.076231
380.590000	-0.290775
380.765000	-0.299619
380.941000	-0.130071
381.117000	-0.105308
381.293000	-0.148042
381.468000	-0.283340
381.644000	-0.225260
381.820000	-0.112729
381.995000	-0.013321
382.171000	0.167906
382.347000	0.114232
382.522000	-0.291229
382.698000	0.033665
382.874000	0.086439
383.050000	-0.283997
383.225000	0.049469
383.401000	0.249366
383.577000	-0.103625
383.752000	-0.261836
383.928000	-0.174165
384.104000	-0.079482
384.279000	-0.146854
384.455000	-0.099894
384.631000	-0.136959
384.806000	-0.326073
384.982000	-0.175274
385.158000	-0.229704
385.334000	-0.113687
385.509000	-0.165296
385.685000	-0.426388
385.861000	-0.258516
386.036000	-0.371709
386.212000	-0.495677
386.388000	-0.295333
386.563000	-0.260578
386.739000	-0.328870
386.915000	-0.538044
387.090000	-0.267422
387.266000	-0.075287
387.442000	0.011939
387.618000	-0.078175
387.793000	-0.365564
387.969000	-0.488363
388.145000	-0.375045
388.320000	-0.319838
388.496000	-0.325194
388.672000	-0.543388
388.847000	-0.154419
389.023000	-0.097281
389.199000	-0.369691
389.375000	-0.184561
389.550000	-0.261326
389.726000	-0.160234
389.902000	-0.352304
390.077000	-0.172308
390.253000	-0.141169
390.429000	-0.204713
390.604000	-0.136314
390.780000	-0.126282
390.956000	-0.236690
391.131000	-0.264030
391.307000	0.000000
391.483000	-0.165651
391.659000	-0.314955
391.834000	-0.109934
392.010000	-0.266952
392.186000	-0.320446
392.361000	-0.220275
392.537000	-0.313456
392.713000	0.068386
392.888000	0.157521
393.064000	-0.085916
393.240000	-0.203392
393.416000	-0.336146
393.591000	-0.404916
393.767000	-0.419971
393.943000	-0.300261
394.118000	-0.065352
394.294000	0.081074
394.470000	-0.026955
394.645000	0.055978
394.821000	0.211698
394.997000	-0.114142
395.172000	-0.129124
395.348000	-0.197413
395.524000	-0.467303
395.700000	-0.339103
395.875000	-0.090607
396.051000	-0.124698
396.227000	-0.210121
396.402000	-0.243648
396.578000	-0.143809
396.754000	-0.298253
396.929000	-0.279260
397.105000	-0.050699
397.281000	-0.127808
397.457000	-0.215323
397.632000	-0.205445
397.808000	-0.413507
397.984000	-0.527716
398.159000	-0.449512
398.335000	-0.290606
398.511000	0.139015
398.686000	-0.080916
398.862000	-0.308444
399.038000	-0.406227
399.213000	-0.189758
399.389000	-0.438764
399.565000	-0.173280
399.741000	-0.001082
399.916000	-0.066626
400.092000	0.176078
400.268000	-0.143368
400.443000	-0.278156
400.619000	0.034841
400.795000	-0.067752
400.970000	-0.210272
401.146000	-0.264139
401.322000	-0.032696
401.497000	0.327805
401.673000	0.077721
401.849000	-0.222572
402.025000	-0.076049
402.200000	-0.170104
402.376000	-0.265332
402.552000	0.102222
402.727000	-0.049789
402.903000	-0.336991
403.079000	-0.246428
403.254000	-0.021635
403.430000	-0.022565
403.606000	-0.120547
403.782000	-0.131145
403.957000	-0.310468
404.133000	-0.440966
404.309000	-0.274439
404.484000	-0.096895
404.660000	-0.104723
404.841000	-0.203092
405.023000	-0.018264
405.204000	-0.053878
405.385000	-0.327993
405.566000	-0.380399
405.748000	-0.250437
405.929000	-0.003283
406.110000	-0.057327
406.292000	-0.204531
406.473000	-0.134186
406.654000	-0.310540
406.835000	-0.184393
407.017000	-0.218073
407.198000	-0.148717
407.379000	-0.132417
407.560000	-0.205092
407.742000	-0.227030
407.923000	-0.175525
408.104000	-0.274362
408.286000	-0.154016
408.467000	-0.134430
408.648000	-0.341395
408.829000	-0.390317
409.011000	-0.253062
409.192000	-0.398759
409.373000	-0.190547
409.555000	-0.076018
409.736000	-0.118048
409.917000	-0.226300
410.098000	-0.208896
410.280000	-0.109482
410.461000	-0.127151
410.642000	-0.141073
410.823000	0.076825
411.005000	0.020021
411.186000	-0.184527
411.367000	-0.259616
411.549000	-0.287902
411.730000	-0.015814
411.911000	0.049468
412.092000	-0.137468
412.274000	-0.185381
412.455000	-0.105406
412.636000	-0.079388
412.818000	-0.271551
412.999000	-0.332751
413.180000	-0.247432
413.361000	-0.240005
413.543000	-0.278164
413.724000	-0.346815
413.905000	-0.318873
414.087000	-0.347551
414.268000	-0.342716
414.449000	-0.341301
414.630000	-0.426220
414.812000	-0.505689
414.993000	-0.181751
415.174000	-0.048013
415.355000	-0.227159
415.537000	-0.446167
415.718000	-0.183363
415.899000	-0.255330
416.081000	-0.353957
416.262000	-0.165450
416.443000	-0.290583
416.624000	-0.261627
416.806000	-0.154849
416.987000	-0.042711
417.168000	-0.129388
417.350000	-0.298130
417.531000	-0.325470
417.712000	-0.310377
417.893000	-0.127519
418.075000	-0.040013
418.256000	-0.244787
418.437000	-0.170228
418.618000	-0.087316
418.800000	-0.030062
418.981000	-0.202408
419.162000	-0.174358
419.344000	-0.008975
419.525000	-0.114291
419.706000	-0.189693
419.887000	-0.085141
420.069000	0.036022
420.250000	-0.031010
420.431000	-0.064864
420.613000	-0.138363
420.794000	-0.351586
420.975000	-0.024854
421.156000	-0.191245
421.338000	-0.255781
421.519000	-0.224882
421.700000	-0.260479
421.882000	-0.248459
422.063000	-0.100533
422.244000	0.274327
422.425000	0.074560
422.607000	-0.245106
422.788000	-0.257968
422.969000	-0.314768
423.150000	-0.327063
423.332000	-0.384603
423.513000	-0.186949
423.694000	-0.149945
423.876000	-0.140521
424.057000	-0.079740
424.238000	-0.033016
424.419000	-0.003010
424.601000	-0.148486
424.782000	-0.136309
424.963000	0.011927
425.145000	-0.088704
425.326000	-0.036718
425.507000	0.000991
425.688000	-0.119516
425.870000	-0.253984
426.051000	-0.344604
426.232000	-0.277051
426.413000	-0.277681
426.595000	-0.289145
426.776000	-0.312847
426.957000	-0.254350
427.139000	-0.164877
427.320000	-0.148646
427.501000	-0.043065
427.682000	-0.041858
427.864000	-0.055779
428.045000	0.076920
428.226000	0.023058
428.408000	-0.266420
428.589000	-0.163561
428.770000	-0.147269
428.951000	-0.233442
429.133000	-0.348624
429.314000	-0.199782
429.495000	-0.194190
429.677000	-0.209716
429.858000	-0.206972
430.039000	-0.155659
430.220000	-0.072389
430.402000	-0.019771
430.583000	-0.244739
430.764000	-0.208236
430.945000	-0.095916
431.127000	0.003927
431.308000	-0.131931
431.489000	-0.043238
431.671000	0.032561
431.852000	-0.055866
432.033000	-0.156834
432.214000	-0.094894
432.396000	-0.038053
432.577000	-0.164281
432.758000	-0.307863
432.940000	-0.273255
433.121000	-0.165345
433.302000	-0.124817
433.483000	0.013625
433.665000	0.102241
433.846000	0.013629
434.027000	-0.121897
434.208000	-0.197098
434.390000	-0.226917
434.571000	0.092163
434.752000	0.508454
434.934000	0.371591
435.115000	0.304352
435.296000	0.364721
435.477000	0.183739
435.659000	-0.059655
435.840000	-0.002849
436.026000	-0.018940
436.211000	-0.125812
436.397000	-0.357158
436.582000	-0.264818
436.768000	-0.077214
436.953000	-0.184310
437.139000	-0.151068
437.325000	0.077538
437.510000	0.028022
437.696000	0.173274
437.881000	0.168350
438.067000	-0.159063
438.252000	-0.136970
438.438000	-0.155370
438.624000	-0.187747
438.809000	-0.107767
438.995000	-0.035881
439.180000	-0.100889
439.366000	-0.136517
439.551000	-0.136334
439.737000	-0.083096
439.923000	-0.057603
440.108000	-0.151580
440.294000	-0.095586
440.479000	0.012700
440.665000	0.064888
440.850000	-0.003585
441.036000	-0.019762
441.222000	-0.052319
441.407000	-0.167211
441.593000	-0.078770
441.778000	0.013396
441.964000	0.078924
442.149000	-0.200132
442.335000	-0.215128
442.521000	-0.103893
442.706000	0.020341
442.892000	-0.043241
443.077000	-0.104480
443.263000	-0.018517
443.448000	-0.071100
443.634000	-0.140544
443.820000	0.166706
444.005000	0.036634
444.191000	-0.195788
444.376000	-0.183558
444.562000	0.145256
444.747000	0.126025
444.933000	0.013866
445.119000	-0.098562
445.304000	-0.151019
445.490000	-0.011223
445.675000	-0.006040
445.861000	-0.163525
446.046000	-0.149355
446.232000	-0.068108
446.418000	-0.019807
446.603000	-0.044776
446.789000	-0.030105
446.974000	-0.050039
447.160000	-0.240700
447.345000	-0.158199
447.531000	-0.192236
447.717000	-0.054156
447.902000	0.031938
448.088000	0.090105
448.273000	-0.029881
448.459000	-0.068958
448.644000	-0.110733
448.830000	-0.186384
449.016000	-0.245173
449.201000	-0.174876
449.387000	-0.078657
449.572000	-0.005967
449.758000	-0.080074
449.943000	-0.185969
450.129000	-0.215816
450.315000	-0.189120
450.500000	-0.188435
450.686000	-0.133507
450.871000	-0.240884
451.057000	-0.105366
451.243000	-0.101000
451.428000	-0.107935
451.614000	-0.100897
451.799000	-0.146595
451.985000	0.031339
452.170000	0.053310
452.356000	-0.104852
452.542000	-0.107518
452.727000	0.001688
452.913000	-0.111583
453.098000	0.042262
453.284000	0.197711
453.469000	0.036374
453.655000	0.116534
453.841000	0.075038
454.026000	-0.069673
454.212000	-0.034318
454.397000	-0.027659
454.583000	-0.183466
454.768000	-0.258143
454.954000	-0.047640
455.140000	-0.006675
455.325000	-0.143184
455.511000	-0.240914
455.696000	-0.240937
455.882000	-0.095157
456.067000	0.070149
456.253000	-0.067649
456.439000	-0.171184
456.624000	-0.186434
456.810000	-0.206672
456.995000	-0.172043
457.181000	-0.222983
457.366000	-0.049483
457.552000	-0.023819
457.738000	0.060711
457.923000	0.035340
458.109000	0.139316
458.294000	0.060941
458.480000	0.037104
458.665000	-0.011509
458.851000	-0.128020
459.037000	-0.268195
459.222000	-0.130439
459.408000	-0.134518
459.593000	-0.094925
459.779000	0.017792
459.964000	0.154739
460.150000	0.287303
460.336000	0.201070
460.521000	0.032206
460.707000	-0.095591
460.892000	-0.181992
461.078000	0.002411
461.263000	0.082401
461.449000	-0.054595
461.635000	-0.048922
461.820000	-0.060030
462.006000	-0.005579
462.191000	0.007941
462.377000	-0.155179
462.562000	0.086574
462.748000	0.242426
462.934000	-0.098354
463.119000	-0.220276
463.305000	-0.041666
463.490000	-0.105616
463.676000	-0.069806
463.861000	-0.063021
464.047000	-0.103656
464.233000	-0.042906
464.418000	-0.054549
464.604000	-0.128298
464.789000	0.012450
464.975000	0.021719
465.160000	-0.066819
465.346000	-0.060569
465.532000	-0.172641
465.717000	-0.183230
465.903000	0.051936
466.088000	0.016258
466.274000	-0.162524
466.459000	-0.181991
466.645000	0.123555
466.831000	0.092852
467.016000	0.092700
467.202000	0.003078
467.387000	-0.073668
467.573000	-0.201771
467.758000	0.039575
467.944000	-0.047925
468.130000	-0.135341
468.315000	-0.018361
468.501000	0.086143
468.686000	0.005323
468.872000	0.000000
469.057000	0.036505
469.243000	-0.033510
469.429000	-0.057838
469.614000	-0.137416
469.800000	-0.202714
469.985000	-0.044655
470.171000	0.041472
470.356000	-0.070386
470.542000	-0.007597
470.728000	0.002271
470.913000	-0.047461
471.099000	0.039901
471.284000	-0.041701
471.470000	-0.091876
471.655000	-0.059994
471.841000	-0.068131
472.027000	-0.130263
472.212000	0.033912
472.398000	0.076364
472.583000	-0.003028
472.769000	-0.000758
472.954000	-0.038613
473.140000	-0.150776
473.326000	-0.177389
473.511000	0.077592
473.697000	0.092013
473.882000	-0.050740
474.068000	-0.105467
474.253000	-0.167721
474.439000	-0.106695
474.625000	-0.030968
474.810000	-0.026455
474.996000	-0.021164
475.181000	-0.195797
475.367000	-0.042969
475.552000	0.180437
475.738000	-0.078403
475.924000	-0.108802
476.109000	-0.030966
476.295000	-0.120151
476.480000	-0.064298
476.666000	-0.081572
476.851000	-0.075489
477.037000	-0.035666
477.223000	-0.111111
477.408000	-0.201870
477.594000	-0.268907
477.779000	-0.131701
477.965000	-0.113575
478.151000	-0.236188
478.336000	-0.114414
478.522000	-0.147401
478.707000	-0.197270
478.893000	-0.105277
479.078000	-0.230056
479.264000	-0.211129
479.450000	-0.159550
479.635000	-0.045524
479.821000	-0.098048
480.006000	-0.053923
480.192000	-0.076635
480.377000	-0.067677
480.563000	-0.056975
480.749000	-0.231850
480.934000	-0.219452
481.120000	-0.093814
481.305000	-0.026443
481.491000	-0.014413
481.676000	0.015206
481.862000	0.004572
482.048000	-0.142495
482.233000	-0.099931
482.419000	-0.094846
482.604000	-0.158744
482.790000	-0.139759
482.975000	-0.089711
483.161000	0.052301
483.347000	0.034055
483.532000	-0.021194
483.718000	-0.198970
483.903000	-0.146015
484.089000	-0.127455
484.274000	-0.233299
484.460000	-0.081970
484.646000	-0.031880
484.831000	-0.144323
485.017000	-0.094652
485.202000	-0.077089
485.388000	0.136705
485.573000	0.124375
485.759000	-0.055166
485.945000	0.081632
486.130000	-0.055891
486.316000	-0.065735
486.501000	0.012811
486.687000	-0.130937
486.872000	-0.173234
487.058000	-0.025626
487.244000	-0.021116
487.429000	-0.169946
487.615000	-0.009777
487.800000	0.077454
487.986000	-0.041951
488.171000	0.060068
488.357000	0.008231
488.543000	-0.011184
488.728000	0.050717
488.914000	-0.016419
489.099000	-0.102184
489.285000	-0.095403
489.470000	0.064682
489.656000	0.083331
489.842000	0.041506
490.027000	0.116751
490.213000	-0.025165
490.398000	-0.267863
490.584000	-0.016267
490.769000	-0.009612
490.955000	0.016977
491.141000	0.035353
491.326000	0.004404
491.512000	0.133514
491.697000	0.035873
491.883000	-0.093746
492.068000	-0.105477
492.254000	-0.099061
492.440000	-0.035934
492.625000	-0.095052
492.811000	-0.105076
492.996000	-0.005101
493.182000	-0.009443
493.367000	-0.171911
493.553000	-0.230250
493.739000	-0.143326
493.924000	-0.053171
494.110000	-0.029769
494.295000	-0.136810
494.481000	-0.075375
494.666000	-0.050769
494.852000	0.111513
495.038000	-0.025292
495.223000	-0.158491
495.409000	-0.098915
495.594000	-0.125114
495.780000	-0.088722
495.965000	-0.156684
496.151000	0.020193
496.337000	0.081417
496.522000	-0.111246
496.708000	-0.051863
496.893000	0.072748
497.079000	-0.068254
497.264000	-0.117603
497.450000	-0.088236
497.636000	-0.018669
497.821000	-0.143231
498.007000	0.058726
498.192000	0.107107
498.378000	-0.023680
498.563000	-0.099057
498.749000	-0.077602
498.935000	-0.061701
499.120000	0.007157
499.306000	-0.138330
499.491000	-0.168693
499.677000	-0.064312
499.862000	0.006456
500.048000	0.038802
500.234000	-0.057339
500.419000	-0.097654
500.605000	0.037371
500.790000	-0.033741
500.976000	-0.156031
501.161000	-0.223561
501.347000	-0.067569
501.533000	0.028052
501.718000	-0.051038
501.904000	-0.107358
502.089000	-0.027421
502.275000	0.030229
502.460000	-0.068890
502.646000	-0.045261
502.832000	-0.023002
503.017000	-0.015846
503.203000	-0.170944
503.388000	-0.208951
503.574000	-0.042546
503.759000	-0.000721
503.945000	0.033941
504.131000	-0.042607
504.316000	-0.088049
504.502000	-0.056315
504.687000	-0.073839
504.873000	-0.180356
505.058000	-0.221614
505.244000	-0.217216
505.430000	-0.151613
505.615000	-0.091519
505.801000	-0.050208
505.986000	-0.183932
506.172000	-0.107238
506.358000	-0.083517
506.543000	-0.118312
506.729000	0.034135
506.914000	0.005823
507.100000	0.067924
507.285000	-0.107544
507.471000	-0.181964
507.657000	0.051879
507.842000	-0.075887
508.028000	-0.217592
508.213000	-0.177876
508.399000	-0.129099
508.584000	-0.006608
508.770000	-0.087221
508.956000	-0.148905
509.141000	-0.087212
509.327000	-0.049204
509.512000	-0.111185
509.698000	-0.108423
509.883000	-0.037466
510.069000	-0.102389
510.255000	-0.088433
510.440000	-0.042795
510.626000	-0.103983
510.811000	-0.155091
510.997000	-0.067959
511.182000	0.144610
511.368000	0.042101
511.554000	-0.252753
511.739000	-0.189811
511.925000	-0.012563
512.110000	-0.014028
512.296000	0.068097
512.481000	0.056925
512.667000	-0.015542
512.853000	-0.185792
513.038000	-0.103033
513.224000	-0.116404
513.409000	-0.209802
513.595000	-0.103214
513.780000	-0.226361
513.966000	-0.156220
514.152000	-0.163644
514.337000	-0.208897
514.523000	-0.177060
514.708000	-0.124588
514.894000	-0.069158
515.079000	-0.151110
515.265000	-0.137507
515.451000	-0.111539
515.636000	-0.183532
515.822000	-0.094484
516.007000	-0.186022
516.193000	-0.055008
516.378000	0.009680
516.564000	-0.079559
516.750000	-0.084050
516.935000	-0.009674
517.121000	0.005952
517.306000	0.051385
517.492000	0.011933
517.677000	-0.165388
517.863000	-0.183302
518.049000	-0.074536
518.234000	-0.145236
518.420000	-0.055930
518.605000	0.114802
518.791000	0.092392
518.976000	-0.036655
519.162000	-0.142617
519.348000	-0.039583
519.533000	-0.075321
519.719000	0.042551
519.904000	-0.020179
520.090000	-0.025359
520.275000	0.132102
520.461000	0.070295
520.647000	-0.093460
520.832000	-0.247401
521.018000	-0.142821
521.203000	-0.109560
521.389000	-0.256200
521.574000	-0.193838
521.760000	-0.049270
521.946000	-0.062898
522.131000	-0.147638
522.317000	-0.120472
522.502000	-0.158567
522.688000	-0.092039
522.873000	-0.113847
523.059000	-0.131167
523.245000	-0.121309
523.430000	-0.204688
523.616000	-0.168652
523.801000	-0.233423
523.987000	-0.170682
524.172000	-0.084204
524.358000	-0.045881
524.544000	-0.075842
524.729000	0.013481
524.915000	0.044292
525.100000	-0.072040
525.286000	-0.049601
525.471000	-0.040697
525.657000	-0.002263
525.843000	-0.225840
526.028000	-0.084655
526.214000	-0.105779
526.399000	-0.197015
526.585000	-0.247076
526.770000	-0.262204
526.956000	-0.160298
527.142000	-0.220275
527.327000	-0.095816
527.513000	-0.160653
527.698000	-0.168455
527.884000	-0.151473
528.069000	-0.200794
528.255000	-0.109320
528.441000	-0.170682
528.626000	-0.138961
528.812000	0.084384
528.997000	-0.056882
529.183000	-0.180561
529.368000	-0.131997
529.554000	-0.105258
529.740000	-0.093913
529.925000	-0.129643
530.111000	-0.136004
530.296000	-0.087949
530.482000	0.033550
530.667000	-0.042149
530.853000	-0.026623
531.039000	-0.084753
531.224000	-0.008679
531.410000	0.052056
531.595000	-0.042631
531.781000	-0.011054
531.967000	-0.134978
532.152000	-0.002389
532.338000	-0.079805
532.523000	-0.226278
532.709000	-0.245572
532.894000	-0.133068
533.080000	-0.084771
533.266000	-0.216530
533.451000	-0.243285
533.637000	-0.174107
533.822000	-0.014703
534.008000	-0.151797
534.193000	-0.129424
534.379000	-0.052613
534.565000	-0.135365
534.750000	-0.160720
534.936000	0.048233
535.121000	-0.094214
535.307000	-0.063475
535.492000	-0.052702
535.678000	-0.234789
535.864000	-0.097256
536.049000	0.112277
536.235000	-0.087707
536.420000	-0.079554
536.606000	-0.113239
536.791000	-0.213153
536.977000	-0.198979
537.163000	0.016501
537.348000	0.012230
537.534000	0.058042
537.719000	-0.118137
537.905000	-0.242504
538.090000	-0.019548
538.276000	0.055285
538.462000	0.022365
538.647000	0.016168
538.833000	-0.073153
539.018000	0.020869
539.204000	-0.009080
539.389000	-0.138958
539.575000	0.150969
539.761000	0.097470
539.946000	-0.139504
540.132000	-0.032461
540.317000	-0.140450
540.503000	-0.014914
540.688000	0.035644
540.874000	0.228629
541.060000	0.356468
541.245000	0.213561
541.431000	0.067347
541.616000	0.116040
541.802000	0.110427
541.987000	0.193800
542.173000	0.190707
542.359000	0.110338
542.544000	0.214606
542.730000	0.057713
542.915000	0.074243
543.101000	0.252767
543.286000	0.072507
543.472000	-0.000973
543.658000	0.080801
543.843000	0.078072
544.029000	0.260424
544.214000	0.163709
544.400000	-0.131507
544.585000	0.008852
544.771000	0.122360
544.957000	0.287772
545.142000	0.375104
545.328000	0.439600
545.513000	0.470245
545.699000	0.414363
545.884000	0.265773
546.070000	0.207917
546.261000	0.143464
546.451000	-0.004025
546.642000	-0.193555
546.833000	-0.080787
547.023000	-0.209998
547.214000	-0.189560
547.405000	-0.015203
547.595000	0.242540
547.786000	0.182351
547.977000	-0.041881
548.167000	-0.167666
548.358000	-0.125278
548.549000	0.186547
548.740000	0.044318
548.930000	-0.245379
549.121000	-0.177842
549.312000	-0.211736
549.502000	-0.256986
549.693000	-0.144503
549.884000	-0.062394
550.074000	0.042786
550.265000	-0.163183
550.456000	-0.077596
550.646000	0.022073
550.837000	-0.015772
551.028000	-0.165297
551.218000	-0.081048
551.409000	-0.176548
551.600000	-0.108982
551.790000	0.005311
551.981000	-0.237932
552.172000	-0.219221
552.362000	0.108499
552.553000	0.145401
552.744000	-0.017095
552.934000	-0.069507
553.125000	-0.145689
553.316000	-0.181155
553.506000	0.099895
553.697000	-0.048516
553.888000	-0.011839
554.079000	0.121710
554.269000	0.062534
554.460000	-0.199964
554.651000	-0.209908
554.841000	-0.329297
555.032000	-0.256030
555.223000	-0.162959
555.413000	-0.032448
555.604000	-0.081463
555.795000	-0.131772
555.985000	-0.060019
556.176000	-0.161213
556.367000	-0.392054
556.557000	-0.252407
556.748000	-0.185021
556.939000	-0.239392
557.129000	-0.303629
557.320000	-0.128959
557.511000	-0.146172
557.701000	-0.180792
557.892000	-0.139965
558.083000	0.079737
558.273000	-0.018572
558.464000	-0.195568
558.655000	-0.161559
558.845000	-0.136051
559.036000	-0.083867
559.227000	-0.117718
559.418000	0.000000
559.608000	0.054578
559.799000	-0.230032
559.990000	-0.268933
560.180000	-0.203049
560.371000	-0.351255
560.562000	-0.306201
560.752000	-0.127157
560.943000	-0.290312
561.134000	-0.447854
561.324000	-0.237195
561.515000	0.018378
561.706000	-0.132038
561.896000	-0.334778
562.087000	-0.227608
562.278000	-0.237224
562.468000	-0.387491
562.659000	-0.290632
562.850000	0.016157
563.040000	0.067857
563.231000	-0.338475
563.422000	-0.213806
563.612000	-0.289333
563.803000	-0.214726
563.994000	-0.274599
564.185000	-0.348808
564.375000	-0.167664
564.566000	-0.178127
564.757000	-0.209641
564.947000	-0.273491
565.138000	-0.116053
565.329000	-0.171073
565.519000	-0.346216
565.710000	-0.280654
565.901000	-0.090425
566.091000	0.019135
566.282000	-0.152726
566.473000	-0.178686
566.663000	-0.183759
566.854000	-0.305050
567.045000	-0.199341
567.235000	-0.122730
567.426000	-0.121636
567.617000	-0.108661
567.807000	-0.171423
567.998000	-0.140823
568.189000	-0.231519
568.379000	-0.163317
568.570000	-0.091413
568.761000	-0.136831
568.951000	-0.151103
569.142000	-0.200014
569.333000	-0.231100
569.524000	-0.339673
569.714000	-0.401584
569.905000	-0.497769
570.096000	-0.156618
570.286000	-0.047334
570.477000	0.105699
570.668000	-0.072792
570.858000	-0.134300
571.049000	-0.228836
571.240000	-0.305609
571.430000	-0.096973
571.621000	-0.162743
571.812000	-0.098261
572.002000	-0.080169
572.193000	-0.237076
572.384000	-0.153932
572.574000	-0.106420
572.765000	-0.157822
572.956000	-0.208762
573.146000	-0.062622
573.337000	-0.155235
573.528000	-0.156977
573.718000	-0.022080
573.909000	0.003007
574.100000	-0.083884
574.290000	-0.196102
574.481000	-0.185731
574.672000	-0.170034
574.863000	-0.070317
575.053000	-0.161127
575.244000	-0.100589
575.435000	-0.232511
575.625000	-0.236389
575.816000	-0.201808
576.007000	-0.145969
576.197000	-0.142274
576.388000	-0.105558
576.579000	-0.005862
576.769000	-0.010735
576.960000	-0.262325
577.155000	-0.386080
577.350000	-0.146666
577.545000	-0.018420
577.740000	-0.173991
577.935000	0.046302
578.130000	0.000965
578.326000	-0.231945
578.521000	-0.031745
578.716000	-0.000958
578.911000	-0.226689
579.106000	-0.092431
579.301000	0.006650
579.496000	-0.155308
579.691000	-0.387940
579.886000	-0.209507
580.081000	-0.095170
580.276000	-0.080837
580.471000	-0.176683
580.666000	-0.296463
580.861000	-0.296358
581.057000	-0.265582
581.252000	-0.145494
581.447000	-0.229460
581.642000	-0.222340
581.837000	-0.203303
582.032000	-0.158817
582.227000	0.055727
582.422000	0.010198
582.617000	-0.135659
582.812000	-0.242086
583.007000	-0.215275
583.202000	-0.278241
583.397000	-0.069546
583.592000	0.123319
583.788000	-0.129299
583.983000	-0.140093
584.178000	-0.049046
584.373000	-0.173861
584.568000	-0.225004
584.763000	-0.267734
584.958000	-0.293040
585.153000	-0.202610
585.348000	-0.182611
585.543000	-0.088684
585.738000	-0.142011
585.933000	-0.308523
586.128000	-0.097680
586.324000	-0.072545
586.519000	-0.042589
586.714000	0.029020
586.909000	0.066319
587.104000	0.060159
587.299000	-0.078165
587.494000	-0.065352
587.689000	-0.103677
587.884000	-0.110375
588.079000	-0.182450
588.274000	-0.133434
588.469000	-0.127694
588.664000	-0.058451
588.859000	-0.035670
589.055000	-0.064097
589.250000	-0.128256
589.445000	-0.238477
589.640000	-0.220310
589.835000	0.006441
590.030000	0.092908
590.225000	0.093845
590.420000	-0.095818
590.615000	-0.193652
590.810000	-0.147379
591.005000	-0.082315
591.200000	-0.189681
591.395000	-0.244235
591.591000	-0.111749
591.786000	-0.033220
591.981000	-0.144378
592.176000	-0.115923
592.371000	-0.079786
592.566000	-0.130717
592.761000	0.010196
592.956000	0.006500
593.151000	0.041804
593.346000	-0.081044
593.541000	-0.044668
593.736000	-0.037338
593.931000	-0.182101
594.126000	-0.133739
594.322000	-0.086973
594.517000	-0.167366
594.712000	-0.303075
594.907000	-0.319186
595.102000	-0.182363
595.297000	-0.054486
595.492000	-0.003766
595.687000	-0.181112
595.882000	-0.256705
596.077000	-0.149405
596.272000	0.017017
596.467000	0.016077
596.662000	-0.121170
596.857000	-0.108348
597.053000	-0.081874
597.248000	-0.055193
597.443000	-0.053361
597.638000	-0.115575
597.833000	-0.293516
598.028000	-0.111719
598.223000	-0.012438
598.418000	-0.100636
598.613000	-0.179205
598.808000	-0.084397
599.003000	-0.096009
599.198000	-0.259551
599.393000	-0.197968
599.589000	-0.095399
599.784000	-0.252646
599.979000	-0.162241
600.174000	0.010630
600.369000	-0.181871
600.564000	-0.129799
600.759000	0.085341
600.954000	0.186853
601.149000	0.045643
601.344000	-0.250803
601.539000	-0.100244
601.734000	-0.168151
601.929000	-0.385870
602.124000	-0.342307
602.320000	-0.120162
602.515000	0.096731
602.710000	0.042101
602.905000	-0.254530
603.100000	-0.303967
603.295000	-0.210524
603.490000	-0.132568
603.685000	-0.105090
603.880000	-0.083585
604.075000	-0.229700
604.270000	-0.235127
604.465000	-0.174730
604.660000	-0.361599
604.856000	-0.225092
605.051000	-0.051435
605.246000	-0.088950
605.441000	-0.304629
605.636000	-0.324503
605.831000	-0.188320
606.026000	-0.283353
606.221000	-0.293662
606.416000	-0.148012
606.611000	-0.023865
606.806000	0.006954
607.001000	0.149210
607.196000	-0.071687
607.391000	-0.265215
607.587000	-0.082923
607.782000	-0.074029
607.977000	-0.239527
608.172000	0.074085
608.367000	0.077087
608.562000	-0.110344
608.757000	-0.120337
608.952000	-0.168864
609.147000	0.170662
609.342000	0.093507
609.537000	-0.115839
609.732000	-0.089791
609.927000	-0.113779
610.122000	-0.018155
610.318000	0.271582
610.513000	0.426272
610.708000	0.285165
610.903000	0.320916
611.098000	0.374357
611.293000	0.333867
611.488000	0.340002
611.683000	0.320264
611.878000	0.242052
612.073000	0.252293
612.268000	0.220997
612.463000	0.262320
612.658000	0.195977
612.854000	0.146269
613.049000	0.078795
613.244000	0.172016
613.439000	0.215103
613.634000	-0.066745
613.829000	0.059575
614.024000	-0.050450
614.219000	-0.073090
614.414000	0.142156
614.609000	-0.060867
614.804000	-0.198128
614.999000	-0.178359
615.194000	-0.119904
615.389000	-0.083825
615.585000	-0.244678
615.780000	-0.094425
615.975000	-0.107090
616.170000	-0.074913
616.365000	0.099986
616.560000	0.186611
616.755000	0.102477
616.950000	0.032430
617.145000	0.096334
617.340000	-0.071271
617.535000	-0.315474
617.730000	-0.114397
617.925000	-0.257549
618.120000	-0.249217
618.316000	0.063231
618.511000	-0.073838
618.706000	-0.244524
618.901000	-0.111090
619.096000	0.003186
619.291000	-0.090194
619.486000	-0.048965
619.681000	-0.338765
619.876000	-0.376953
620.071000	-0.236602
620.266000	0.013889
620.461000	0.087763
620.656000	0.042891
620.852000	-0.003213
621.047000	-0.169620
621.242000	-0.269814
621.437000	0.020473
621.632000	0.131739
621.827000	-0.031343
622.022000	-0.279060
622.217000	-0.133400
622.412000	0.015200
622.607000	0.021736
622.802000	-0.200071
622.997000	-0.217136
623.192000	-0.137471
623.387000	-0.090576
623.583000	-0.288666
623.778000	0.020833
623.973000	0.044984
624.168000	0.031894
624.363000	0.048316
624.558000	0.063798
624.753000	-0.203043
624.948000	0.006633
625.143000	0.042042
625.338000	-0.072035
625.533000	-0.175154
625.728000	-0.075464
625.923000	0.139921
626.119000	0.024487
626.314000	-0.230625
626.509000	-0.278271
626.704000	-0.189365
626.899000	-0.158127
627.094000	-0.215622
627.289000	-0.255514
627.484000	-0.195189
627.679000	-0.199881
627.874000	-0.208054
628.069000	0.103047
628.264000	0.049780
628.459000	-0.117937
628.654000	-0.165716
628.850000	-0.306397
629.045000	-0.173324
629.240000	-0.203174
629.435000	-0.234297
629.630000	-0.114507
629.825000	-0.119084
630.020000	-0.109207
630.215000	-0.255061
630.410000	-0.231848
630.605000	-0.245891
630.800000	-0.148897
630.995000	0.015039
631.190000	0.246934
631.385000	0.096281
631.581000	-0.092960
631.776000	-0.086043
631.971000	-0.206470
632.166000	-0.117907
632.361000	-0.252395
632.556000	-0.160308
632.751000	0.005870
632.946000	-0.133870
633.141000	-0.223795
633.336000	-0.207629
633.531000	-0.108868
633.726000	-0.115825
633.921000	-0.284424
634.117000	-0.408578
634.312000	-0.492214
634.507000	-0.411812
634.702000	-0.302855
634.897000	-0.232838
635.092000	-0.116128
635.287000	-0.041986
635.482000	-0.167183
635.677000	-0.077001
635.872000	-0.026472
636.067000	0.048242
636.262000	-0.105336
636.457000	-0.390695
636.652000	-0.390071
636.848000	-0.388504
637.043000	-0.307473
637.238000	-0.291219
637.433000	-0.378018
637.628000	-0.287771
637.823000	-0.101356
638.018000	-0.066070
638.213000	-0.219498
638.408000	-0.272480
638.603000	-0.334328
638.798000	-0.371742
638.993000	-0.275026
639.188000	-0.280056
639.383000	-0.319805
639.579000	0.006167
639.774000	-0.183063
639.969000	-0.342769
640.164000	-0.344792
640.359000	-0.340198
640.554000	-0.133023
640.749000	-0.112197
640.944000	-0.082456
641.139000	-0.113458
641.334000	-0.278533
641.529000	-0.609488
641.724000	-0.439823
641.919000	-0.300112
642.115000	-0.023916
642.310000	-0.010055
642.505000	-0.158316
642.700000	-0.192589
642.895000	-0.303021
643.090000	-0.155249
643.285000	0.039133
643.480000	-0.049344
643.675000	-0.048120
643.870000	0.271513
644.065000	0.090257
644.260000	-0.263074
644.455000	-0.162977
644.650000	-0.250178
644.846000	-0.185085
645.041000	-0.349599
645.236000	-0.487304
645.431000	-0.421400
645.626000	-0.564515
645.821000	-0.359562
646.016000	-0.266931
646.211000	0.096431
646.406000	-0.025763
646.601000	-0.106813
646.796000	-0.236739
646.991000	-0.434947
647.186000	-0.279859
647.381000	-0.105821
647.577000	-0.096881
647.772000	-0.012918
647.967000	-0.094487
648.162000	-0.101039
648.357000	-0.149169
648.552000	0.014263
648.747000	-0.041516
648.942000	-0.018175
649.137000	-0.076827
649.332000	-0.243821
649.527000	-0.234595
649.722000	-0.048206
649.917000	0.062721
650.113000	-0.204903
650.308000	-0.314978
650.503000	-0.246884
650.698000	-0.128384
650.893000	-0.218932
651.088000	-0.114129
651.283000	-0.034182
651.478000	-0.315528
651.673000	-0.072235
651.868000	-0.230300
652.063000	-0.055382
652.258000	0.087095
652.453000	0.232954
652.648000	-0.056671
652.844000	-0.131889
653.039000	-0.093799
653.234000	-0.428176
653.429000	-0.550739
653.624000	-0.369092
653.819000	-0.124627
654.014000	-0.180346
654.209000	-0.293833
654.404000	-0.158053
654.599000	-0.268976
654.794000	-0.267183
654.989000	-0.004000
655.184000	-0.072077
655.380000	-0.306748
655.575000	-0.314786
655.770000	-0.328669
655.965000	-0.227185
656.160000	-0.262070
656.355000	-0.110956
656.550000	-0.144820
656.745000	-0.118081
656.940000	-0.232327
657.135000	-0.122177
657.330000	-0.128943
657.525000	-0.342748
657.720000	-0.161576
657.915000	-0.039011
658.111000	-0.130536
658.306000	0.056566
658.501000	-0.117441
658.696000	-0.341388
658.891000	-0.122849
659.086000	-0.211862
659.281000	-0.190582
659.476000	-0.334330
659.671000	-0.682131
659.866000	-0.449538
660.061000	-0.123300
660.256000	-0.046089
660.451000	-0.082763
660.646000	-0.239105
660.842000	-0.160494
661.037000	-0.321110
661.232000	-0.344734
661.427000	-0.200141
661.622000	-0.304175
661.817000	-0.355911
662.012000	-0.184554
662.207000	-0.311905
662.402000	-0.381262
662.597000	-0.233306
662.792000	-0.521028
662.987000	-0.493201
663.182000	-0.216918
663.378000	-0.196482
663.573000	-0.513759
663.768000	-0.520941
663.963000	-0.367397
664.158000	-0.325818
664.353000	0.071780
664.548000	0.208365
664.743000	-0.098084
664.938000	-0.363287
665.133000	-0.361090
665.328000	0.006928
665.523000	-0.045812
665.718000	-0.204097
665.913000	-0.233604
666.109000	-0.220190
666.304000	-0.033436
666.499000	-0.157327
666.694000	-0.078189
666.889000	0.160550
667.084000	-0.099455
667.279000	-0.191791
667.474000	-0.162484
667.669000	-0.142839
667.864000	-0.210306
668.059000	-0.167097
668.254000	-0.172933
668.449000	-0.288548
668.644000	-0.235276
668.840000	0.007035
669.035000	-0.239529
669.230000	-0.506135
669.425000	-0.157036
669.620000	-0.285756
669.815000	-0.345001
670.010000	-0.347519
670.205000	-0.210104
670.400000	-0.141710
670.595000	-0.116555
670.790000	-0.230577
670.985000	-0.205172
671.180000	-0.037086
671.376000	-0.361199
671.571000	-0.430679
671.766000	-0.370009
671.961000	-0.433275
672.156000	-0.410831
672.351000	-0.264373
672.546000	-0.283647
672.741000	-0.153726
672.936000	-0.145296
673.131000	0.281282
673.326000	-0.026037
673.521000	-0.364831
673.716000	-0.460372
673.911000	-0.572253
674.107000	-0.042093
674.302000	0.165582
674.497000	-0.097427
674.692000	-0.360881
674.887000	-0.417597
675.082000	-0.302704
675.277000	-0.082006
675.472000	-0.149564
675.667000	-0.255529
675.862000	-0.348225
676.057000	-0.260241
676.252000	-0.198909
676.447000	-0.305741
676.643000	-0.112161
676.838000	0.096109
677.033000	-0.179163
677.228000	0.077188
677.423000	0.050500
677.618000	-0.332117
677.813000	-0.452486
678.008000	-0.228464
678.203000	-0.137522
678.398000	-0.354915
678.593000	-0.197741
678.788000	-0.096186
678.983000	-0.330234
679.178000	-0.247800
679.374000	-0.318848
679.569000	-0.208000
679.764000	-0.294784
679.959000	-0.442478
680.154000	-0.454693
680.349000	-0.573377
680.544000	-0.475402
680.739000	-0.382954
680.934000	-0.494387
681.129000	-0.469838
681.324000	-0.517765
681.519000	-0.300301
681.714000	-0.311135
681.909000	-0.378113
682.105000	-0.523479
682.300000	-0.172602
682.495000	-0.061612
682.690000	-0.077190
682.885000	-0.131328
683.080000	-0.294372
683.275000	-0.269718
683.470000	0.049664
683.665000	0.192870
683.860000	0.271106
684.055000	0.032738
684.250000	-0.319902
684.445000	-0.358343
684.641000	0.006251
684.836000	-0.189401
685.031000	-0.219933
685.226000	-0.199781
685.421000	0.028395
685.616000	-0.211385
685.811000	-0.300444
686.006000	-0.098031
686.201000	-0.170991
686.396000	-0.476796
686.591000	-0.433163
686.786000	-0.022331
686.981000	-0.157924
687.176000	-0.134322
687.372000	-0.225722
687.567000	0.046446
687.762000	-0.048180
687.957000	-0.197531
688.152000	-0.292904
688.347000	-0.177349
688.542000	-0.444474
688.737000	-0.767389
688.932000	-0.770311
689.127000	-0.380830
689.322000	-0.107262
689.517000	-0.336340
689.712000	-0.502218
689.908000	-0.386838
690.103000	-0.387588
690.298000	-0.271521
690.493000	-0.241072
690.688000	-0.492592
690.883000	-0.346001
691.078000	0.044501
691.273000	0.064286
691.468000	-0.222961
691.663000	-0.266914
691.858000	-0.114411
692.053000	-0.087878
692.248000	-0.004979
692.443000	-0.094602
692.639000	-0.194587
692.834000	-0.023342
693.029000	0.420309
693.224000	0.341865
693.419000	-0.238186
693.614000	-0.356275
693.809000	-0.398580
694.004000	-0.463360
694.199000	-0.453132
694.394000	-0.190995
694.589000	-0.475455
694.784000	-0.464082
694.979000	-0.237130
695.174000	-0.259806
695.370000	0.206815
695.565000	-0.045882
695.760000	-0.321909
695.955000	0.034147
696.150000	0.102473
696.345000	-0.363474
696.540000	-0.170033
696.740000	-0.274609
696.940000	-0.109927
697.140000	-0.020718
697.340000	-0.240394
697.539000	-0.072676
697.739000	-0.185224
697.939000	-0.207872
698.139000	-0.520219
698.339000	-0.797181
698.539000	-0.544487
698.739000	-0.558160
698.939000	-0.436216
699.138000	-0.473787
699.338000	0.152144
699.538000	0.228208
699.738000	-0.242962
699.938000	-0.341842
700.138000	-0.416554
700.338000	-0.499184
700.538000	-0.278605
700.737000	-0.237713
700.937000	-0.603132
701.137000	-0.650116
701.337000	-0.117522
701.537000	-0.032122
701.737000	-0.251305
701.937000	-0.344764
702.137000	-0.287615
702.337000	-0.429463
702.536000	-0.514614
702.736000	-0.470352
702.936000	-0.634654
703.136000	-0.162288
703.336000	-0.127998
703.536000	-0.283824
703.736000	-0.583690
703.936000	-0.569818
704.135000	-0.549645
704.335000	-0.257461
704.535000	-0.461786
704.735000	-0.646070
704.935000	-0.154365
705.135000	-0.147817
705.335000	-0.357044
705.535000	-0.152073
705.735000	-0.119072
705.934000	-0.177602
706.134000	-0.375470
706.334000	-0.435110
706.534000	-0.479860
706.734000	-0.436082
706.934000	-0.513333
707.134000	-0.526349
707.334000	-0.280333
707.533000	-0.286394
707.733000	-0.306497
707.933000	-0.415848
708.133000	-0.188289
708.333000	-0.072367
708.533000	-0.258402
708.733000	-0.003717
708.933000	-0.223244
709.132000	-0.372797
709.332000	-0.373428
709.532000	-0.469687
709.732000	-0.325125
709.932000	-0.693012
710.132000	-0.685091
710.332000	-0.898068
710.532000	-0.337087
710.732000	-0.071358
710.931000	-0.338262
711.131000	-0.390522
711.331000	-0.264324
711.531000	-0.412289
711.731000	-0.375407
711.931000	-0.271577
712.131000	-0.290220
712.331000	-0.191644
712.530000	-0.308912
712.730000	-0.503541
712.930000	-0.353310
713.130000	-0.379329
713.330000	-0.446596
713.530000	-0.285418
713.730000	0.298963
713.930000	-0.044064
714.129000	-0.403817
714.329000	-0.549110
714.529000	-0.297368
714.729000	-0.021147
714.929000	-0.109583
715.129000	-0.440986
715.329000	-0.383570
715.529000	-0.325145
715.729000	0.214424
715.928000	-0.073591
716.128000	-0.331364
716.328000	-0.217678
716.528000	-0.365805
716.728000	-0.204355
716.928000	-0.356197
717.128000	-0.232143
717.328000	-0.241857
717.527000	-0.396424
717.727000	-0.345988
717.927000	-0.292192
718.127000	-0.353185
718.327000	-0.762690
718.527000	-0.679790
718.727000	-0.261548
718.927000	-0.419629
719.127000	-0.702195
719.326000	-0.464917
719.526000	-0.118416
719.726000	-0.189864
719.926000	-0.619364
720.126000	-0.583726
720.326000	-0.379167
720.526000	-0.468586
720.726000	-0.368434
720.925000	-0.159424
721.125000	-0.578054
721.325000	-0.331628
721.525000	-0.252328
721.725000	-0.428604
721.925000	-0.480023
722.125000	-0.476045
722.325000	-0.006025
722.524000	-0.239727
722.724000	-0.651496
722.924000	-0.772470
723.124000	-0.555335
723.324000	-0.145546
723.524000	-0.107235
723.724000	-0.621717
723.924000	-0.455258
724.124000	-0.282601
724.323000	-0.126216
724.523000	-0.270517
724.723000	0.114147
724.923000	-0.038740
725.123000	-0.114301
725.323000	-0.042939
725.523000	-0.196669
725.723000	-0.366321
725.922000	-0.428198
726.122000	-0.350738
726.322000	-0.477139
726.522000	-0.483782
726.722000	0.125433
726.922000	-0.139731
727.122000	-0.224761
727.322000	0.113556
727.521000	-0.091068
727.721000	-0.389681
727.921000	-0.333732
728.121000	-0.360589
728.321000	-0.643612
728.521000	-0.507882
728.721000	-0.350284
728.921000	0.045854
729.121000	0.643018
729.320000	0.089871
729.520000	-0.319804
729.720000	-0.512949
729.920000	-0.424936
730.120000	-0.306352
730.320000	-0.267137
730.520000	-0.530286
730.720000	-0.458073
730.919000	-0.392561
731.119000	-0.160695
731.319000	-0.605708
731.519000	-0.660682
731.719000	-0.315757
731.919000	-0.470709
732.119000	-0.879264
732.319000	-0.845806
732.519000	-0.407142
732.718000	-0.633925
732.918000	-0.563973
733.118000	-0.406902
733.318000	-0.105240
733.518000	-0.365147
733.718000	-0.838855
733.918000	-0.839345
734.118000	-0.580883
734.317000	-0.308906
734.517000	-0.506939
734.717000	-0.453024
734.917000	-0.036932
735.117000	-0.093516
735.317000	-0.186985
735.517000	0.156972
735.717000	0.365164
735.916000	-0.387088
736.116000	-0.517854
736.316000	-0.415520
736.516000	-0.327477
736.716000	-0.325444
736.916000	-0.763938
737.116000	-0.592384
737.316000	0.008873
737.516000	-0.053345
737.715000	-0.131222
737.915000	-0.623033
738.115000	-0.642869
738.315000	-0.357414
738.515000	-0.620886
738.715000	-0.474016
738.915000	0.000000
739.115000	-0.419105
739.314000	-0.499771
739.514000	-0.103928
739.714000	0.022650
739.914000	-0.095408
740.114000	-0.289038
740.314000	-0.107046
740.514000	0.207577
740.714000	-0.448603
740.913000	-0.788493
741.113000	-0.677236
741.313000	-0.342063
741.513000	-0.331514
741.713000	-0.263154
741.913000	-0.227289
742.113000	-0.319573
742.313000	-0.758866
742.513000	-0.436697
742.712000	-0.349557
742.912000	-0.659671
743.112000	-0.558991
743.312000	-0.756712
743.512000	-0.558836
743.712000	-0.431072
743.912000	-0.882411
744.112000	-0.993937
744.311000	-0.984788
744.511000	-0.687752
744.711000	-0.318581
744.911000	-0.611885
745.111000	-0.626948
745.311000	-0.171966
745.511000	-0.468776
745.711000	-0.605675
745.911000	-0.373944
746.110000	-0.765033
746.310000	-0.890167
746.510000	-0.649935
746.710000	-0.205548
746.910000	-0.135540
747.110000	-0.673944
747.310000	-0.854831
747.510000	-0.624063
747.709000	-0.351320
747.909000	-0.371789
748.109000	-0.169343
748.309000	-0.418074
748.509000	-0.738936
748.709000	-0.749090
748.909000	-0.454753
749.109000	-0.424469
749.308000	-0.089452
749.508000	-0.409001
749.708000	-0.464023
749.908000	-0.177167
750.108000	-0.162677
750.308000	-0.771016
750.508000	-0.088126
750.708000	-0.549081
750.908000	-0.901127
751.107000	-0.303833
751.307000	0.225076
751.507000	-0.243807
751.707000	-0.218133
751.907000	-0.322919
752.107000	-0.301050
752.307000	-0.703960
752.507000	-0.464547
752.706000	-0.520657
752.906000	0.300721
753.106000	-0.451356
753.306000	-0.985682
753.506000	-0.077824
753.706000	-0.410693
753.906000	-0.187180
754.106000	-0.041651
754.305000	-0.177245
754.505000	-0.146349
754.705000	-0.262765
754.905000	-0.371048
755.105000	-0.234554
755.305000	-0.889383
755.505000	-0.688147
755.705000	-0.336553
755.905000	-0.465149
756.104000	-0.875236
756.304000	-1.171005
756.504000	-1.333795
756.704000	-0.354660
756.904000	-0.171859
757.104000	-0.463900
757.304000	-0.456291
757.504000	-0.051309
757.703000	-0.448196
757.903000	-0.078488
758.103000	0.119329
758.303000	-0.266526
758.503000	-0.474469
758.703000	-0.560306
758.903000	-0.680870
759.103000	-0.293392
759.303000	-0.283780
759.502000	-0.491964
759.702000	-0.149190
759.902000	-0.472072
760.102000	-0.534440
760.302000	-0.505518
760.502000	-0.180998
760.702000	-0.145006
760.902000	-0.402407
761.101000	-0.703434
761.301000	-0.974181
761.501000	-0.668385
761.701000	-0.782288
761.901000	-0.511983
762.101000	-0.232445
762.301000	-0.391192
762.501000	-0.649686
762.700000	-0.746732
762.900000	-0.746999
763.100000	-0.388197
763.300000	-0.126106
763.500000	-0.407382
763.703000	-0.589016
763.905000	-0.884013
764.108000	-0.201627
764.311000	-0.449400
764.513000	-0.553776
764.716000	-0.385159
764.919000	-0.368275
765.121000	-0.780350
765.324000	-0.951456
765.527000	-0.795648
765.729000	-0.637669
765.932000	-0.011719
766.135000	-0.128876
766.337000	-0.363384
766.540000	-0.535106
766.743000	-0.308048
766.945000	-0.724252
767.148000	-1.108097
767.351000	-0.983520
767.553000	-0.228959
767.756000	-0.514962
767.958000	-0.931599
768.161000	-0.533230
768.364000	-0.822225
768.566000	-1.066738
768.769000	-0.610310
768.972000	-0.327658
769.174000	-0.624145
769.377000	-1.133934
769.580000	-1.136350
769.782000	-0.417813
769.985000	-0.829184
770.188000	-1.665355
770.390000	-0.838326
770.593000	0.550039
770.796000	0.146786
770.998000	-0.345761
771.201000	-0.722880
771.404000	-0.309805
771.606000	-0.582035
771.809000	-0.581845
772.012000	-0.475009
772.214000	-1.216241
772.417000	-1.302814
772.620000	-0.433955
772.822000	-0.679238
773.025000	-0.812752
773.228000	-0.829809
773.430000	-0.768931
773.633000	-0.470967
773.836000	-0.384159
774.038000	-0.379341
774.241000	-0.501472
774.444000	-0.619334
774.646000	0.219891
774.849000	-0.182606
775.052000	-0.428107
775.254000	-0.324872
775.457000	-0.627093
775.659000	-0.593849
775.862000	-0.761445
776.065000	-0.531674
776.267000	-0.019021
776.470000	0.264299
776.673000	-0.423809
776.875000	-0.009588
777.078000	-0.006382
777.281000	-0.759092
777.483000	-0.157443
777.686000	-0.032191
777.889000	-0.209469
778.091000	-0.025870
778.294000	-0.952581
778.497000	-0.895607
778.699000	-0.731296
778.902000	-0.678597
779.105000	-0.470829
779.307000	0.305663
779.510000	-0.648541
779.713000	-0.461307
779.915000	-0.636802
780.118000	0.348284
780.321000	0.424376
780.523000	-0.349522
780.726000	-0.791700
780.929000	-0.956294
781.131000	-0.865298
781.334000	-1.272933
781.537000	-1.329682
781.739000	-0.429215
781.942000	-0.842473
782.145000	-1.308736
782.347000	-1.272720
782.550000	-0.884773
782.753000	-1.022178
782.955000	-0.947411
783.158000	-0.795221
783.361000	-0.574243
783.563000	-0.594608
783.766000	-0.741799
783.968000	0.824357
784.171000	0.736124
784.374000	-0.402178
784.576000	-0.500869
784.779000	-0.214320
784.982000	0.150547
785.184000	-0.509131
785.387000	-0.230837
785.590000	0.375340
785.792000	0.307632
785.995000	0.131550
786.198000	-0.156037
786.400000	-0.598923
786.603000	-0.541097
786.806000	-0.508105
787.008000	-0.295785
787.211000	-0.296853
787.414000	-0.956683
787.616000	-0.671858
787.819000	-0.684018
788.022000	-1.221597
788.224000	-0.605239
788.427000	-1.133253
788.630000	-0.657461
788.832000	-0.450849
789.035000	-0.949883
789.238000	-1.452616
789.440000	-1.174602
789.643000	-0.092916
789.846000	-0.680934
790.048000	-0.337700
790.251000	-0.194044
790.454000	-0.498484
790.656000	0.118782
790.859000	-0.523129
791.062000	-0.943290
791.264000	-0.335838
791.467000	-1.048040
791.669000	-1.521697
791.872000	-0.624129
792.075000	-0.995266
792.277000	-0.718312
792.480000	-0.454593
792.683000	-0.914015
792.885000	-1.214986
793.088000	-1.083540
793.291000	-1.233539
793.493000	-1.136187
793.696000	-0.361656
793.899000	-0.159123
794.101000	-0.452513
794.304000	-0.732348
794.507000	-0.457931
794.709000	-0.227734
794.912000	-0.727184
795.115000	-1.081608
795.317000	-0.713365
795.520000	-0.463829
795.723000	-0.696655
795.925000	-1.050302
796.128000	-1.234509
796.331000	-0.858638
796.533000	-1.241514
796.736000	-0.673632
796.939000	-0.525617
797.141000	-0.715494
797.344000	-0.007701
797.547000	0.019260
797.749000	-0.231457
797.952000	-0.697895
798.155000	-1.114193
798.357000	-1.241556
798.560000	-1.033295
798.763000	-0.414456
798.965000	-0.503908
799.168000	-0.568060
799.371000	-0.451057
799.573000	-0.775257
799.776000	-1.288776
799.978000	-1.261611
800.181000	-0.562670
800.384000	0.722284
800.586000	0.087514
800.789000	-1.252504
800.992000	-1.215894
801.194000	-1.342030
801.397000	-1.309566
801.600000	-1.101716
801.802000	-0.012037
802.005000	-0.342124
802.208000	-1.562120
802.410000	-0.778374
802.613000	-0.563065
802.816000	-0.620499
803.018000	-1.199573
803.221000	-1.132555
803.424000	0.102060
803.626000	-0.200349
803.829000	-0.656285
804.032000	0.131604
804.234000	0.789380
804.437000	-0.478973
804.640000	-0.581712
804.842000	-0.607853
805.045000	-1.047217
805.248000	-0.903458
805.450000	-0.935851
805.653000	-0.858069
805.856000	-0.924031
806.058000	0.008388
806.261000	-0.912238
806.464000	-0.929983
806.666000	-0.341393
806.869000	-0.750788
807.072000	-1.874649
807.274000	-1.994713
807.477000	-0.949012
807.679000	-0.860358
807.882000	-1.383152
808.085000	-1.104527
808.287000	-0.451712
808.490000	-1.249979
808.693000	-1.052448
808.895000	-0.734087
809.098000	-0.704201
809.301000	-0.658875
809.503000	-0.822812
809.706000	-0.048150
809.909000	0.205697
810.111000	-0.043827
810.314000	-0.549086
810.517000	-0.954492
810.719000	-0.995095
810.922000	-0.658837
811.125000	0.180901
811.327000	0.133123
811.530000	-0.445504
811.735000	-0.733972
811.940000	-1.025401
812.146000	-0.958083
812.351000	-0.349235
812.556000	-0.597403
812.761000	-1.176067
812.967000	-0.199120
813.172000	-0.280282
813.377000	-0.521488
813.582000	0.122956
813.788000	-0.293463
813.993000	-1.143465
814.198000	-0.389159
814.403000	-1.121071
814.609000	-0.478878
814.814000	-0.499538
815.019000	0.369352
815.224000	0.129207
815.429000	-0.998714
815.635000	-0.712945
815.840000	-0.625087
816.045000	-0.463922
816.250000	-0.126728
816.456000	-1.250644
816.661000	-2.064054
816.866000	-1.661500
817.071000	-1.475959
817.277000	-2.171082
817.482000	-1.306808
817.687000	-0.595792
817.892000	-0.723791
818.097000	-0.283683
818.303000	0.100971
818.508000	0.633434
818.713000	1.781646
818.918000	0.510784
819.124000	0.149764
819.329000	-0.805369
819.534000	-0.958618
819.739000	-1.065760
819.945000	-0.958330
820.150000	-0.673660
820.355000	-0.660190
820.560000	-0.407823
820.766000	-0.507390
820.971000	-0.475635
821.176000	-1.832662
821.381000	-2.451356
821.586000	-1.504539
821.792000	0.024997
821.997000	-0.570457
822.202000	-0.936669
822.407000	-1.416801
822.613000	-1.475158
822.818000	-0.933846
823.023000	-0.616584
823.228000	-0.666346
823.434000	-0.025413
823.639000	0.147711
823.844000	-0.801783
824.049000	-0.040885
824.255000	0.107672
824.460000	-0.571777
824.665000	-1.124513
824.870000	-0.134571
825.075000	-0.145105
825.281000	-0.119553
825.486000	0.575166
825.691000	-1.372012
825.896000	-2.350627
826.102000	-0.939785
826.307000	-0.684188
826.512000	-1.035402
826.717000	-0.816039
826.923000	-0.988420
827.128000	-0.766906
827.333000	-1.447243
827.538000	-0.532643
827.744000	0.005393
827.949000	-0.952806
828.154000	-0.848568
828.359000	-0.027011
828.564000	-0.651515
828.770000	-0.839568
828.975000	0.207636
829.180000	-0.384426
829.385000	-1.652403
829.591000	-1.174226
829.796000	-0.653761
830.001000	-0.766028
830.206000	-1.425524
830.412000	-1.273875
830.617000	-1.003718
830.822000	0.000000
831.027000	-0.721310
831.232000	-1.282608
831.438000	-1.223685
831.643000	-0.691096
831.848000	-0.868828
832.053000	-0.815141
832.259000	-1.044444
832.464000	-2.524006
832.669000	-1.975955
832.874000	-1.479558
833.080000	-1.440018
833.285000	0.080772
833.490000	-0.178979
833.695000	-1.464509
833.901000	-1.173616
834.106000	-1.520426
834.311000	-1.287399
834.516000	-0.518104
834.721000	-0.941401
834.927000	0.065398
835.132000	-0.500378
835.337000	0.799412
835.542000	-0.294060
835.748000	-1.760940
835.953000	-0.198340
836.158000	-0.343428
836.363000	-0.514185
836.569000	-0.280422
836.774000	-1.258009
836.979000	-1.608051
837.184000	-1.930668
837.390000	-1.664019
837.595000	-1.071273
837.800000	-0.814556
838.005000	-0.651911
838.210000	-0.850957
838.416000	-1.109907
838.621000	-0.981597
838.826000	-1.043480
839.031000	-1.055118
839.237000	-1.537559
839.442000	-2.072370
839.647000	-2.322397
839.852000	-1.709588
840.058000	-1.492525
840.263000	-1.326796
840.468000	-1.931244
840.673000	-1.161429
840.878000	-1.001955
841.084000	-1.421435
841.289000	-0.693074
841.494000	1.350154
841.699000	1.092859
841.905000	0.341187
842.110000	0.606899
842.315000	-1.222994
842.520000	-0.944392
842.726000	-1.509343
842.931000	-1.957909
843.136000	-0.992698
843.341000	-2.349230
843.547000	-1.359764
843.752000	-1.026020
843.957000	-1.676712
844.162000	-1.603153
844.367000	-1.096061
844.573000	-0.574320
844.778000	-0.375049
844.983000	-0.423820
845.188000	-0.357285
845.394000	-1.795627
845.599000	-1.569911
845.804000	-1.311565
846.009000	-0.677784
846.215000	-1.733901
846.420000	-1.428874
846.625000	-0.466073
846.830000	0.042218
847.036000	-1.060562
847.241000	-1.533685
847.446000	-0.376275
847.651000	-0.898306
847.856000	-1.848855
848.062000	-1.623449
848.267000	-0.021652
848.472000	-1.238467
848.677000	-2.382173
848.883000	-0.760982
849.088000	0.732084
849.293000	-0.705572
849.498000	-1.262538
849.704000	-0.257631
849.909000	-0.789658
850.114000	-1.660548
850.319000	-0.776656
850.524000	-0.885050
850.730000	-0.875112
850.935000	-1.081387
851.140000	-0.128000
851.345000	-0.323720
851.551000	-0.528571
851.756000	-0.075916
851.961000	-0.989539
852.166000	-1.325148
852.372000	-0.908629
852.577000	-0.976799
852.782000	-1.177949
852.987000	0.177735
853.193000	-0.333485
853.398000	-0.566318
853.603000	-1.803825
853.808000	-2.341535
854.013000	-1.323045
854.219000	-0.054900
854.424000	1.637651
854.629000	1.396655
854.834000	-0.977036
855.040000	-0.839398
855.245000	-0.278864
855.450000	-2.700630
855.655000	-3.615366
855.861000	-3.188559
856.066000	-2.226636
856.271000	-2.327540
856.476000	-0.455718
856.682000	-1.233542
856.887000	-3.566778
857.092000	-2.175628
857.297000	0.106756
857.502000	-0.370266
857.708000	-0.890370
857.913000	0.082585
858.118000	-0.658433
858.323000	-1.011450
858.529000	-1.009886
858.734000	-1.347388
858.939000	-1.141522
859.144000	-1.760187
859.350000	-2.628018
859.555000	-2.593987
859.760000	-0.790086
859.965000	0.186848
860.171000	-1.475654
860.376000	-0.548186
860.581000	-1.992492
860.786000	-4.001721
860.991000	-3.646705
861.197000	-2.640301
861.402000	-1.180690
861.607000	-1.702670
861.812000	-2.660965
862.018000	-2.548562
862.223000	-1.596948
862.428000	-0.988530
862.633000	-0.158943
862.839000	-0.755271
863.044000	-1.711326
863.249000	-2.457266
863.454000	-0.527719
863.659000	-1.175271
863.865000	-1.929454
864.070000	-1.925476
864.275000	-2.526322
864.480000	-2.137641
864.686000	-3.542422
864.891000	-2.987981
865.096000	-1.138258
865.301000	-0.634570
865.507000	-0.434786
865.712000	-0.240504
865.917000	-1.294038
866.122000	-0.457412
866.328000	-3.013507
866.533000	-2.917591
866.738000	-0.075146
866.943000	-0.084718
867.148000	0.643688
867.354000	-2.098865
867.559000	-3.454587
867.764000	-1.774094
867.969000	-0.983110
868.175000	-2.180517
868.380000	-2.496629
868.585000	-3.011439
868.790000	-1.123502
868.996000	-1.306417
869.201000	-2.785852
869.406000	-3.661771
869.611000	-2.909968
869.817000	-2.572852
870.022000	1.547585
870.227000	-0.335969
870.432000	-2.214407
870.637000	-0.924553
870.843000	-1.479881
871.048000	-1.510608
871.253000	-0.090088
871.458000	-0.915516
871.664000	-2.652639
871.869000	-2.861816
872.074000	-2.410758
872.279000	-1.460052
872.485000	-2.055191
872.690000	-2.095063
872.895000	-2.383527
873.100000	-2.759860
873.306000	-2.563203
873.511000	-1.447913
873.716000	-0.010515
873.921000	-1.615102
874.126000	-2.100873
874.332000	-1.442670
874.537000	-0.533017
874.742000	-0.573800
874.947000	-1.205824
875.153000	0.430845
875.358000	-0.734153
875.563000	-1.251218
875.768000	-3.715247
875.974000	-3.904532
876.179000	-0.719225
876.384000	-0.689869
876.589000	-2.187805
876.794000	-1.858433
877.000000	-2.623879
877.205000	-3.770502
877.410000	-1.322284
877.615000	-2.873046
877.821000	-4.532445
878.026000	-3.213460
878.231000	-3.391838
878.436000	-3.498450
878.642000	-3.195211
878.847000	-1.504979
879.052000	-0.225990
879.257000	-2.222559
879.463000	-2.899022
879.668000	-2.260554
879.873000	-0.298022
880.078000	-2.596843
880.283000	-4.314165
880.489000	-4.452490
880.694000	-3.579786
880.899000	-1.762542
881.104000	-0.738351
881.310000	0.914126
881.515000	-0.339477
881.720000	0.985677
881.925000	2.230280
882.131000	3.021098
882.336000	0.214055
882.541000	-2.792617
882.746000	-2.758214
882.952000	-3.332476
883.157000	-3.123601
883.362000	-3.068007
883.567000	-3.432600
883.772000	-3.403261
883.978000	-2.794219
884.183000	-1.584532
884.388000	-1.740137
884.593000	-3.628792
884.799000	0.541828
885.004000	0.137370
885.209000	-1.486735
885.414000	-1.083216
885.620000	-3.486346
885.825000	-1.162046
886.030000	-1.437111
886.235000	-2.422580
886.440000	-1.496346
886.646000	-4.106166
886.851000	-4.217092
887.056000	-0.362253
887.261000	-0.971099
887.467000	-3.588189
887.672000	-1.007874
887.877000	-2.289150
888.082000	-4.626592
888.288000	-4.886293
888.493000	-6.672169
888.698000	-5.061567
888.903000	-1.922993
889.109000	-2.825210
889.314000	-0.266681
889.519000	-1.886235
889.724000	0.332561
889.929000	-1.251890
890.135000	-2.323563
890.340000	-2.152555
890.545000	-3.187019
890.750000	-4.770868
890.956000	-3.353430
891.161000	-0.999174
891.366000	-2.897672
891.571000	-1.696538
891.777000	-1.738876
891.982000	-0.163816
892.187000	-0.726621
892.392000	0.136772
892.598000	-0.192574
892.803000	-0.860368
893.008000	-3.160798
893.213000	-3.180102
893.418000	-2.965809
893.624000	-3.512455
893.829000	-5.473961
894.034000	-2.777889
894.239000	-0.972815
894.445000	-3.305535
894.650000	-3.505978
894.855000	-3.609432
895.060000	-3.829505
895.266000	-3.541105
895.471000	-4.638882
895.676000	-1.527894
895.881000	-0.806529
896.087000	-2.679345
896.292000	-3.943670
896.497000	0.072850
896.702000	-1.407624
896.907000	-3.270145
897.113000	0.948198
897.318000	1.093522
897.523000	0.014619
897.728000	-2.127875
897.934000	-2.706126
898.139000	-2.317551
898.344000	-0.355341
898.549000	-1.503911
898.755000	-2.818234
898.960000	-3.330748
899.165000	-4.983358
899.370000	-1.627939
899.575000	1.541421
899.781000	-2.818808
899.986000	-3.637361
900.191000	-2.196357
900.396000	-2.840255
900.602000	-1.920232
900.807000	-2.475269
901.012000	-1.930827
901.217000	-0.452685
901.423000	-2.753471
901.628000	-4.136229
901.833000	-0.172548
902.038000	-0.316162
902.244000	-3.373644
902.449000	-2.743351
902.654000	-2.948536
902.859000	-2.078328
903.064000	0.112446
903.270000	0.193459
903.475000	-4.081877
903.680000	-6.172979
903.885000	-4.971251
904.091000	-4.376310
904.296000	-5.557711
904.501000	-4.081952
904.706000	-3.335514
904.912000	0.100144
905.117000	-1.910714
905.322000	-4.545215
905.527000	-4.170951
905.733000	-3.668809
905.938000	-3.319206
906.143000	-3.873238
906.348000	-5.505784
906.553000	-1.520201
906.759000	-0.362548
906.964000	-1.734991
907.169000	-3.227813
907.374000	-5.344457
907.580000	-3.815297
907.785000	-3.560591
907.990000	14.873053
908.195000	10.164963
908.401000	-0.683803
908.606000	-7.309851
908.811000	-8.983627
909.016000	-2.400886
909.221000	-1.756566
909.427000	-2.658957
909.632000	-4.482754
909.837000	-4.236494
910.042000	-5.269212
910.248000	-6.675153
910.453000	-2.585494
910.658000	-3.907805
910.863000	-4.431772
911.069000	-5.564634
911.274000	-1.391841
911.479000	-0.057551
911.684000	-6.286667
911.890000	-3.861135
912.095000	-3.421318
912.300000	-5.879130
912.506000	-4.986257
912.711000	-4.437063
912.917000	-2.250119
913.123000	-2.054574
913.328000	-2.683474
913.534000	-2.166472
913.740000	6.080390
913.946000	2.375297
914.151000	-4.033787
914.357000	-5.530062
914.563000	-1.483326
914.768000	-4.382526
914.974000	-6.374316
915.180000	-6.164657
915.385000	-4.259117
915.591000	-6.942832
915.797000	-3.737625
916.002000	-0.192393
916.208000	-2.936758
916.414000	-5.292584
916.620000	-5.778236
916.825000	-2.249324
917.031000	-3.095177
917.237000	-8.822321
917.442000	-5.029869
917.648000	-5.755587
917.854000	-6.835777
918.059000	-1.358738
918.265000	-0.934353
918.471000	-3.309155
918.676000	-5.988464
918.882000	-7.825008
919.088000	-6.540374
919.294000	-11.275503
919.499000	-6.728830
919.705000	-1.487937
919.911000	-3.347713
920.116000	-1.690611
920.322000	-7.097728
920.528000	-5.831837
920.733000	-7.667987
920.939000	-7.603063
921.145000	-6.622563
921.350000	-5.902585
921.556000	-3.959225
921.762000	-4.219112
921.968000	-5.116742
922.173000	-6.438784
922.379000	-8.670724
922.585000	-4.655229
922.790000	-5.369303
922.996000	-6.503509
923.202000	-7.379160
923.407000	-7.813435
923.613000	-5.466396
923.819000	-3.381219
924.024000	-3.386201
924.230000	-1.716789
924.436000	-4.502360
924.642000	4.558361
924.847000	0.187440
925.053000	-5.831296
925.259000	-9.723134
925.464000	-4.124930
925.670000	-5.387698
925.876000	-7.655146
926.081000	-8.161799
926.287000	-3.979917
926.493000	-2.737320
926.698000	-4.672398
926.904000	-2.196741
927.110000	-4.251988
927.316000	-4.157557
927.521000	1.816186
927.727000	-3.600578
927.933000	-5.033744
928.138000	-4.707099
928.344000	-10.258316
928.550000	-5.799071
928.755000	-1.578072
928.961000	-6.151187
929.167000	-5.979407
929.372000	1.050548
929.578000	-0.514964
929.784000	-6.560454
929.990000	-9.073624
930.195000	-6.485139
930.401000	-5.821235
930.607000	-4.904108
930.812000	-3.541648
931.018000	-6.011150
931.224000	-11.768742
931.429000	-8.586007
931.635000	-10.933067
931.841000	-10.975471
932.046000	-6.475970
932.252000	-2.116172
932.458000	3.482180
932.664000	-0.531529
932.869000	-6.118970
933.075000	-8.504363
933.281000	-8.795191
933.486000	-1.995570
933.692000	-4.216499
933.898000	-8.680604
934.103000	-1.777583
934.309000	-6.049764
934.515000	-4.376799
934.720000	-1.560736
934.926000	1.793428
935.132000	1.025641
935.338000	-2.517831
935.543000	-9.539763
935.749000	-10.918195
935.955000	-12.072892
936.160000	-9.939724
936.366000	-2.791756
936.572000	-3.400312
936.777000	-1.250781
936.983000	-0.242655
937.189000	-4.483561
937.394000	-9.377488
937.600000	-1.328074
937.806000	2.090230
938.012000	-5.775200
938.217000	4.278100
938.423000	1.292585
938.629000	-6.334583
938.834000	-12.890092
939.040000	-12.770034
939.246000	-7.650840
939.451000	-10.299867
939.657000	-6.738492
939.863000	-11.557778
940.068000	-2.176531
940.274000	-6.853994
940.480000	-5.338808
940.686000	-3.127092
940.891000	-5.724538
941.097000	12.512914
941.303000	1.801012
941.508000	-7.882680
941.714000	-4.135071
941.920000	-12.717395
942.125000	-4.711819
942.331000	-3.273342
942.537000	2.214124
942.742000	-0.406658
942.948000	-9.659525
943.154000	-10.815634
943.360000	-21.203650
943.565000	-9.644646
943.771000	0.157039
943.977000	3.275279
944.182000	-13.026776
944.388000	-14.073696
944.594000	-1.003615
944.799000	6.029418
945.005000	-1.836250
945.211000	2.157418
945.416000	-0.854909
945.622000	-12.802610
945.828000	-10.991508
946.034000	-2.476378
946.239000	-2.268852
946.445000	-7.191888
946.651000	-17.027584
946.856000	-16.146796
947.062000	-3.164454
947.268000	-1.208726
947.473000	-15.004968
947.679000	-16.983367
947.885000	-3.563104
948.090000	0.280077
948.296000	12.930589
948.502000	-0.449141
948.708000	-9.740853
948.913000	-12.779133
949.119000	-2.405950
949.325000	-6.133332
949.530000	-18.067903
949.736000	-23.778951
949.942000	-13.949596
950.147000	-13.305552
950.353000	-11.770977
950.559000	-8.250737
950.764000	12.979772
950.970000	5.898069
951.176000	-8.832774
951.382000	-14.343080
951.587000	-2.585950
951.793000	2.179292
951.999000	1.491881
952.204000	-12.232498
952.410000	-24.306713
952.616000	-12.680938
952.821000	-8.170858
953.027000	-14.099809
953.233000	-16.299422
953.438000	-14.640402
953.644000	1.714471
953.850000	-3.063600
954.056000	-9.349969
954.261000	-9.968822
954.467000	-1.061669
954.673000	3.489946
954.878000	-4.940235
955.084000	-5.572457
955.290000	-18.356382
955.495000	-19.166612
955.701000	-15.971465
955.907000	1.152568
956.112000	-1.536915
956.318000	5.521776
956.524000	4.879190
956.730000	-9.846660
956.935000	-11.904063
957.141000	-14.551608
957.347000	-2.570842
957.552000	-6.782561
957.758000	-21.943148
957.964000	-30.286983
958.169000	1.003312
958.375000	-0.268379
958.581000	-12.405723
958.786000	-21.998144
958.992000	-26.829878
959.198000	-10.408080
959.404000	-4.533077
959.609000	-10.062217
959.815000	-14.351602
960.021000	1.398799
960.226000	-6.420881
960.432000	-26.562031
960.638000	-16.902932
960.843000	-12.087036
961.049000	-12.703358
961.255000	-2.170813
961.460000	-13.555938
961.666000	-32.688604
961.872000	-19.672493
962.078000	-16.957272
962.283000	-24.751043
962.489000	-24.360723
962.695000	-15.931850
962.900000	-14.158380
963.106000	-12.039894
963.312000	-15.648127
963.517000	-19.231953
963.723000	-21.882601
963.929000	-0.544476
964.134000	7.452481
964.340000	-15.071687
964.546000	-16.804327
964.752000	-19.108277
964.957000	-25.376092
965.163000	-4.128070
965.369000	-5.658346
965.574000	-4.805430
965.780000	-9.204274
966.000000	-15.518933
966.220000	-11.020068
966.440000	-10.574818
966.661000	-2.786345
966.881000	-19.733750
967.101000	-34.365881
967.321000	-32.916619
967.541000	-9.438846
967.761000	-16.144997
967.981000	-12.837767
968.202000	-10.920959
968.422000	-2.139476
968.642000	-2.399506
968.862000	-4.808582
969.082000	-13.252118
969.302000	-3.869147
969.522000	-8.997077
969.743000	2.348367
969.963000	-15.139386
970.183000	-26.270955
970.403000	-24.362767
970.623000	-22.528892
970.843000	-1.525895
971.063000	-1.452605
971.284000	-18.608868
971.504000	-29.977228
971.724000	-10.985781
971.944000	-23.589815
972.164000	-33.147123
972.384000	-22.409435
972.604000	-35.863049
972.825000	-42.154978
973.045000	-28.213854
973.265000	20.452824
973.485000	10.154025
973.705000	-6.842393
973.925000	-12.823207
974.145000	-44.986055
974.365000	-16.416772
974.586000	-12.329693
974.806000	-28.945695
975.026000	-2.984217
975.246000	-13.725349
975.466000	-27.374409
975.686000	-12.650514
975.906000	-21.362001
976.127000	-41.325031
976.347000	-36.850460
976.567000	-12.526004
976.787000	-9.106501
977.007000	-13.452660
977.227000	-22.360231
977.447000	-26.646290
977.668000	-44.748217
977.888000	-26.262092
978.108000	-28.171275
978.328000	-21.223407
978.548000	5.623297
978.768000	12.950526
978.988000	0.130090
979.209000	-17.093890
979.429000	-17.973721
979.649000	-8.658037
979.869000	-27.879930
980.089000	-41.700426
980.309000	-46.876633
980.529000	-54.218725
980.750000	-31.420895
980.970000	-42.146903
981.190000	-31.541838
981.410000	-28.393846
981.630000	-33.344568
981.850000	-22.980233
982.070000	-18.904422
982.291000	-44.460226
982.511000	-40.075102
982.731000	-8.346408
982.951000	-28.616855
983.171000	-28.890984
983.391000	-22.682923
983.611000	3.780344
983.832000	-22.402841
984.052000	-45.422769
984.272000	-26.877227
984.492000	-18.663605
984.712000	-27.913240
984.932000	-48.150073
985.152000	-56.601770
985.373000	-40.312742
985.593000	-16.008438
985.813000	-24.738200
986.033000	-36.347071
986.253000	3.789588
986.473000	7.207033
986.693000	-27.490530
986.914000	-38.303784
987.134000	4.059600
987.354000	-27.293953
987.574000	130.052564
987.794000	75.708332
988.014000	-38.856036
988.234000	-20.954748
988.455000	-8.008290
988.675000	-13.222340
988.895000	-23.599159
989.115000	-38.143050
989.335000	-17.569125
989.555000	0.000000
989.775000	-41.757401
989.995000	-32.696784
990.216000	-23.931743
990.436000	-20.757887
990.656000	8.655105
990.876000	-27.279945
991.096000	-17.696208
991.316000	7.722197
991.536000	-14.274419
991.757000	-28.768945
991.977000	-70.558250
992.197000	-21.853228
992.417000	-37.391712
992.637000	-76.587891
992.857000	-74.351515
993.077000	-69.840161
993.298000	-36.789066
993.518000	-34.136162
993.738000	-81.484084
993.958000	-40.732496
994.178000	-48.836478
994.398000	-40.442082
994.618000	-72.795931
994.839000	-118.711339
995.059000	-32.125747
995.279000	27.276166
995.499000	-11.732721
995.719000	-12.331888
995.939000	-29.093292
996.159000	-31.070241
996.380000	-21.851691
996.600000	-70.239509
996.820000	-35.538653
997.040000	9.247685
997.260000	-52.928005
997.480000	-37.630769
997.700000	-98.037335
997.921000	-60.396245
998.141000	21.491868
998.361000	-11.709313
998.581000	-54.127126
998.801000	-87.333675
999.021000	-58.914295
999.241000	-35.264839
999.462000	-57.175466
999.682000	-102.260013
999.902000	-62.812696
1000.122000	-80.710847
1000.342000	-126.879543
1000.562000	-61.550135
1000.782000	-65.922593
1001.003000	-921.982184
