Wavelength	Irradiance
(nm)	(mW/cm2/nm)

294.396000	0.000000
294.577000	0.000000
294.757000	0.000000
294.938000	-0.000000
295.118000	-0.000000
295.299000	0.000000
295.479000	-0.000000
295.660000	-0.000000
295.840000	-0.000000
296.021000	-0.000000
296.202000	-0.000000
296.382000	-0.000000
296.563000	-0.000000
296.743000	-0.000000
296.924000	0.000000
297.104000	0.000000
297.285000	-0.000000
297.465000	-0.000000
297.646000	-0.000000
297.826000	0.000000
298.007000	0.000000
298.187000	-0.000000
298.368000	-0.000000
298.548000	0.000000
298.729000	0.000000
298.909000	-0.000000
299.090000	-0.000000
299.270000	-0.000000
299.451000	-0.000000
299.631000	-0.000000
299.812000	-0.000000
299.992000	0.000000
300.173000	0.000000
300.353000	-0.000000
300.534000	0.000000
300.714000	0.000000
300.895000	0.000000
301.075000	-0.000000
301.256000	0.000000
301.436000	0.000000
301.617000	-0.000000
301.797000	-0.000000
301.978000	0.000000
302.159000	0.000000
302.339000	0.000000
302.520000	-0.000000
302.700000	-0.000000
302.881000	0.000000
303.061000	0.000000
303.242000	0.000000
303.422000	0.000000
303.603000	-0.000000
303.783000	-0.000000
303.964000	-0.000000
304.144000	-0.000000
304.325000	-0.000000
304.505000	-0.000000
304.686000	-0.000000
304.866000	0.000000
305.047000	-0.000000
305.227000	-0.000000
305.408000	-0.000000
305.588000	-0.000000
305.769000	-0.000000
305.949000	-0.000000
306.130000	-0.000000
306.310000	-0.000000
306.491000	-0.000000
306.671000	0.000000
306.852000	-0.000000
307.032000	-0.000000
307.213000	-0.000000
307.393000	-0.000000
307.574000	0.000000
307.755000	0.000000
307.935000	0.000000
308.116000	-0.000000
308.296000	-0.000000
308.477000	0.000000
308.657000	0.000000
308.838000	0.000000
309.018000	0.000000
309.199000	-0.000000
309.379000	-0.000000
309.560000	0.000000
309.740000	-0.000000
309.921000	0.000000
310.101000	0.000000
310.282000	-0.000000
310.462000	-0.000000
310.643000	-0.000000
310.823000	-0.000000
311.004000	-0.000000
311.184000	-0.000000
311.365000	0.000000
311.545000	0.000000
311.726000	0.000000
311.906000	-0.000000
312.087000	0.000000
312.267000	-0.000000
312.448000	-0.000000
312.628000	-0.000000
312.809000	-0.000000
312.989000	-0.000000
313.170000	-0.000000
313.344000	-0.000000
313.518000	-0.000000
313.691000	-0.000000
313.865000	-0.000000
314.039000	-0.000000
314.213000	-0.000000
314.387000	-0.000000
314.560000	-0.000000
314.734000	-0.000000
314.908000	-0.000000
315.082000	-0.000000
315.255000	0.000000
315.429000	0.000000
315.603000	0.000000
315.777000	-0.000000
315.951000	0.000000
316.124000	-0.000000
316.298000	-0.000000
316.472000	-0.000000
316.646000	-0.000000
316.820000	-0.000000
316.993000	-0.000000
317.167000	-0.000000
317.341000	-0.000000
317.515000	-0.000000
317.688000	-0.000000
317.862000	-0.000000
318.036000	-0.000000
318.210000	-0.000000
318.384000	-0.000000
318.557000	-0.000000
318.731000	-0.000000
318.905000	-0.000000
319.079000	0.000000
319.253000	-0.000000
319.426000	0.000000
319.600000	0.000000
319.774000	-0.000000
319.948000	-0.000000
320.122000	0.000000
320.295000	0.000000
320.469000	-0.000000
320.643000	-0.000000
320.817000	-0.000000
320.990000	-0.000000
321.164000	-0.000000
321.338000	-0.000000
321.512000	-0.000000
321.686000	-0.000000
321.859000	-0.000000
322.033000	0.000000
322.207000	-0.000000
322.381000	-0.000000
322.555000	0.000000
322.728000	0.000000
322.902000	-0.000000
323.076000	-0.000000
323.250000	-0.000000
323.423000	-0.000000
323.597000	-0.000000
323.771000	-0.000000
323.945000	-0.000000
324.119000	-0.000000
324.292000	0.000000
324.466000	-0.000000
324.640000	0.000000
324.814000	0.000000
324.988000	-0.000000
325.161000	-0.000000
325.335000	-0.000000
325.509000	-0.000000
325.683000	-0.000000
325.856000	-0.000000
326.030000	-0.000000
326.204000	-0.000000
326.378000	-0.000000
326.552000	-0.000000
326.725000	-0.000000
326.899000	-0.000000
327.073000	-0.000000
327.247000	-0.000000
327.421000	0.000000
327.594000	0.000000
327.768000	-0.000000
327.942000	-0.000000
328.116000	0.000000
328.289000	0.000000
328.463000	0.000000
328.637000	0.000000
328.811000	-0.000000
328.985000	-0.000000
329.158000	-0.000000
329.332000	-0.000000
329.506000	0.000000
329.680000	-0.000000
329.854000	-0.000000
330.027000	-0.000000
330.201000	0.000000
330.375000	0.000000
330.549000	0.000000
330.723000	-0.000000
330.896000	-0.000000
331.070000	-0.000000
331.244000	-0.000000
331.418000	-0.000000
331.591000	0.000000
331.765000	-0.000000
331.939000	-0.000000
332.113000	-0.000000
332.287000	-0.000000
332.460000	0.000000
332.634000	0.000000
332.808000	-0.000000
332.982000	-0.000000
333.156000	-0.000000
333.329000	-0.000000
333.503000	-0.000000
333.677000	-0.000000
333.851000	-0.000000
334.024000	-0.000000
334.198000	-0.000000
334.372000	-0.000000
334.546000	-0.000000
334.720000	-0.000000
334.893000	-0.000000
335.067000	-0.000000
335.241000	0.000000
335.415000	-0.000000
335.589000	-0.000000
335.762000	-0.000000
335.936000	-0.000000
336.110000	-0.000000
336.284000	-0.000000
336.458000	-0.000000
336.631000	-0.000000
336.805000	-0.000000
336.979000	-0.000000
337.153000	-0.000000
337.326000	-0.000000
337.500000	-0.000000
337.674000	-0.000000
337.848000	-0.000000
338.022000	0.000000
338.195000	-0.000000
338.369000	-0.000000
338.543000	-0.000000
338.717000	-0.000000
338.891000	0.000000
339.064000	0.000000
339.238000	-0.000000
339.412000	-0.000000
339.586000	-0.000000
339.759000	-0.000000
339.933000	-0.000000
340.107000	0.000000
340.281000	0.000000
340.455000	-0.000000
340.628000	-0.000000
340.802000	-0.000000
340.976000	-0.000000
341.150000	-0.000000
341.324000	-0.000000
341.497000	-0.000000
341.671000	-0.000000
341.845000	-0.000000
342.019000	-0.000000
342.192000	-0.000000
342.366000	-0.000000
342.540000	-0.000000
342.714000	-0.000000
342.888000	-0.000000
343.061000	-0.000000
343.235000	-0.000000
343.409000	-0.000000
343.583000	-0.000000
343.757000	-0.000000
343.930000	-0.000000
344.104000	-0.000000
344.278000	0.000000
344.452000	0.000000
344.626000	-0.000000
344.799000	-0.000000
344.973000	-0.000000
345.147000	-0.000000
345.321000	-0.000000
345.494000	-0.000000
345.668000	0.000000
345.842000	0.000000
346.016000	-0.000000
346.190000	0.000000
346.363000	0.000000
346.537000	-0.000000
346.711000	-0.000000
346.885000	-0.000000
347.059000	-0.000000
347.232000	-0.000000
347.406000	0.000000
347.580000	-0.000000
347.754000	-0.000000
347.927000	0.000000
348.101000	0.000000
348.275000	-0.000000
348.449000	-0.000000
348.623000	-0.000000
348.796000	-0.000000
348.970000	0.000000
349.144000	-0.000000
349.318000	-0.000000
349.492000	-0.000000
349.665000	-0.000000
349.839000	-0.000000
350.013000	-0.000000
350.187000	-0.000000
350.361000	-0.000000
350.534000	-0.000000
350.708000	-0.000000
350.882000	-0.000000
351.056000	0.000000
351.229000	0.000000
351.403000	-0.000000
351.577000	-0.000000
351.751000	-0.000000
351.925000	-0.000000
352.098000	-0.000000
352.272000	-0.000000
352.446000	-0.000000
352.620000	-0.000000
352.794000	-0.000000
352.967000	-0.000000
353.141000	0.000000
353.315000	0.000000
353.489000	-0.000000
353.662000	-0.000000
353.836000	-0.000000
354.010000	-0.000000
354.184000	0.000000
354.358000	-0.000000
354.531000	-0.000000
354.705000	-0.000000
354.879000	-0.000000
355.053000	-0.000000
355.227000	0.000000
355.400000	-0.000000
355.574000	-0.000000
355.748000	0.000000
355.922000	-0.000000
356.095000	-0.000000
356.269000	-0.000000
356.443000	-0.000000
356.617000	-0.000000
356.791000	-0.000000
356.964000	-0.000000
357.138000	-0.000000
357.312000	-0.000000
357.486000	-0.000000
357.660000	-0.000000
357.833000	-0.000000
358.007000	-0.000000
358.181000	-0.000000
358.355000	-0.000000
358.529000	-0.000000
358.702000	-0.000000
358.876000	-0.000000
359.050000	-0.000000
359.224000	-0.000000
359.397000	0.000000
359.571000	-0.000000
359.745000	-0.000000
359.919000	-0.000000
360.093000	-0.052578
360.266000	0.030335
360.440000	0.054222
360.614000	0.107478
360.788000	0.034179
360.962000	-0.168865
361.135000	-0.087353
361.309000	-0.181352
361.483000	-0.282292
361.657000	-0.237328
361.830000	-0.231769
362.004000	-0.059954
362.178000	-0.329831
362.352000	-0.196447
362.526000	-0.071006
362.699000	-0.063905
362.873000	-0.356710
363.047000	-0.339298
363.221000	-0.312573
363.395000	-0.179982
363.568000	-0.194285
363.742000	-0.201509
363.916000	-0.213610
364.090000	-0.311143
364.263000	-0.262802
364.437000	-0.322287
364.611000	-0.078633
364.785000	-0.096305
364.959000	-0.227263
365.132000	-0.185194
365.306000	-0.233317
365.480000	-0.106689
365.656000	-0.204093
365.831000	-0.188476
366.007000	-0.214319
366.183000	-0.210431
366.358000	-0.280341
366.534000	-0.162250
366.710000	-0.330666
366.886000	-0.248892
367.061000	-0.059390
367.237000	0.080419
367.413000	-0.119992
367.588000	-0.309442
367.764000	-0.266491
367.940000	-0.300795
368.115000	-0.252882
368.291000	-0.307211
368.467000	-0.192811
368.643000	0.144486
368.818000	-0.228399
368.994000	-0.351298
369.170000	-0.246389
369.345000	-0.194568
369.521000	-0.234043
369.697000	-0.196406
369.872000	-0.253847
370.048000	-0.296669
370.224000	-0.237195
370.399000	-0.466280
370.575000	-0.356923
370.751000	-0.425319
370.927000	-0.404071
371.102000	-0.355029
371.278000	-0.305345
371.454000	-0.226835
371.629000	-0.004991
371.805000	-0.046734
371.981000	0.139285
372.156000	0.290952
372.332000	0.056686
372.508000	-0.068819
372.683000	-0.040723
372.859000	-0.100266
373.035000	-0.160059
373.211000	0.108052
373.386000	-0.048550
373.562000	-0.363424
373.738000	-0.457882
373.913000	-0.579472
374.089000	-0.426821
374.265000	0.012553
374.440000	-0.024027
374.616000	-0.052319
374.792000	-0.208304
374.968000	0.196409
375.143000	-0.023513
375.319000	-0.289085
375.495000	-0.343047
375.670000	-0.178087
375.846000	-0.087650
376.022000	-0.239117
376.197000	-0.174158
376.373000	-0.360530
376.549000	-0.409591
376.724000	-0.450020
376.900000	-0.302715
377.076000	-0.170930
377.252000	0.017620
377.427000	0.086625
377.603000	-0.222142
377.779000	-0.211930
377.954000	-0.366394
378.130000	-0.222820
378.306000	-0.141026
378.481000	-0.157395
378.657000	-0.257767
378.833000	-0.274167
379.009000	-0.143734
379.184000	-0.008270
379.360000	-0.112633
379.536000	-0.107906
379.711000	-0.145382
379.887000	-0.233979
380.063000	-0.301067
380.238000	-0.339347
380.414000	-0.043033
380.590000	-0.268077
380.765000	-0.269509
380.941000	-0.115524
381.117000	-0.075895
381.293000	-0.127822
381.468000	-0.285356
381.644000	-0.216180
381.820000	-0.118374
381.995000	0.022152
382.171000	0.199636
382.347000	0.082037
382.522000	-0.285351
382.698000	0.090098
382.874000	0.118947
383.050000	-0.302202
383.225000	0.066886
383.401000	0.281800
383.577000	-0.107883
383.752000	-0.276772
383.928000	-0.169811
384.104000	-0.093448
384.279000	-0.216251
384.455000	-0.097507
384.631000	-0.138567
384.806000	-0.352658
384.982000	-0.183016
385.158000	-0.218098
385.334000	-0.059711
385.509000	-0.129527
385.685000	-0.442254
385.861000	-0.266187
386.036000	-0.369828
386.212000	-0.518822
386.388000	-0.319541
386.563000	-0.263096
386.739000	-0.322308
386.915000	-0.535958
387.090000	-0.270925
387.266000	-0.105752
387.442000	0.000776
387.618000	-0.065222
387.793000	-0.378611
387.969000	-0.513685
388.145000	-0.386177
388.320000	-0.322341
388.496000	-0.304473
388.672000	-0.521320
388.847000	-0.133866
389.023000	-0.102781
389.199000	-0.392341
389.375000	-0.215369
389.550000	-0.307983
389.726000	-0.153458
389.902000	-0.335021
390.077000	-0.189316
390.253000	-0.149984
390.429000	-0.218989
390.604000	-0.130178
390.780000	-0.136046
390.956000	-0.263202
391.131000	-0.276677
391.307000	0.001829
391.483000	-0.186411
391.659000	-0.333790
391.834000	-0.103479
392.010000	-0.266448
392.186000	-0.322586
392.361000	-0.238237
392.537000	-0.375614
392.713000	0.069534
392.888000	0.158671
393.064000	-0.101373
393.240000	-0.207220
393.416000	-0.324051
393.591000	-0.411362
393.767000	-0.445699
393.943000	-0.370664
394.118000	-0.116451
394.294000	0.070787
394.470000	-0.028471
394.645000	0.084935
394.821000	0.188944
394.997000	-0.132278
395.172000	-0.104706
395.348000	-0.203300
395.524000	-0.489789
395.700000	-0.364199
395.875000	-0.117276
396.051000	-0.123271
396.227000	-0.212971
396.402000	-0.264955
396.578000	-0.170078
396.754000	-0.318440
396.929000	-0.295494
397.105000	-0.059665
397.281000	-0.122055
397.457000	-0.201269
397.632000	-0.217317
397.808000	-0.476713
397.984000	-0.589147
398.159000	-0.487107
398.335000	-0.312922
398.511000	0.126747
398.686000	-0.098794
398.862000	-0.318987
399.038000	-0.417748
399.213000	-0.179508
399.389000	-0.460167
399.565000	-0.172266
399.741000	-0.001306
399.916000	-0.073328
400.092000	0.180356
400.268000	-0.147441
400.443000	-0.277837
400.619000	0.024972
400.795000	-0.065247
400.970000	-0.212575
401.146000	-0.279751
401.322000	-0.004352
401.497000	0.369819
401.673000	0.072881
401.849000	-0.229266
402.025000	-0.069911
402.200000	-0.174352
402.376000	-0.250704
402.552000	0.124911
402.727000	-0.055580
402.903000	-0.347321
403.079000	-0.238160
403.254000	-0.018382
403.430000	-0.029235
403.606000	-0.094246
403.782000	-0.185960
403.957000	-0.365670
404.133000	-0.494072
404.309000	-0.309315
404.484000	-0.095273
404.660000	-0.124611
404.841000	-0.237036
405.023000	-0.000299
405.204000	-0.060335
405.385000	-0.352109
405.566000	-0.365535
405.748000	-0.215663
405.929000	0.005792
406.110000	-0.074626
406.292000	-0.214085
406.473000	-0.119917
406.654000	-0.301722
406.835000	-0.178532
407.017000	-0.220751
407.198000	-0.172914
407.379000	-0.129156
407.560000	-0.178898
407.742000	-0.226028
407.923000	-0.164287
408.104000	-0.290889
408.286000	-0.155231
408.467000	-0.146921
408.648000	-0.358052
408.829000	-0.373627
409.011000	-0.250156
409.192000	-0.428306
409.373000	-0.217990
409.555000	-0.095741
409.736000	-0.107937
409.917000	-0.214398
410.098000	-0.217902
410.280000	-0.112708
410.461000	-0.136902
410.642000	-0.154751
410.823000	0.092543
411.005000	0.035910
411.186000	-0.215701
411.367000	-0.293304
411.549000	-0.278404
411.730000	-0.015957
411.911000	0.064211
412.092000	-0.134762
412.274000	-0.165660
412.455000	-0.114642
412.636000	-0.063339
412.818000	-0.272733
412.999000	-0.376441
413.180000	-0.274455
413.361000	-0.258035
413.543000	-0.305810
413.724000	-0.376165
413.905000	-0.371370
414.087000	-0.367330
414.268000	-0.357587
414.449000	-0.364938
414.630000	-0.440145
414.812000	-0.541582
414.993000	-0.184223
415.174000	-0.044868
415.355000	-0.231263
415.537000	-0.483950
415.718000	-0.208599
415.899000	-0.292382
416.081000	-0.367681
416.262000	-0.176535
416.443000	-0.307716
416.624000	-0.268546
416.806000	-0.154408
416.987000	-0.025779
417.168000	-0.126060
417.350000	-0.313715
417.531000	-0.360334
417.712000	-0.316468
417.893000	-0.104704
418.075000	-0.027216
418.256000	-0.253666
418.437000	-0.169573
418.618000	-0.077631
418.800000	-0.000279
418.981000	-0.192858
419.162000	-0.167699
419.344000	0.008982
419.525000	-0.113855
419.706000	-0.173627
419.887000	-0.068177
420.069000	0.046178
420.250000	-0.040221
420.431000	-0.079968
420.613000	-0.150173
420.794000	-0.357534
420.975000	0.008954
421.156000	-0.186186
421.338000	-0.245181
421.519000	-0.223880
421.700000	-0.290341
421.882000	-0.261566
422.063000	-0.112115
422.244000	0.247099
422.425000	0.072650
422.607000	-0.224147
422.788000	-0.240748
422.969000	-0.313768
423.150000	-0.336287
423.332000	-0.396987
423.513000	-0.216348
423.694000	-0.178498
423.876000	-0.138164
424.057000	-0.065067
424.238000	-0.047659
424.419000	-0.041276
424.601000	-0.188467
424.782000	-0.140812
424.963000	-0.001200
425.145000	-0.106708
425.326000	-0.050038
425.507000	0.005245
425.688000	-0.113106
425.870000	-0.258405
426.051000	-0.341476
426.232000	-0.288889
426.413000	-0.290588
426.595000	-0.292757
426.776000	-0.303689
426.957000	-0.235534
427.139000	-0.153376
427.320000	-0.152202
427.501000	-0.057008
427.682000	-0.048400
427.864000	-0.071495
428.045000	0.086917
428.226000	0.038820
428.408000	-0.276500
428.589000	-0.169751
428.770000	-0.162898
428.951000	-0.242872
429.133000	-0.369062
429.314000	-0.230788
429.495000	-0.226360
429.677000	-0.184908
429.858000	-0.206258
430.039000	-0.133769
430.220000	-0.071178
430.402000	0.004314
430.583000	-0.244095
430.764000	-0.263284
430.945000	-0.116886
431.127000	-0.002097
431.308000	-0.153633
431.489000	-0.063235
431.671000	0.026296
431.852000	-0.047598
432.033000	-0.120419
432.214000	-0.056594
432.396000	-0.019298
432.577000	-0.184599
432.758000	-0.341682
432.940000	-0.264923
433.121000	-0.164709
433.302000	-0.114362
433.483000	0.053046
433.665000	0.137163
433.846000	0.025041
434.027000	-0.096391
434.208000	-0.188671
434.390000	-0.223585
434.571000	0.142964
434.752000	0.585430
434.934000	0.405254
435.115000	0.284128
435.296000	0.365139
435.477000	0.194341
435.659000	-0.047744
435.840000	0.015611
436.026000	-0.001143
436.211000	-0.132900
436.397000	-0.404540
436.582000	-0.301296
436.768000	-0.086826
436.953000	-0.179266
437.139000	-0.136182
437.325000	0.113377
437.510000	0.046576
437.696000	0.203890
437.881000	0.196659
438.067000	-0.175438
438.252000	-0.162679
438.438000	-0.181457
438.624000	-0.172877
438.809000	-0.086642
438.995000	-0.000256
439.180000	-0.070944
439.366000	-0.119364
439.551000	-0.143844
439.737000	-0.114723
439.923000	-0.070724
440.108000	-0.146943
440.294000	-0.088166
440.479000	0.022490
440.665000	0.085107
440.850000	-0.006907
441.036000	-0.008591
441.222000	-0.039620
441.407000	-0.175552
441.593000	-0.050120
441.778000	0.035409
441.964000	0.103017
442.149000	-0.199360
442.335000	-0.214867
442.521000	-0.098369
442.706000	0.044099
442.892000	-0.027287
443.077000	-0.108775
443.263000	-0.041184
443.448000	-0.084198
443.634000	-0.135644
443.820000	0.188595
444.005000	0.047543
444.191000	-0.189351
444.376000	-0.156148
444.562000	0.168360
444.747000	0.154712
444.933000	0.036777
445.119000	-0.069283
445.304000	-0.125248
445.490000	0.016594
445.675000	0.009375
445.861000	-0.163333
446.046000	-0.141332
446.232000	-0.057079
446.418000	0.007757
446.603000	-0.006636
446.789000	0.002157
446.974000	-0.030683
447.160000	-0.229334
447.345000	-0.159843
447.531000	-0.178743
447.717000	-0.015406
447.902000	0.056669
448.088000	0.139209
448.273000	0.019581
448.459000	-0.045297
448.644000	-0.108597
448.830000	-0.191569
449.016000	-0.269940
449.201000	-0.183217
449.387000	-0.067720
449.572000	0.024300
449.758000	-0.047698
449.943000	-0.188766
450.129000	-0.237719
450.315000	-0.189235
450.500000	-0.202798
450.686000	-0.133683
450.871000	-0.242094
451.057000	-0.081507
451.243000	-0.087718
451.428000	-0.105198
451.614000	-0.089990
451.799000	-0.137146
451.985000	0.069762
452.170000	0.075196
452.356000	-0.139213
452.542000	-0.140952
452.727000	0.002116
452.913000	-0.089719
453.098000	0.063339
453.284000	0.253964
453.469000	0.104235
453.655000	0.140909
453.841000	0.045956
454.026000	-0.093771
454.212000	-0.025882
454.397000	-0.022026
454.583000	-0.186298
454.768000	-0.257896
454.954000	-0.039037
455.140000	0.004416
455.325000	-0.151740
455.511000	-0.237144
455.696000	-0.193664
455.882000	-0.087043
456.067000	0.069559
456.253000	-0.070804
456.439000	-0.177023
456.624000	-0.181851
456.810000	-0.199077
456.995000	-0.169247
457.181000	-0.244233
457.366000	-0.079108
457.552000	-0.047514
457.738000	0.056146
457.923000	0.060060
458.109000	0.141382
458.294000	0.083888
458.480000	0.062553
458.665000	0.015038
458.851000	-0.107674
459.037000	-0.281058
459.222000	-0.113779
459.408000	-0.100912
459.593000	-0.063510
459.779000	0.041829
459.964000	0.193864
460.150000	0.353221
460.336000	0.217349
460.521000	0.023700
460.707000	-0.092717
460.892000	-0.198250
461.078000	0.007238
461.263000	0.095607
461.449000	-0.060611
461.635000	-0.053098
461.820000	-0.033668
462.006000	0.028640
462.191000	0.016738
462.377000	-0.149461
462.562000	0.057306
462.748000	0.208704
462.934000	-0.111436
463.119000	-0.219425
463.305000	-0.055699
463.490000	-0.112093
463.676000	-0.046102
463.861000	-0.083610
464.047000	-0.117617
464.233000	-0.034988
464.418000	-0.058106
464.604000	-0.122961
464.789000	0.016402
464.975000	0.030755
465.160000	-0.055048
465.346000	-0.018243
465.532000	-0.146806
465.717000	-0.212173
465.903000	0.037213
466.088000	0.025665
466.274000	-0.169011
466.459000	-0.205010
466.645000	0.151084
466.831000	0.140873
467.016000	0.122146
467.202000	0.016221
467.387000	-0.055794
467.573000	-0.203895
467.758000	0.049963
467.944000	-0.052484
468.130000	-0.140797
468.315000	0.002629
468.501000	0.121542
468.686000	0.004025
468.872000	0.001201
469.057000	0.066878
469.243000	-0.029914
469.429000	-0.063812
469.614000	-0.139797
469.800000	-0.197611
469.985000	-0.045893
470.171000	0.033399
470.356000	-0.069083
470.542000	0.014603
470.728000	-0.008647
470.913000	-0.063169
471.099000	0.060609
471.284000	-0.019924
471.470000	-0.100331
471.655000	-0.076370
471.841000	-0.069099
472.027000	-0.129558
472.212000	0.045275
472.398000	0.105802
472.583000	0.004006
472.769000	0.001901
472.954000	-0.001617
473.140000	-0.134616
473.326000	-0.176144
473.511000	0.106815
473.697000	0.106941
473.882000	-0.041701
474.068000	-0.118577
474.253000	-0.176296
474.439000	-0.097880
474.625000	-0.046501
474.810000	-0.034602
474.996000	0.000491
475.181000	-0.148456
475.367000	-0.014910
475.552000	0.215912
475.738000	-0.063912
475.924000	-0.120184
476.109000	-0.064731
476.295000	-0.123006
476.480000	-0.045867
476.666000	-0.078761
476.851000	-0.065401
477.037000	-0.024169
477.223000	-0.111808
477.408000	-0.209426
477.594000	-0.291292
477.779000	-0.152727
477.965000	-0.121142
478.151000	-0.241320
478.336000	-0.094492
478.522000	-0.153929
478.707000	-0.192514
478.893000	-0.100078
479.078000	-0.249086
479.264000	-0.235046
479.450000	-0.154009
479.635000	-0.052347
479.821000	-0.134308
480.006000	-0.036884
480.192000	-0.046008
480.377000	-0.058818
480.563000	-0.077807
480.749000	-0.247265
480.934000	-0.196232
481.120000	-0.083811
481.305000	-0.019152
481.491000	-0.005847
481.676000	0.032970
481.862000	0.026678
482.048000	-0.120563
482.233000	-0.058558
482.419000	-0.074895
482.604000	-0.156786
482.790000	-0.141273
482.975000	-0.090574
483.161000	0.054689
483.347000	0.030006
483.532000	-0.012862
483.718000	-0.224459
483.903000	-0.155570
484.089000	-0.117858
484.274000	-0.227396
484.460000	-0.072803
484.646000	-0.026290
484.831000	-0.165966
485.017000	-0.106383
485.202000	-0.055652
485.388000	0.168108
485.573000	0.149579
485.759000	-0.028279
485.945000	0.126125
486.130000	-0.030368
486.316000	-0.057040
486.501000	0.028480
486.687000	-0.125288
486.872000	-0.168764
487.058000	-0.007209
487.244000	-0.001611
487.429000	-0.162904
487.615000	0.022139
487.800000	0.101040
487.986000	-0.028033
488.171000	0.063238
488.357000	0.015773
488.543000	0.005331
488.728000	0.045501
488.914000	-0.002980
489.099000	-0.086782
489.285000	-0.104714
489.470000	0.066759
489.656000	0.095825
489.842000	0.069305
490.027000	0.150747
490.213000	0.002543
490.398000	-0.266851
490.584000	-0.017371
490.769000	-0.000206
490.955000	0.026526
491.141000	0.040145
491.326000	0.022285
491.512000	0.134672
491.697000	0.034466
491.883000	-0.085894
492.068000	-0.113111
492.254000	-0.096959
492.440000	-0.044467
492.625000	-0.100687
492.811000	-0.115390
492.996000	0.012653
493.182000	0.006543
493.367000	-0.169304
493.553000	-0.237010
493.739000	-0.155585
493.924000	-0.055664
494.110000	-0.033913
494.295000	-0.141355
494.481000	-0.065482
494.666000	-0.052059
494.852000	0.116794
495.038000	-0.018990
495.223000	-0.140652
495.409000	-0.092721
495.594000	-0.131824
495.780000	-0.073209
495.965000	-0.144353
496.151000	0.022568
496.337000	0.082091
496.522000	-0.110164
496.708000	-0.048359
496.893000	0.079390
497.079000	-0.070250
497.264000	-0.109402
497.450000	-0.054822
497.636000	0.029803
497.821000	-0.133200
498.007000	0.102214
498.192000	0.124621
498.378000	-0.048841
498.563000	-0.105512
498.749000	-0.033561
498.935000	-0.033510
499.120000	0.023061
499.306000	-0.129315
499.491000	-0.159497
499.677000	-0.069871
499.862000	0.002464
500.048000	0.059850
500.234000	-0.048784
500.419000	-0.086211
500.605000	0.051186
500.790000	-0.035530
500.976000	-0.173129
501.161000	-0.236495
501.347000	-0.080297
501.533000	0.027851
501.718000	-0.048928
501.904000	-0.112603
502.089000	-0.003551
502.275000	0.061285
502.460000	-0.056840
502.646000	-0.040227
502.832000	-0.007542
503.017000	-0.014246
503.203000	-0.187734
503.388000	-0.250622
503.574000	-0.045065
503.759000	0.015196
503.945000	0.059480
504.131000	-0.033730
504.316000	-0.094024
504.502000	-0.067243
504.687000	-0.092294
504.873000	-0.199959
505.058000	-0.230869
505.244000	-0.238881
505.430000	-0.166582
505.615000	-0.091929
505.801000	-0.042770
505.986000	-0.189151
506.172000	-0.117274
506.358000	-0.088543
506.543000	-0.100627
506.729000	0.080726
506.914000	0.027508
507.100000	0.059477
507.285000	-0.113653
507.471000	-0.181384
507.657000	0.077824
507.842000	-0.065927
508.028000	-0.225306
508.213000	-0.181687
508.399000	-0.129617
508.584000	-0.013840
508.770000	-0.120670
508.956000	-0.171168
509.141000	-0.095477
509.327000	-0.040438
509.512000	-0.097334
509.698000	-0.081155
509.883000	-0.016576
510.069000	-0.108277
510.255000	-0.086427
510.440000	-0.039259
510.626000	-0.105663
510.811000	-0.172336
510.997000	-0.073600
511.182000	0.179293
511.368000	0.070437
511.554000	-0.269218
511.739000	-0.194290
511.925000	0.015578
512.110000	-0.001577
512.296000	0.065776
512.481000	0.071188
512.667000	0.029344
512.853000	-0.152795
513.038000	-0.106205
513.224000	-0.138589
513.409000	-0.228066
513.595000	-0.107080
513.780000	-0.248992
513.966000	-0.169329
514.152000	-0.155599
514.337000	-0.214129
514.523000	-0.165307
514.708000	-0.097302
514.894000	-0.072021
515.079000	-0.172163
515.265000	-0.157570
515.451000	-0.130017
515.636000	-0.207198
515.822000	-0.116267
516.007000	-0.210944
516.193000	-0.081658
516.378000	0.018461
516.564000	-0.060965
516.750000	-0.085851
516.935000	-0.021629
517.121000	0.006011
517.306000	0.091073
517.492000	0.036498
517.677000	-0.177995
517.863000	-0.204320
518.049000	-0.077033
518.234000	-0.139219
518.420000	-0.045218
518.605000	0.143082
518.791000	0.116720
518.976000	-0.030772
519.162000	-0.136104
519.348000	-0.027254
519.533000	-0.059069
519.719000	0.065645
519.904000	-0.006454
520.090000	-0.006441
520.275000	0.178594
520.461000	0.087981
520.647000	-0.109209
520.832000	-0.264050
521.018000	-0.144632
521.203000	-0.110247
521.389000	-0.270611
521.574000	-0.194738
521.760000	-0.035561
521.946000	-0.049575
522.131000	-0.167921
522.317000	-0.144038
522.502000	-0.161339
522.688000	-0.075946
522.873000	-0.111488
523.059000	-0.119222
523.245000	-0.121197
523.430000	-0.227176
523.616000	-0.185351
523.801000	-0.258079
523.987000	-0.195704
524.172000	-0.070022
524.358000	-0.011384
524.544000	-0.057386
524.729000	0.010918
524.915000	0.036737
525.100000	-0.076859
525.286000	-0.026728
525.471000	-0.040100
525.657000	-0.047146
525.843000	-0.221842
526.028000	-0.053552
526.214000	-0.109660
526.399000	-0.212002
526.585000	-0.273977
526.770000	-0.296462
526.956000	-0.168107
527.142000	-0.225912
527.327000	-0.098364
527.513000	-0.180498
527.698000	-0.180700
527.884000	-0.142287
528.069000	-0.210768
528.255000	-0.088947
528.441000	-0.166522
528.626000	-0.139230
528.812000	0.079567
528.997000	-0.053033
529.183000	-0.172872
529.368000	-0.127085
529.554000	-0.120234
529.740000	-0.100394
529.925000	-0.148712
530.111000	-0.139495
530.296000	-0.074657
530.482000	0.021517
530.667000	-0.076320
530.853000	-0.053297
531.039000	-0.105151
531.224000	-0.038316
531.410000	0.059104
531.595000	-0.033208
531.781000	0.001246
531.967000	-0.130719
532.152000	0.003476
532.338000	-0.106934
532.523000	-0.233354
532.709000	-0.232726
532.894000	-0.122290
533.080000	-0.086437
533.266000	-0.236550
533.451000	-0.259267
533.637000	-0.194383
533.822000	-0.041944
534.008000	-0.176041
534.193000	-0.140944
534.379000	-0.039160
534.565000	-0.137423
534.750000	-0.178704
534.936000	0.071583
535.121000	-0.093910
535.307000	-0.080889
535.492000	-0.049947
535.678000	-0.244040
535.864000	-0.107821
536.049000	0.122976
536.235000	-0.084842
536.420000	-0.068550
536.606000	-0.106983
536.791000	-0.223009
536.977000	-0.219550
537.163000	0.031210
537.348000	0.027336
537.534000	0.027520
537.719000	-0.152513
537.905000	-0.251727
538.090000	0.000578
538.276000	0.056055
538.462000	0.037132
538.647000	0.083155
538.833000	-0.019540
539.018000	0.064623
539.204000	0.014923
539.389000	-0.143718
539.575000	0.169667
539.761000	0.126113
539.946000	-0.151243
540.132000	-0.023511
540.317000	-0.120312
540.503000	-0.030554
540.688000	0.027611
540.874000	0.288918
541.060000	0.433801
541.245000	0.258589
541.431000	0.090458
541.616000	0.132216
541.802000	0.122606
541.987000	0.215151
542.173000	0.229321
542.359000	0.159208
542.544000	0.269291
542.730000	0.106020
542.915000	0.104485
543.101000	0.274757
543.286000	0.107456
543.472000	0.015085
543.658000	0.113629
543.843000	0.116628
544.029000	0.285187
544.214000	0.168128
544.400000	-0.126944
544.585000	0.050871
544.771000	0.155495
544.957000	0.331220
545.142000	0.417881
545.328000	0.491775
545.513000	0.534234
545.699000	0.454950
545.884000	0.304960
546.070000	0.238269
546.261000	0.195353
546.451000	0.016540
546.642000	-0.206221
546.833000	-0.063108
547.023000	-0.167155
547.214000	-0.163124
547.405000	0.018540
547.595000	0.290895
547.786000	0.204988
547.977000	-0.029689
548.167000	-0.180657
548.358000	-0.119476
548.549000	0.239927
548.740000	0.047564
548.930000	-0.266434
549.121000	-0.145265
549.312000	-0.198829
549.502000	-0.280463
549.693000	-0.160535
549.884000	-0.052433
550.074000	0.047192
550.265000	-0.179016
550.456000	-0.074293
550.646000	0.008491
550.837000	-0.029583
551.028000	-0.153784
551.218000	-0.053072
551.409000	-0.162269
551.600000	-0.118195
551.790000	-0.013119
551.981000	-0.238987
552.172000	-0.202870
552.362000	0.147864
552.553000	0.187333
552.744000	-0.002282
552.934000	-0.050939
553.125000	-0.124639
553.316000	-0.194393
553.506000	0.105427
553.697000	-0.038343
553.888000	0.019687
554.079000	0.164725
554.269000	0.100816
554.460000	-0.210070
554.651000	-0.224353
554.841000	-0.358381
555.032000	-0.277332
555.223000	-0.180877
555.413000	-0.020388
555.604000	-0.055775
555.795000	-0.151989
555.985000	-0.037797
556.176000	-0.130783
556.367000	-0.404804
556.557000	-0.290487
556.748000	-0.204642
556.939000	-0.230717
557.129000	-0.306586
557.320000	-0.145422
557.511000	-0.180603
557.701000	-0.171216
557.892000	-0.124180
558.083000	0.068666
558.273000	-0.028709
558.464000	-0.217411
558.655000	-0.186815
558.845000	-0.112487
559.036000	-0.050873
559.227000	-0.094432
559.418000	-0.024640
559.608000	0.024022
559.799000	-0.262497
559.990000	-0.272178
560.180000	-0.213047
560.371000	-0.395135
560.562000	-0.328995
560.752000	-0.134524
560.943000	-0.281994
561.134000	-0.475576
561.324000	-0.253743
561.515000	0.033830
561.706000	-0.123913
561.896000	-0.339244
562.087000	-0.234689
562.278000	-0.263634
562.468000	-0.400205
562.659000	-0.312152
562.850000	0.033706
563.040000	0.084714
563.231000	-0.359642
563.422000	-0.232754
563.612000	-0.327893
563.803000	-0.204672
563.994000	-0.262228
564.185000	-0.351924
564.375000	-0.134169
564.566000	-0.150844
564.757000	-0.185033
564.947000	-0.271118
565.138000	-0.106083
565.329000	-0.184802
565.519000	-0.366159
565.710000	-0.281634
565.901000	-0.085250
566.091000	0.025369
566.282000	-0.162794
566.473000	-0.142654
566.663000	-0.139546
566.854000	-0.307973
567.045000	-0.230209
567.235000	-0.155166
567.426000	-0.106424
567.617000	-0.076936
567.807000	-0.133264
567.998000	-0.110714
568.189000	-0.230767
568.379000	-0.145180
568.570000	-0.062988
568.761000	-0.143710
568.951000	-0.162702
569.142000	-0.205262
569.333000	-0.256261
569.524000	-0.350212
569.714000	-0.415365
569.905000	-0.500780
570.096000	-0.146675
570.286000	-0.045195
570.477000	0.113109
570.668000	-0.070734
570.858000	-0.141176
571.049000	-0.237439
571.240000	-0.306843
571.430000	-0.109288
571.621000	-0.188237
571.812000	-0.107516
572.002000	-0.090745
572.193000	-0.236417
572.384000	-0.137577
572.574000	-0.105689
572.765000	-0.159983
572.956000	-0.221289
573.146000	-0.064996
573.337000	-0.170636
573.528000	-0.143242
573.718000	-0.000280
573.909000	0.010888
574.100000	-0.080026
574.290000	-0.192540
574.481000	-0.178275
574.672000	-0.192329
574.863000	-0.072928
575.053000	-0.153565
575.244000	-0.076280
575.435000	-0.226241
575.625000	-0.236172
575.816000	-0.234970
576.007000	-0.133087
576.197000	-0.099585
576.388000	-0.096475
576.579000	-0.011159
576.769000	-0.014771
576.960000	-0.272836
577.155000	-0.411149
577.350000	-0.158107
577.545000	-0.002971
577.740000	-0.173501
577.935000	0.038247
578.130000	0.029313
578.326000	-0.216539
578.521000	-0.019920
578.716000	0.011292
578.911000	-0.209875
579.106000	-0.078131
579.301000	0.015614
579.496000	-0.142720
579.691000	-0.396516
579.886000	-0.198311
580.081000	-0.095634
580.276000	-0.077071
580.471000	-0.169561
580.666000	-0.276420
580.861000	-0.299835
581.057000	-0.281730
581.252000	-0.154539
581.447000	-0.234203
581.642000	-0.225014
581.837000	-0.222101
582.032000	-0.151203
582.227000	0.074774
582.422000	0.019541
582.617000	-0.162218
582.812000	-0.272915
583.007000	-0.239451
583.202000	-0.314048
583.397000	-0.079278
583.592000	0.123586
583.788000	-0.127927
583.983000	-0.143010
584.178000	-0.041579
584.373000	-0.197010
584.568000	-0.222609
584.763000	-0.273219
584.958000	-0.331149
585.153000	-0.221146
585.348000	-0.208434
585.543000	-0.055712
585.738000	-0.090124
585.933000	-0.299340
586.128000	-0.074998
586.324000	-0.068457
586.519000	-0.075139
586.714000	0.019115
586.909000	0.092542
587.104000	0.070844
587.299000	-0.060175
587.494000	-0.051665
587.689000	-0.095681
587.884000	-0.095122
588.079000	-0.161201
588.274000	-0.127552
588.469000	-0.128991
588.664000	-0.040113
588.859000	-0.044418
589.055000	-0.062325
589.250000	-0.103187
589.445000	-0.237029
589.640000	-0.217615
589.835000	0.044174
590.030000	0.100537
590.225000	0.085177
590.420000	-0.095219
590.615000	-0.182645
590.810000	-0.148228
591.005000	-0.135952
591.200000	-0.217631
591.395000	-0.250242
591.591000	-0.140899
591.786000	-0.076517
591.981000	-0.160964
592.176000	-0.068289
592.371000	-0.030410
592.566000	-0.100978
592.761000	0.031589
592.956000	0.016985
593.151000	0.079102
593.346000	-0.046105
593.541000	-0.036552
593.736000	-0.066135
593.931000	-0.181494
594.126000	-0.124446
594.322000	-0.125310
594.517000	-0.211238
594.712000	-0.322512
594.907000	-0.316699
595.102000	-0.177455
595.297000	-0.058706
595.492000	0.003234
595.687000	-0.187709
595.882000	-0.267552
596.077000	-0.120557
596.272000	0.050654
596.467000	0.042767
596.662000	-0.110142
596.857000	-0.097343
597.053000	-0.078943
597.248000	-0.085094
597.443000	-0.041851
597.638000	-0.086299
597.833000	-0.286134
598.028000	-0.131492
598.223000	-0.020700
598.418000	-0.102615
598.613000	-0.188028
598.808000	-0.099118
599.003000	-0.099225
599.198000	-0.247528
599.393000	-0.204620
599.589000	-0.101380
599.784000	-0.275162
599.979000	-0.183204
600.174000	0.031138
600.369000	-0.205081
600.564000	-0.145983
600.759000	0.115896
600.954000	0.231672
601.149000	0.052933
601.344000	-0.272877
601.539000	-0.123178
601.734000	-0.191610
601.929000	-0.397486
602.124000	-0.319034
602.320000	-0.083729
602.515000	0.165762
602.710000	0.077006
602.905000	-0.262075
603.100000	-0.306124
603.295000	-0.213035
603.490000	-0.139786
603.685000	-0.095122
603.880000	-0.060539
604.075000	-0.237369
604.270000	-0.249797
604.465000	-0.161608
604.660000	-0.358063
604.856000	-0.213873
605.051000	-0.048037
605.246000	-0.089296
605.441000	-0.308861
605.636000	-0.337428
605.831000	-0.197233
606.026000	-0.279949
606.221000	-0.325473
606.416000	-0.162621
606.611000	0.017266
606.806000	0.015406
607.001000	0.165062
607.196000	-0.041882
607.391000	-0.244697
607.587000	-0.071712
607.782000	-0.088527
607.977000	-0.266252
608.172000	0.089896
608.367000	0.101050
608.562000	-0.122303
608.757000	-0.138093
608.952000	-0.179482
609.147000	0.211326
609.342000	0.122025
609.537000	-0.095686
609.732000	-0.064922
609.927000	-0.100322
610.122000	0.023133
610.318000	0.367213
610.513000	0.458387
610.708000	0.294562
610.903000	0.375735
611.098000	0.448134
611.293000	0.399256
611.488000	0.401195
611.683000	0.340533
611.878000	0.282086
612.073000	0.287834
612.268000	0.240863
612.463000	0.290688
612.658000	0.239511
612.854000	0.182076
613.049000	0.110891
613.244000	0.224096
613.439000	0.252717
613.634000	-0.039380
613.829000	0.097953
614.024000	-0.014627
614.219000	-0.060509
614.414000	0.162324
614.609000	-0.022320
614.804000	-0.153601
614.999000	-0.150589
615.194000	-0.108748
615.389000	-0.073321
615.585000	-0.246744
615.780000	-0.064845
615.975000	-0.105523
616.170000	-0.115260
616.365000	0.100291
616.560000	0.242691
616.755000	0.102634
616.950000	-0.014863
617.145000	0.098884
617.340000	-0.047007
617.535000	-0.325348
617.730000	-0.106518
617.925000	-0.259944
618.120000	-0.279555
618.316000	0.047656
618.511000	-0.060042
618.706000	-0.237182
618.901000	-0.120151
619.096000	-0.002268
619.291000	-0.066311
619.486000	-0.030938
619.681000	-0.338605
619.876000	-0.366145
620.071000	-0.229895
620.266000	0.019543
620.461000	0.111011
620.656000	0.032559
620.852000	-0.029137
621.047000	-0.140856
621.242000	-0.223891
621.437000	0.079744
621.632000	0.184195
621.827000	0.006724
622.022000	-0.270477
622.217000	-0.125181
622.412000	0.035992
622.607000	0.025935
622.802000	-0.195171
622.997000	-0.234352
623.192000	-0.143152
623.387000	-0.092517
623.583000	-0.302873
623.778000	0.007840
623.973000	0.057767
624.168000	0.015012
624.363000	0.046598
624.558000	0.093662
624.753000	-0.220612
624.948000	0.030490
625.143000	0.046949
625.338000	-0.067198
625.533000	-0.184569
625.728000	-0.085841
625.923000	0.121368
626.119000	-0.007545
626.314000	-0.237222
626.509000	-0.275309
626.704000	-0.210487
626.899000	-0.180469
627.094000	-0.244331
627.289000	-0.235486
627.484000	-0.160608
627.679000	-0.164946
627.874000	-0.175659
628.069000	0.170027
628.264000	0.053263
628.459000	-0.083504
628.654000	-0.094119
628.850000	-0.237234
629.045000	-0.131614
629.240000	-0.178381
629.435000	-0.232738
629.630000	-0.094951
629.825000	-0.114086
630.020000	-0.088918
630.215000	-0.267034
630.410000	-0.203827
630.605000	-0.195418
630.800000	-0.119291
630.995000	0.000752
631.190000	0.245121
631.385000	0.049226
631.581000	-0.122250
631.776000	-0.043511
631.971000	-0.181216
632.166000	-0.077290
632.361000	-0.233607
632.556000	-0.156789
632.751000	-0.013408
632.946000	-0.151895
633.141000	-0.246418
633.336000	-0.202986
633.531000	-0.109113
633.726000	-0.105686
633.921000	-0.247932
634.117000	-0.415018
634.312000	-0.525835
634.507000	-0.401517
634.702000	-0.305912
634.897000	-0.276412
635.092000	-0.142628
635.287000	-0.058258
635.482000	-0.154460
635.677000	-0.052844
635.872000	0.007486
636.067000	0.081417
636.262000	-0.117262
636.457000	-0.405674
636.652000	-0.379366
636.848000	-0.361091
637.043000	-0.305034
637.238000	-0.294518
637.433000	-0.401179
637.628000	-0.293597
637.823000	-0.092189
638.018000	-0.045786
638.213000	-0.182527
638.408000	-0.269315
638.603000	-0.345031
638.798000	-0.377536
638.993000	-0.260305
639.188000	-0.270706
639.383000	-0.313358
639.579000	0.037453
639.774000	-0.172629
639.969000	-0.315183
640.164000	-0.345847
640.359000	-0.331232
640.554000	-0.113478
640.749000	-0.120736
640.944000	-0.103597
641.139000	-0.097597
641.334000	-0.274064
641.529000	-0.651137
641.724000	-0.480896
641.919000	-0.311673
642.115000	-0.026064
642.310000	-0.005019
642.505000	-0.124023
642.700000	-0.161651
642.895000	-0.268832
643.090000	-0.089426
643.285000	0.089907
643.480000	-0.026199
643.675000	-0.037980
643.870000	0.280041
644.065000	0.122410
644.260000	-0.242277
644.455000	-0.156420
644.650000	-0.214885
644.846000	-0.179332
645.041000	-0.394884
645.236000	-0.527675
645.431000	-0.451125
645.626000	-0.618452
645.821000	-0.400774
646.016000	-0.262522
646.211000	0.153655
646.406000	0.011603
646.601000	-0.042183
646.796000	-0.198682
646.991000	-0.430526
647.186000	-0.329687
647.381000	-0.118994
647.577000	-0.072328
647.772000	0.033227
647.967000	-0.071272
648.162000	-0.129066
648.357000	-0.144898
648.552000	0.022515
648.747000	-0.037707
648.942000	-0.016033
649.137000	-0.068075
649.332000	-0.265512
649.527000	-0.254508
649.722000	-0.035447
649.917000	0.099131
650.113000	-0.180935
650.308000	-0.340175
650.503000	-0.272067
650.698000	-0.115929
650.893000	-0.196355
651.088000	-0.058835
651.283000	-0.015016
651.478000	-0.300681
651.673000	-0.062563
651.868000	-0.245989
652.063000	-0.026080
652.258000	0.136873
652.453000	0.321049
652.648000	-0.028514
652.844000	-0.171823
653.039000	-0.075200
653.234000	-0.440910
653.429000	-0.574465
653.624000	-0.366437
653.819000	-0.070543
654.014000	-0.140744
654.209000	-0.307784
654.404000	-0.176733
654.599000	-0.298356
654.794000	-0.285498
654.989000	0.007056
655.184000	-0.074737
655.380000	-0.381806
655.575000	-0.364509
655.770000	-0.344024
655.965000	-0.241112
656.160000	-0.279729
656.355000	-0.110851
656.550000	-0.126133
656.745000	-0.113759
656.940000	-0.221095
657.135000	-0.107591
657.330000	-0.122601
657.525000	-0.348595
657.720000	-0.120403
657.915000	0.012117
658.111000	-0.141581
658.306000	0.053401
658.501000	-0.121963
658.696000	-0.332415
658.891000	-0.081857
659.086000	-0.193346
659.281000	-0.132162
659.476000	-0.330936
659.671000	-0.701650
659.866000	-0.412776
660.061000	-0.102288
660.256000	0.005916
660.451000	-0.108725
660.646000	-0.308188
660.842000	-0.173406
661.037000	-0.328875
661.232000	-0.360978
661.427000	-0.221623
661.622000	-0.304360
661.817000	-0.389116
662.012000	-0.198410
662.207000	-0.363684
662.402000	-0.423180
662.597000	-0.208103
662.792000	-0.538941
662.987000	-0.528322
663.182000	-0.217104
663.378000	-0.194313
663.573000	-0.546511
663.768000	-0.554312
663.963000	-0.344093
664.158000	-0.300375
664.353000	0.032942
664.548000	0.185410
664.743000	-0.045282
664.938000	-0.332593
665.133000	-0.348530
665.328000	0.011193
665.523000	-0.060974
665.718000	-0.209244
665.913000	-0.252167
666.109000	-0.239791
666.304000	-0.018499
666.499000	-0.145185
666.694000	-0.097627
666.889000	0.197955
667.084000	-0.061524
667.279000	-0.160283
667.474000	-0.192890
667.669000	-0.130426
667.864000	-0.180052
668.059000	-0.146426
668.254000	-0.159667
668.449000	-0.315382
668.644000	-0.214938
668.840000	0.057094
669.035000	-0.282997
669.230000	-0.555708
669.425000	-0.144900
669.620000	-0.295952
669.815000	-0.384034
670.010000	-0.369191
670.205000	-0.195492
670.400000	-0.155668
670.595000	-0.140303
670.790000	-0.272657
670.985000	-0.209437
671.180000	0.036689
671.376000	-0.327843
671.571000	-0.414930
671.766000	-0.379935
671.961000	-0.434700
672.156000	-0.456583
672.351000	-0.317935
672.546000	-0.329300
672.741000	-0.177831
672.936000	-0.136654
673.131000	0.345174
673.326000	0.002283
673.521000	-0.382194
673.716000	-0.469565
673.911000	-0.615188
674.107000	-0.035447
674.302000	0.195160
674.497000	-0.124630
674.692000	-0.400368
674.887000	-0.416648
675.082000	-0.248900
675.277000	-0.064318
675.472000	-0.169244
675.667000	-0.308596
675.862000	-0.341498
676.057000	-0.277559
676.252000	-0.187848
676.447000	-0.247283
676.643000	-0.068930
676.838000	0.109427
677.033000	-0.164028
677.228000	0.156720
677.423000	0.107164
677.618000	-0.337850
677.813000	-0.492450
678.008000	-0.234746
678.203000	-0.117011
678.398000	-0.356401
678.593000	-0.213246
678.788000	-0.092525
678.983000	-0.337729
679.178000	-0.243069
679.374000	-0.366321
679.569000	-0.225753
679.764000	-0.296609
679.959000	-0.494314
680.154000	-0.493006
680.349000	-0.616169
680.544000	-0.516617
680.739000	-0.387068
680.934000	-0.491985
681.129000	-0.446618
681.324000	-0.491135
681.519000	-0.333340
681.714000	-0.373307
681.909000	-0.401283
682.105000	-0.534982
682.300000	-0.186461
682.495000	-0.057640
682.690000	-0.039135
682.885000	-0.136725
683.080000	-0.354342
683.275000	-0.327172
683.470000	0.026949
683.665000	0.233543
683.860000	0.291818
684.055000	0.012594
684.250000	-0.352550
684.445000	-0.360669
684.641000	0.028586
684.836000	-0.193751
685.031000	-0.226543
685.226000	-0.213703
685.421000	-0.007764
685.616000	-0.255318
685.811000	-0.339626
686.006000	-0.032741
686.201000	-0.125405
686.396000	-0.502213
686.591000	-0.457380
686.786000	-0.030066
686.981000	-0.167825
687.176000	-0.160809
687.372000	-0.218964
687.567000	0.088785
687.762000	-0.043695
687.957000	-0.179395
688.152000	-0.287375
688.347000	-0.190581
688.542000	-0.459702
688.737000	-0.812036
688.932000	-0.828443
689.127000	-0.387185
689.322000	-0.121180
689.517000	-0.326347
689.712000	-0.480426
689.908000	-0.377849
690.103000	-0.405916
690.298000	-0.289034
690.493000	-0.301973
690.688000	-0.528000
690.883000	-0.346224
691.078000	0.019437
691.273000	0.053112
691.468000	-0.189093
691.663000	-0.209824
691.858000	-0.058970
692.053000	-0.100538
692.248000	-0.005086
692.443000	-0.055943
692.639000	-0.184240
692.834000	-0.022139
693.029000	0.495138
693.224000	0.340321
693.419000	-0.243446
693.614000	-0.301645
693.809000	-0.370578
694.004000	-0.504268
694.199000	-0.493187
694.394000	-0.209213
694.589000	-0.522095
694.784000	-0.519479
694.979000	-0.283576
695.174000	-0.284294
695.370000	0.213608
695.565000	-0.044656
695.760000	-0.346836
695.955000	0.031232
696.150000	0.127981
696.345000	-0.334805
696.540000	-0.134444
696.740000	-0.250691
696.940000	-0.054706
697.140000	0.029979
697.340000	-0.244582
697.539000	-0.042258
697.739000	-0.159616
697.939000	-0.146859
698.139000	-0.506087
698.339000	-0.834467
698.539000	-0.551308
698.739000	-0.554409
698.939000	-0.457601
699.138000	-0.525164
699.338000	0.186258
699.538000	0.253800
699.738000	-0.227733
699.938000	-0.332642
700.138000	-0.408599
700.338000	-0.498539
700.538000	-0.242721
700.737000	-0.183340
700.937000	-0.662371
701.137000	-0.702867
701.337000	-0.132772
701.537000	-0.043581
701.737000	-0.218956
701.937000	-0.318977
702.137000	-0.284157
702.337000	-0.420886
702.536000	-0.549950
702.736000	-0.542277
702.936000	-0.681643
703.136000	-0.117710
703.336000	-0.105966
703.536000	-0.314415
703.736000	-0.650229
703.936000	-0.606889
704.135000	-0.554539
704.335000	-0.209271
704.535000	-0.501900
704.735000	-0.683235
704.935000	-0.123608
705.135000	-0.168268
705.335000	-0.406860
705.535000	-0.145123
705.735000	-0.105974
705.934000	-0.150124
706.134000	-0.408687
706.334000	-0.419885
706.534000	-0.483656
706.734000	-0.451577
706.934000	-0.540393
707.134000	-0.571294
707.334000	-0.301925
707.533000	-0.269884
707.733000	-0.333124
707.933000	-0.443294
708.133000	-0.118788
708.333000	-0.024639
708.533000	-0.261178
708.733000	0.001208
708.933000	-0.190542
709.132000	-0.360535
709.332000	-0.347275
709.532000	-0.450560
709.732000	-0.276396
709.932000	-0.741430
710.132000	-0.721846
710.332000	-0.843128
710.532000	-0.277013
710.732000	-0.098171
710.931000	-0.387914
711.131000	-0.420963
711.331000	-0.231944
711.531000	-0.397416
711.731000	-0.396656
711.931000	-0.250944
712.131000	-0.248882
712.331000	-0.185532
712.530000	-0.290894
712.730000	-0.510449
712.930000	-0.307437
713.130000	-0.358075
713.330000	-0.493205
713.530000	-0.286909
713.730000	0.357154
713.930000	-0.025439
714.129000	-0.466139
714.329000	-0.572822
714.529000	-0.283788
714.729000	-0.020172
714.929000	-0.155847
715.129000	-0.458303
715.329000	-0.335231
715.529000	-0.340199
715.729000	0.227270
715.928000	-0.018522
716.128000	-0.295639
716.328000	-0.181014
716.528000	-0.318536
716.728000	-0.192108
716.928000	-0.419859
717.128000	-0.306676
717.328000	-0.245048
717.527000	-0.410359
717.727000	-0.399868
717.927000	-0.306465
718.127000	-0.381342
718.327000	-0.823753
718.527000	-0.761311
718.727000	-0.290891
718.927000	-0.419475
719.127000	-0.692997
719.326000	-0.417624
719.526000	-0.084851
719.726000	-0.277860
719.926000	-0.702867
720.126000	-0.616330
720.326000	-0.422684
720.526000	-0.514948
720.726000	-0.342672
720.925000	-0.113433
721.125000	-0.576325
721.325000	-0.301077
721.525000	-0.266475
721.725000	-0.498974
721.925000	-0.491055
722.125000	-0.506016
722.325000	-0.011749
722.524000	-0.290507
722.724000	-0.717899
722.924000	-0.804005
723.124000	-0.563109
723.324000	-0.195780
723.524000	-0.148988
723.724000	-0.713268
723.924000	-0.515780
724.124000	-0.264869
724.323000	-0.121548
724.523000	-0.236652
724.723000	0.211419
724.923000	0.007005
725.123000	-0.144611
725.323000	-0.030948
725.523000	-0.221238
725.723000	-0.447143
725.922000	-0.470477
726.122000	-0.377681
726.322000	-0.478005
726.522000	-0.499501
726.722000	0.079622
726.922000	-0.212371
727.122000	-0.276296
727.322000	0.056940
727.521000	-0.138952
727.721000	-0.368198
727.921000	-0.312396
728.121000	-0.287302
728.321000	-0.625208
728.521000	-0.468319
728.721000	-0.298739
728.921000	0.020709
729.121000	0.648849
729.320000	0.090633
729.520000	-0.334421
729.720000	-0.541050
729.920000	-0.465491
730.120000	-0.300642
730.320000	-0.260361
730.520000	-0.510580
730.720000	-0.465145
730.919000	-0.502294
731.119000	-0.194963
731.319000	-0.600398
731.519000	-0.696666
731.719000	-0.307568
731.919000	-0.479023
732.119000	-0.925518
732.319000	-0.888857
732.519000	-0.378654
732.718000	-0.686355
732.918000	-0.591729
733.118000	-0.380423
733.318000	-0.072395
733.518000	-0.337669
733.718000	-0.865419
733.918000	-0.843942
734.118000	-0.597925
734.317000	-0.345613
734.517000	-0.569482
734.717000	-0.487690
734.917000	-0.073228
735.117000	-0.143987
735.317000	-0.186348
735.517000	0.086443
735.717000	0.261315
735.916000	-0.449400
736.116000	-0.566690
736.316000	-0.400743
736.516000	-0.312862
736.716000	-0.335481
736.916000	-0.761242
737.116000	-0.521846
737.316000	0.061178
737.516000	-0.056345
737.715000	-0.132795
737.915000	-0.661798
738.115000	-0.668045
738.315000	-0.390586
738.515000	-0.666336
738.715000	-0.467902
738.915000	0.026528
739.115000	-0.431643
739.314000	-0.435434
739.514000	-0.025805
739.714000	0.045640
739.914000	-0.059695
740.114000	-0.317632
740.314000	-0.125413
740.514000	0.230241
740.714000	-0.474581
740.913000	-0.815818
741.113000	-0.663610
741.313000	-0.309742
741.513000	-0.340542
741.713000	-0.275009
741.913000	-0.235390
742.113000	-0.310294
742.313000	-0.802280
742.513000	-0.457918
742.712000	-0.340385
742.912000	-0.671643
743.112000	-0.506684
743.312000	-0.796857
743.512000	-0.624229
743.712000	-0.420623
743.912000	-0.958063
744.112000	-1.033213
744.311000	-1.027213
744.511000	-0.610660
744.711000	-0.203766
744.911000	-0.573264
745.111000	-0.624887
745.311000	-0.198051
745.511000	-0.491481
745.711000	-0.636437
745.911000	-0.387967
746.110000	-0.788998
746.310000	-0.952699
746.510000	-0.651122
746.710000	-0.213994
746.910000	-0.095068
747.110000	-0.642238
747.310000	-0.932006
747.510000	-0.675239
747.709000	-0.365418
747.909000	-0.366355
748.109000	-0.073610
748.309000	-0.366061
748.509000	-0.670830
748.709000	-0.710046
748.909000	-0.484922
749.109000	-0.576933
749.308000	-0.215271
749.508000	-0.380482
749.708000	-0.382926
749.908000	-0.114231
750.108000	-0.109923
750.308000	-0.854235
750.508000	-0.040448
750.708000	-0.512901
750.908000	-0.992159
751.107000	-0.303996
751.307000	0.304576
751.507000	-0.262474
751.707000	-0.229167
751.907000	-0.326533
752.107000	-0.213924
752.307000	-0.663898
752.507000	-0.503577
752.706000	-0.612789
752.906000	0.390698
753.106000	-0.438994
753.306000	-1.012089
753.506000	-0.032038
753.706000	-0.454492
753.906000	-0.232471
754.106000	-0.044235
754.305000	-0.141107
754.505000	-0.088089
754.705000	-0.300847
754.905000	-0.399036
755.105000	-0.130436
755.305000	-0.890306
755.505000	-0.691342
755.705000	-0.303409
755.905000	-0.333939
756.104000	-0.823341
756.304000	-1.234242
756.504000	-1.447758
756.704000	-0.337561
756.904000	-0.105474
757.104000	-0.516170
757.304000	-0.544079
757.504000	-0.028336
757.703000	-0.366792
757.903000	-0.076149
758.103000	0.180563
758.303000	-0.222992
758.503000	-0.431210
758.703000	-0.589570
758.903000	-0.787884
759.103000	-0.347037
759.303000	-0.264277
759.502000	-0.398566
759.702000	-0.141869
759.902000	-0.423655
760.102000	-0.393652
760.302000	-0.506495
760.502000	-0.194702
760.702000	-0.073280
760.902000	-0.348493
761.101000	-0.706016
761.301000	-1.020083
761.501000	-0.736166
761.701000	-0.836940
761.901000	-0.562879
762.101000	-0.256114
762.301000	-0.400891
762.501000	-0.698909
762.700000	-0.792110
762.900000	-0.784451
763.100000	-0.464633
763.300000	-0.224350
763.500000	-0.488305
763.703000	-0.542430
763.905000	-0.813673
764.108000	-0.123836
764.311000	-0.450203
764.513000	-0.592693
764.716000	-0.371899
764.919000	-0.380475
765.121000	-0.862799
765.324000	-1.003185
765.527000	-0.875442
765.729000	-0.636394
765.932000	0.048155
766.135000	-0.041613
766.337000	-0.283820
766.540000	-0.481322
766.743000	-0.245613
766.945000	-0.774908
767.148000	-1.172834
767.351000	-0.993867
767.553000	-0.310072
767.756000	-0.628267
767.958000	-0.951562
768.161000	-0.540231
768.364000	-0.780986
768.566000	-1.111021
768.769000	-0.578721
768.972000	-0.249265
769.174000	-0.664397
769.377000	-1.233482
769.580000	-1.261435
769.782000	-0.461908
769.985000	-0.883616
770.188000	-1.781895
770.390000	-0.932715
770.593000	0.665962
770.796000	0.200761
770.998000	-0.375900
771.201000	-0.802935
771.404000	-0.376827
771.606000	-0.612809
771.809000	-0.575446
772.012000	-0.527864
772.214000	-1.290745
772.417000	-1.388353
772.620000	-0.420963
772.822000	-0.697825
773.025000	-0.893828
773.228000	-0.941671
773.430000	-0.885427
773.633000	-0.554043
773.836000	-0.345988
774.038000	-0.259963
774.241000	-0.510181
774.444000	-0.736531
774.646000	0.314152
774.849000	-0.065194
775.052000	-0.433481
775.254000	-0.284972
775.457000	-0.647554
775.659000	-0.572843
775.862000	-0.696201
776.065000	-0.588616
776.267000	-0.027377
776.470000	0.339154
776.673000	-0.409219
776.875000	0.058462
777.078000	0.058369
777.281000	-0.771194
777.483000	-0.135157
777.686000	-0.072637
777.889000	-0.189420
778.091000	-0.045941
778.294000	-1.032362
778.497000	-0.868563
778.699000	-0.776112
778.902000	-0.748613
779.105000	-0.537603
779.307000	0.204418
779.510000	-0.693911
779.713000	-0.395850
779.915000	-0.622711
780.118000	0.459787
780.321000	0.631417
780.523000	-0.362217
780.726000	-0.821837
780.929000	-0.873595
781.131000	-0.816678
781.334000	-1.330684
781.537000	-1.352928
781.739000	-0.241914
781.942000	-0.851249
782.145000	-1.467941
782.347000	-1.388007
782.550000	-0.974998
782.753000	-1.112460
782.955000	-0.987123
783.158000	-0.780034
783.361000	-0.578079
783.563000	-0.600134
783.766000	-0.708629
783.968000	0.962986
784.171000	0.866138
784.374000	-0.279455
784.576000	-0.405928
784.779000	-0.158894
784.982000	0.215091
785.184000	-0.448168
785.387000	-0.266496
785.590000	0.219670
785.792000	0.268648
785.995000	0.153335
786.198000	-0.087901
786.400000	-0.498912
786.603000	-0.454796
786.806000	-0.547108
787.008000	-0.505047
787.211000	-0.390124
787.414000	-0.957659
787.616000	-0.634647
787.819000	-0.662334
788.022000	-1.348422
788.224000	-0.674738
788.427000	-1.211139
788.630000	-0.756689
788.832000	-0.502045
789.035000	-1.017959
789.238000	-1.538293
789.440000	-1.214736
789.643000	-0.107185
789.846000	-0.679884
790.048000	-0.267876
790.251000	-0.147818
790.454000	-0.413926
790.656000	0.256358
790.859000	-0.496818
791.062000	-0.900411
791.264000	-0.212259
791.467000	-1.031436
791.669000	-1.555654
791.872000	-0.699186
792.075000	-1.094454
792.277000	-0.766208
792.480000	-0.433356
792.683000	-1.009307
792.885000	-1.268547
793.088000	-1.071970
793.291000	-1.160131
793.493000	-1.285561
793.696000	-0.528750
793.899000	-0.193459
794.101000	-0.517661
794.304000	-0.732853
794.507000	-0.360574
794.709000	-0.146641
794.912000	-0.707612
795.115000	-1.015858
795.317000	-0.715751
795.520000	-0.480771
795.723000	-0.654980
795.925000	-1.032671
796.128000	-1.404078
796.331000	-0.992400
796.533000	-1.313029
796.736000	-0.694109
796.939000	-0.510517
797.141000	-0.683318
797.344000	-0.026100
797.547000	-0.083342
797.749000	-0.219581
797.952000	-0.706730
798.155000	-1.064425
798.357000	-1.349114
798.560000	-1.149568
798.763000	-0.418618
798.965000	-0.574193
799.168000	-0.579506
799.371000	-0.416289
799.573000	-0.658856
799.776000	-1.322248
799.978000	-1.440683
800.181000	-0.681799
800.384000	0.890694
800.586000	0.135562
800.789000	-1.285989
800.992000	-1.215014
801.194000	-1.402589
801.397000	-1.395093
801.600000	-1.191541
801.802000	-0.034648
802.005000	-0.292645
802.208000	-1.646570
802.410000	-0.720154
802.613000	-0.463791
802.816000	-0.501990
803.018000	-1.156557
803.221000	-1.071708
803.424000	0.169449
803.626000	-0.084666
803.829000	-0.522948
804.032000	0.197435
804.234000	0.846381
804.437000	-0.488087
804.640000	-0.617929
804.842000	-0.642381
805.045000	-1.089337
805.248000	-0.867147
805.450000	-0.816092
805.653000	-0.797945
805.856000	-0.917431
806.058000	0.072825
806.261000	-0.898996
806.464000	-0.989768
806.666000	-0.498212
806.869000	-0.875587
807.072000	-2.049117
807.274000	-2.259331
807.477000	-1.028623
807.679000	-0.705171
807.882000	-1.237976
808.085000	-1.006875
808.287000	-0.320777
808.490000	-1.221932
808.693000	-0.954444
808.895000	-0.767060
809.098000	-0.659116
809.301000	-0.604970
809.503000	-0.801636
809.706000	0.092266
809.909000	0.360471
810.111000	0.194122
810.314000	-0.380563
810.517000	-1.021700
810.719000	-1.166469
810.922000	-0.826515
811.125000	0.183139
811.327000	0.184186
811.530000	-0.489386
811.735000	-0.852138
811.940000	-1.019637
812.146000	-0.957412
812.351000	-0.396215
812.556000	-0.610204
812.761000	-1.277420
812.967000	-0.291212
813.172000	-0.206950
813.377000	-0.540243
813.582000	0.112905
813.788000	-0.184364
813.993000	-1.220208
814.198000	-0.481674
814.403000	-1.224974
814.609000	-0.424576
814.814000	-0.559635
815.019000	0.440287
815.224000	0.204390
815.429000	-0.984745
815.635000	-0.555145
815.840000	-0.369488
816.045000	-0.301550
816.250000	-0.132059
816.456000	-1.341621
816.661000	-2.137230
816.866000	-1.539744
817.071000	-1.508026
817.277000	-2.238384
817.482000	-1.263509
817.687000	-0.563415
817.892000	-0.660075
818.097000	-0.255829
818.303000	0.235289
818.508000	0.631412
818.713000	2.171716
818.918000	0.719055
819.124000	0.294732
819.329000	-0.704144
819.534000	-0.932167
819.739000	-1.207896
819.945000	-1.000205
820.150000	-0.681703
820.355000	-0.719628
820.560000	-0.375499
820.766000	-0.422203
820.971000	-0.410837
821.176000	-1.956790
821.381000	-2.539753
821.586000	-1.486355
821.792000	-0.089595
821.997000	-0.698380
822.202000	-0.866509
822.407000	-1.275014
822.613000	-1.483393
822.818000	-0.971668
823.023000	-0.625573
823.228000	-0.776035
823.434000	0.036340
823.639000	0.192497
823.844000	-0.821810
824.049000	0.079252
824.255000	0.212816
824.460000	-0.561070
824.665000	-1.079156
824.870000	0.147547
825.075000	-0.030317
825.281000	-0.030408
825.486000	0.692851
825.691000	-1.572091
825.896000	-2.569087
826.102000	-1.059377
826.307000	-0.724750
826.512000	-0.879526
826.717000	-0.734624
826.923000	-0.968644
827.128000	-0.693829
827.333000	-1.449885
827.538000	-0.476112
827.744000	0.048578
827.949000	-1.036206
828.154000	-0.749311
828.359000	0.088789
828.564000	-0.500619
828.770000	-0.821616
828.975000	0.358719
829.180000	-0.383995
829.385000	-1.800978
829.591000	-1.286412
829.796000	-0.701210
830.001000	-0.841719
830.206000	-1.418325
830.412000	-1.318735
830.617000	-1.228718
830.822000	0.008846
831.027000	-0.764805
831.232000	-1.270915
831.438000	-1.174681
831.643000	-0.680131
831.848000	-0.913810
832.053000	-0.594418
832.259000	-0.701148
832.464000	-2.536639
832.669000	-2.140440
832.874000	-1.684328
833.080000	-1.675729
833.285000	0.185899
833.490000	-0.039136
833.695000	-1.582774
833.901000	-1.205271
834.106000	-1.310282
834.311000	-1.115200
834.516000	-0.493671
834.721000	-0.892301
834.927000	0.186043
835.132000	-0.466296
835.337000	0.928996
835.542000	-0.196712
835.748000	-1.659074
835.953000	-0.085389
836.158000	-0.130356
836.363000	-0.220754
836.569000	-0.301715
836.774000	-1.362654
836.979000	-1.625477
837.184000	-2.044889
837.390000	-1.786343
837.595000	-1.127959
837.800000	-0.660681
838.005000	-0.497536
838.210000	-0.630409
838.416000	-1.171326
838.621000	-1.180283
838.826000	-1.382634
839.031000	-1.033989
839.237000	-1.629261
839.442000	-2.243890
839.647000	-2.264043
839.852000	-1.494823
840.058000	-1.470611
840.263000	-1.364750
840.468000	-2.235962
840.673000	-1.193467
840.878000	-0.967960
841.084000	-1.651680
841.289000	-0.819798
841.494000	1.803048
841.699000	1.638868
841.905000	0.369822
842.110000	0.390197
842.315000	-1.432131
842.520000	-1.019821
842.726000	-1.427965
842.931000	-1.721627
843.136000	-0.663813
843.341000	-2.170833
843.547000	-1.438661
843.752000	-1.153866
843.957000	-1.828785
844.162000	-1.749155
844.367000	-1.209314
844.573000	-0.503458
844.778000	-0.305836
844.983000	-0.484317
845.188000	-0.429380
845.394000	-1.907495
845.599000	-1.472545
845.804000	-1.226259
846.009000	-0.592387
846.215000	-1.846670
846.420000	-1.400668
846.625000	-0.408520
846.830000	0.161383
847.036000	-0.947384
847.241000	-1.610725
847.446000	-0.456855
847.651000	-0.796406
847.856000	-1.665357
848.062000	-1.482699
848.267000	-0.109241
848.472000	-1.299976
848.677000	-2.450079
848.883000	-0.607698
849.088000	0.643763
849.293000	-0.691345
849.498000	-1.351618
849.704000	-0.343807
849.909000	-1.036834
850.114000	-1.989442
850.319000	-0.757583
850.524000	-0.754843
850.730000	-0.884141
850.935000	-1.152675
851.140000	-0.085997
851.345000	0.004893
851.551000	-0.219465
851.756000	-0.037362
851.961000	-1.316794
852.166000	-1.416483
852.372000	-0.845854
852.577000	-0.752048
852.782000	-1.124753
852.987000	0.378156
853.193000	-0.290220
853.398000	-0.535231
853.603000	-1.713245
853.808000	-2.385932
854.013000	-1.419730
854.219000	-0.271644
854.424000	1.576971
854.629000	1.529162
854.834000	-0.990596
855.040000	-0.692589
855.245000	-0.209376
855.450000	-2.701708
855.655000	-3.752125
855.861000	-3.313566
856.066000	-2.182624
856.271000	-2.171077
856.476000	-0.478330
856.682000	-1.170464
856.887000	-3.769019
857.092000	-2.394652
857.297000	0.203598
857.502000	-0.346111
857.708000	-0.966864
857.913000	0.097391
858.118000	-0.528592
858.323000	-0.879436
858.529000	-0.653326
858.734000	-0.981489
858.939000	-0.859678
859.144000	-1.730650
859.350000	-2.771151
859.555000	-2.458132
859.760000	-0.578243
859.965000	0.202681
860.171000	-1.356786
860.376000	-0.153504
860.581000	-2.083835
860.786000	-4.447047
860.991000	-3.581678
861.197000	-2.550580
861.402000	-1.010098
861.607000	-1.583471
861.812000	-2.813581
862.018000	-2.840639
862.223000	-1.729755
862.428000	-0.928575
862.633000	0.292720
862.839000	-0.472774
863.044000	-1.766301
863.249000	-2.566344
863.454000	-0.442683
863.659000	-1.168799
863.865000	-1.702054
864.070000	-1.748490
864.275000	-2.524963
864.480000	-2.021273
864.686000	-3.614092
864.891000	-2.878918
865.096000	-0.590701
865.301000	-0.105039
865.507000	-0.311817
865.712000	-0.328975
865.917000	-1.247423
866.122000	-0.488017
866.328000	-3.262889
866.533000	-3.025409
866.738000	0.189275
866.943000	0.137229
867.148000	0.568704
867.354000	-2.075628
867.559000	-3.432024
867.764000	-1.685663
867.969000	-0.870823
868.175000	-1.991763
868.380000	-2.410493
868.585000	-3.256119
868.790000	-1.072931
868.996000	-1.215817
869.201000	-2.816503
869.406000	-3.767585
869.611000	-2.987843
869.817000	-2.300626
870.022000	2.285539
870.227000	-0.204616
870.432000	-2.234196
870.637000	-0.990522
870.843000	-1.590515
871.048000	-1.414784
871.253000	-0.114326
871.458000	-1.235947
871.664000	-3.095879
871.869000	-3.114171
872.074000	-2.516484
872.279000	-1.396531
872.485000	-1.997132
872.690000	-1.852457
872.895000	-2.071818
873.100000	-2.777572
873.306000	-2.770031
873.511000	-1.386384
873.716000	0.202116
873.921000	-1.658476
874.126000	-2.148818
874.332000	-1.470629
874.537000	-0.616701
874.742000	-0.762714
874.947000	-1.211845
875.153000	0.897157
875.358000	-0.564419
875.563000	-1.265009
875.768000	-3.774744
875.974000	-4.012439
876.179000	-0.802434
876.384000	-0.592802
876.589000	-2.178255
876.794000	-1.769857
877.000000	-2.768517
877.205000	-4.099769
877.410000	-1.241249
877.615000	-2.650318
877.821000	-4.461221
878.026000	-3.423719
878.231000	-3.973856
878.436000	-3.855583
878.642000	-3.064483
878.847000	-1.484691
879.052000	-0.129056
879.257000	-1.971727
879.463000	-3.034272
879.668000	-2.229483
879.873000	-0.205422
880.078000	-2.809335
880.283000	-4.491230
880.489000	-4.791041
880.694000	-4.069586
880.899000	-1.910865
881.104000	-0.471222
881.310000	1.204687
881.515000	-0.253270
881.720000	0.955587
881.925000	2.122475
882.131000	2.977350
882.336000	0.283793
882.541000	-2.863588
882.746000	-2.877713
882.952000	-3.421760
883.157000	-3.038232
883.362000	-2.941956
883.567000	-3.618785
883.772000	-3.550077
883.978000	-2.837025
884.183000	-1.315092
884.388000	-1.607876
884.593000	-3.816974
884.799000	0.659781
885.004000	0.205253
885.209000	-1.604443
885.414000	-1.113364
885.620000	-3.660037
885.825000	-0.765886
886.030000	-1.232620
886.235000	-2.382626
886.440000	-1.713672
886.646000	-4.555186
886.851000	-4.649947
887.056000	-0.412063
887.261000	-0.881295
887.467000	-3.939114
887.672000	-1.304159
887.877000	-2.434712
888.082000	-4.655768
888.288000	-5.201352
888.493000	-7.342506
888.698000	-5.445847
888.903000	-1.913359
889.109000	-3.245850
889.314000	-0.734229
889.519000	-2.260920
889.724000	0.552146
889.929000	-1.141446
890.135000	-2.024914
890.340000	-1.990056
890.545000	-3.275291
890.750000	-4.584018
890.956000	-3.293450
891.161000	-0.781111
891.366000	-3.084241
891.571000	-2.146266
891.777000	-2.072581
891.982000	0.021550
892.187000	-0.563964
892.392000	0.288296
892.598000	-0.080469
892.803000	-0.403322
893.008000	-2.771540
893.213000	-3.252099
893.418000	-3.365527
893.624000	-3.772240
893.829000	-5.541860
894.034000	-2.557322
894.239000	-1.234548
894.445000	-3.909272
894.650000	-3.640178
894.855000	-3.473851
895.060000	-3.887946
895.266000	-3.833556
895.471000	-4.998589
895.676000	-1.475774
895.881000	-0.779679
896.087000	-2.277958
896.292000	-3.692945
896.497000	0.618288
896.702000	-1.351547
896.907000	-3.607437
897.113000	1.079592
897.318000	0.930118
897.523000	-0.085520
897.728000	-2.007225
897.934000	-2.285997
898.139000	-2.210579
898.344000	0.064617
898.549000	-1.400637
898.755000	-2.759548
898.960000	-3.236334
899.165000	-5.272732
899.370000	-2.061733
899.575000	1.735826
899.781000	-2.748338
899.986000	-3.466210
900.191000	-1.689648
900.396000	-2.797608
900.602000	-2.058379
900.807000	-2.417696
901.012000	-2.259935
901.217000	-0.120307
901.423000	-2.358895
901.628000	-3.990067
901.833000	0.330642
902.038000	0.612111
902.244000	-3.517665
902.449000	-2.654889
902.654000	-2.697750
902.859000	-1.889794
903.064000	0.234187
903.270000	0.444609
903.475000	-4.034513
903.680000	-6.080765
903.885000	-4.937483
904.091000	-4.144081
904.296000	-5.561107
904.501000	-4.574443
904.706000	-3.899178
904.912000	0.336318
905.117000	-1.825593
905.322000	-4.884235
905.527000	-4.252520
905.733000	-3.286421
905.938000	-3.401339
906.143000	-3.951462
906.348000	-5.881779
906.553000	-1.945783
906.759000	-0.453679
906.964000	-1.422569
907.169000	-2.775296
907.374000	-5.501010
907.580000	-4.083943
907.785000	-3.493067
907.990000	13.473724
908.195000	9.550038
908.401000	-0.456168
908.606000	-7.968849
908.811000	-9.337265
909.016000	-2.385284
909.221000	-1.888374
909.427000	-2.744684
909.632000	-4.628286
909.837000	-4.505933
910.042000	-5.466542
910.248000	-7.259695
910.453000	-2.893157
910.658000	-3.984531
910.863000	-4.435678
911.069000	-5.418488
911.274000	-1.262326
911.479000	-0.272545
911.684000	-6.715042
911.890000	-3.554865
912.095000	-3.648992
912.300000	-6.259994
912.506000	-5.358974
912.711000	-5.077831
912.917000	-2.131551
913.123000	-2.133455
913.328000	-2.884947
913.534000	-2.017312
913.740000	7.478707
913.946000	2.803228
914.151000	-4.267376
914.357000	-5.619823
914.563000	-1.269826
914.768000	-4.740764
914.974000	-6.578170
915.180000	-5.885381
915.385000	-4.662100
915.591000	-7.356952
915.797000	-2.687783
916.002000	0.430747
916.208000	-3.345502
916.414000	-5.739626
916.620000	-6.712887
916.825000	-2.677098
917.031000	-3.181601
917.237000	-8.904428
917.442000	-5.635304
917.648000	-6.727870
917.854000	-7.545112
918.059000	-1.040373
918.265000	-0.522634
918.471000	-3.245112
918.676000	-6.259478
918.882000	-8.455265
919.088000	-6.418129
919.294000	-11.244173
919.499000	-7.177914
919.705000	-1.711958
919.911000	-3.244592
920.116000	-1.162127
920.322000	-6.860070
920.528000	-5.487922
920.733000	-7.640344
920.939000	-8.366645
921.145000	-7.073070
921.350000	-6.574901
921.556000	-5.213214
921.762000	-4.949573
921.968000	-5.100752
922.173000	-6.813613
922.379000	-9.473721
922.585000	-4.843775
922.790000	-5.975915
922.996000	-7.414254
923.202000	-7.742608
923.407000	-7.574855
923.613000	-5.275609
923.819000	-3.122797
924.024000	-3.607578
924.230000	-1.818793
924.436000	-3.726227
924.642000	5.135918
924.847000	1.210898
925.053000	-5.397388
925.259000	-9.856870
925.464000	-4.764082
925.670000	-5.310538
925.876000	-7.217125
926.081000	-7.484714
926.287000	-3.524873
926.493000	-2.186465
926.698000	-4.736148
926.904000	-2.357425
927.110000	-4.995087
927.316000	-3.998840
927.521000	3.496767
927.727000	-2.896716
927.933000	-5.649324
928.138000	-4.405952
928.344000	-10.106940
928.550000	-6.213080
928.755000	-1.418351
928.961000	-6.465114
929.167000	-6.809904
929.372000	1.496709
929.578000	0.441614
929.784000	-6.213687
929.990000	-9.430306
930.195000	-5.488219
930.401000	-4.752755
930.607000	-4.216601
930.812000	-3.442920
931.018000	-6.993301
931.224000	-13.010087
931.429000	-8.814616
931.635000	-11.734323
931.841000	-11.159702
932.046000	-6.834230
932.252000	-2.820555
932.458000	4.352960
932.664000	-0.163492
932.869000	-6.494042
933.075000	-9.585106
933.281000	-8.428684
933.486000	-1.063894
933.692000	-4.085412
933.898000	-9.089637
934.103000	-2.437081
934.309000	-5.065788
934.515000	-3.604012
934.720000	-1.425662
934.926000	1.791075
935.132000	0.772109
935.338000	-2.932797
935.543000	-9.880200
935.749000	-11.592188
935.955000	-12.812553
936.160000	-11.100735
936.366000	-3.719294
936.572000	-3.939448
936.777000	-2.071858
936.983000	-0.386804
937.189000	-4.136813
937.394000	-9.102773
937.600000	-0.551091
937.806000	2.317468
938.012000	-5.611105
938.217000	4.914009
938.423000	1.348289
938.629000	-7.734779
938.834000	-14.439817
939.040000	-12.487839
939.246000	-6.336424
939.451000	-9.867720
939.657000	-5.681847
939.863000	-9.893235
940.068000	-1.990963
940.274000	-6.983547
940.480000	-4.707398
940.686000	-3.408531
940.891000	-5.771901
941.097000	12.776544
941.303000	1.794406
941.508000	-6.605854
941.714000	-2.939206
941.920000	-15.388761
942.125000	-4.761586
942.331000	-2.118320
942.537000	3.069941
942.742000	0.457853
942.948000	-9.597428
943.154000	-11.660356
943.360000	-22.259099
943.565000	-8.681293
943.771000	2.075529
943.977000	5.054401
944.182000	-13.267368
944.388000	-14.486598
944.594000	-0.407106
944.799000	7.318005
945.005000	-0.599217
945.211000	2.868163
945.416000	-0.411806
945.622000	-13.096848
945.828000	-8.964538
946.034000	-0.015330
946.239000	-1.300044
946.445000	-6.693359
946.651000	-17.236362
946.856000	-14.402803
947.062000	-1.433747
947.268000	-0.372429
947.473000	-14.051002
947.679000	-16.764930
947.885000	-2.703744
948.090000	1.024683
948.296000	13.895297
948.502000	0.870612
948.708000	-9.586731
948.913000	-11.722665
949.119000	-0.335114
949.325000	-6.403149
949.530000	-19.882478
949.736000	-24.591044
949.942000	-13.973591
950.147000	-13.169957
950.353000	-11.474063
950.559000	-7.201715
950.764000	14.863151
950.970000	6.910406
951.176000	-7.837938
951.382000	-13.335017
951.587000	-2.250463
951.793000	2.512672
951.999000	1.645758
952.204000	-11.655306
952.410000	-23.640817
952.616000	-11.516544
952.821000	-7.936127
953.027000	-14.163394
953.233000	-17.015780
953.438000	-15.773218
953.644000	0.494660
953.850000	-4.284225
954.056000	-8.296881
954.261000	-9.505539
954.467000	0.214564
954.673000	7.332003
954.878000	-4.024103
955.084000	-4.436051
955.290000	-19.514433
955.495000	-21.561988
955.701000	-15.723988
955.907000	0.695657
956.112000	-0.315159
956.318000	7.761767
956.524000	6.181989
956.730000	-8.495422
956.935000	-11.557873
957.141000	-14.676429
957.347000	-2.221942
957.552000	-8.150832
957.758000	-21.862661
957.964000	-29.996476
958.169000	1.782552
958.375000	2.348793
958.581000	-11.037530
958.786000	-22.871686
958.992000	-27.743372
959.198000	-10.387894
959.404000	-3.526872
959.609000	-9.488690
959.815000	-13.538939
960.021000	3.032896
960.226000	-4.212884
960.432000	-27.612798
960.638000	-17.473543
960.843000	-9.848942
961.049000	-11.206177
961.255000	0.047034
961.460000	-12.607960
961.666000	-32.352273
961.872000	-19.253061
962.078000	-15.488250
962.283000	-25.618599
962.489000	-26.116594
962.695000	-17.058513
962.900000	-10.663733
963.106000	-8.458756
963.312000	-14.266862
963.517000	-20.963712
963.723000	-23.534402
963.929000	-0.093894
964.134000	8.628575
964.340000	-15.912181
964.546000	-17.492925
964.752000	-20.722813
964.957000	-27.090584
965.163000	-4.156400
965.369000	-5.277023
965.574000	-1.100159
965.780000	-6.644965
966.000000	-17.438942
966.220000	-10.798832
966.440000	-10.232515
966.661000	-0.258732
966.881000	-19.920682
967.101000	-36.210870
967.321000	-33.897694
967.541000	-10.302439
967.761000	-17.595195
967.981000	-10.334030
968.202000	-10.165624
968.422000	0.140721
968.642000	-1.922779
968.862000	-4.237644
969.082000	-13.434254
969.302000	-5.108757
969.522000	-8.810907
969.743000	7.690900
969.963000	-13.826559
970.183000	-27.393490
970.403000	-23.617258
970.623000	-21.634226
970.843000	2.630125
971.063000	-1.375824
971.284000	-23.368256
971.504000	-32.595953
971.724000	-10.596260
971.944000	-25.217933
972.164000	-34.216819
972.384000	-26.108059
972.604000	-40.646472
972.825000	-45.165328
973.045000	-29.875737
973.265000	21.444632
973.485000	11.052036
973.705000	-7.360460
973.925000	-13.723122
974.145000	-47.011892
974.365000	-16.392537
974.586000	-15.057481
974.806000	-34.961723
975.026000	-1.672898
975.246000	-13.716509
975.466000	-30.534039
975.686000	-14.535520
975.906000	-21.298293
976.127000	-43.722556
976.347000	-38.087829
976.567000	-11.023048
976.787000	-11.271147
977.007000	-19.631539
977.227000	-24.741694
977.447000	-28.409031
977.668000	-47.393758
977.888000	-28.936066
978.108000	-28.635430
978.328000	-20.779258
978.548000	8.025423
978.768000	15.459691
978.988000	-1.969003
979.209000	-18.794954
979.429000	-20.596284
979.649000	-4.882878
979.869000	-27.952429
980.089000	-39.359171
980.309000	-42.570679
980.529000	-54.275706
980.750000	-34.645568
980.970000	-45.019578
981.190000	-31.086406
981.410000	-26.272502
981.630000	-33.977969
981.850000	-24.115566
982.070000	-16.914538
982.291000	-43.176701
982.511000	-43.295687
982.731000	-10.144506
982.951000	-31.066518
983.171000	-30.437617
983.391000	-22.351420
983.611000	5.012736
983.832000	-25.867005
984.052000	-50.221248
984.272000	-25.592436
984.492000	-16.500374
984.712000	-28.892119
984.932000	-50.344945
985.152000	-58.203413
985.373000	-42.979495
985.593000	-14.152066
985.813000	-23.175723
986.033000	-38.917452
986.253000	1.391566
986.473000	7.102905
986.693000	-26.356937
986.914000	-36.108692
987.134000	6.834501
987.354000	-29.896370
987.574000	120.211131
987.794000	70.086564
988.014000	-39.688666
988.234000	-23.367107
988.455000	-9.082871
988.675000	-10.729806
988.895000	-22.889485
989.115000	-37.152191
989.335000	-15.824762
989.555000	-2.406536
989.775000	-41.492762
989.995000	-36.063774
990.216000	-21.548377
990.436000	-15.624017
990.656000	13.270659
990.876000	-22.248412
991.096000	-13.752181
991.316000	6.337270
991.536000	-20.657123
991.757000	-27.186653
991.977000	-69.920714
992.197000	-23.460364
992.417000	-43.309724
992.637000	-83.064233
992.857000	-80.150933
993.077000	-72.672549
993.298000	-38.194510
993.518000	-31.534714
993.738000	-80.526336
993.958000	-44.334611
994.178000	-51.387205
994.398000	-38.514549
994.618000	-71.199784
994.839000	-126.655281
995.059000	-38.149791
995.279000	33.122951
995.499000	-8.740496
995.719000	-11.761171
995.939000	-28.282285
996.159000	-23.565855
996.380000	-14.921202
996.600000	-61.328897
996.820000	-26.937354
997.040000	15.795125
997.260000	-48.137180
997.480000	-38.545493
997.700000	-101.110613
997.921000	-60.637263
998.141000	34.845509
998.361000	-2.466299
998.581000	-50.866139
998.801000	-80.327281
999.021000	-51.734783
999.241000	-30.494640
999.462000	-63.617739
999.682000	-100.612040
999.902000	-63.063357
1000.122000	-83.010295
1000.342000	-134.178478
1000.562000	-58.427069
1000.782000	-58.713028
1001.003000	-993.533463
