Wavelength	Irradiance
(nm)	(mW/cm2/nm)

294.396000	0.000000
294.577000	0.000000
294.757000	0.000000
294.938000	-0.000000
295.118000	-0.000000
295.299000	0.000000
295.479000	0.000000
295.660000	-0.000000
295.840000	-0.000000
296.021000	-0.000000
296.202000	-0.000000
296.382000	-0.000000
296.563000	-0.000000
296.743000	-0.000000
296.924000	0.000000
297.104000	0.000000
297.285000	-0.000000
297.465000	-0.000000
297.646000	-0.000000
297.826000	0.000000
298.007000	0.000000
298.187000	-0.000000
298.368000	-0.000000
298.548000	0.000000
298.729000	0.000000
298.909000	-0.000000
299.090000	-0.000000
299.270000	-0.000000
299.451000	-0.000000
299.631000	-0.000000
299.812000	-0.000000
299.992000	0.000000
300.173000	0.000000
300.353000	-0.000000
300.534000	0.000000
300.714000	0.000000
300.895000	0.000000
301.075000	-0.000000
301.256000	0.000000
301.436000	0.000000
301.617000	-0.000000
301.797000	-0.000000
301.978000	0.000000
302.159000	0.000000
302.339000	0.000000
302.520000	-0.000000
302.700000	-0.000000
302.881000	0.000000
303.061000	0.000000
303.242000	0.000000
303.422000	0.000000
303.603000	0.000000
303.783000	-0.000000
303.964000	-0.000000
304.144000	-0.000000
304.325000	-0.000000
304.505000	-0.000000
304.686000	-0.000000
304.866000	0.000000
305.047000	0.000000
305.227000	-0.000000
305.408000	-0.000000
305.588000	-0.000000
305.769000	-0.000000
305.949000	-0.000000
306.130000	-0.000000
306.310000	-0.000000
306.491000	-0.000000
306.671000	0.000000
306.852000	-0.000000
307.032000	-0.000000
307.213000	0.000000
307.393000	-0.000000
307.574000	0.000000
307.755000	0.000000
307.935000	0.000000
308.116000	-0.000000
308.296000	-0.000000
308.477000	0.000000
308.657000	0.000000
308.838000	0.000000
309.018000	0.000000
309.199000	-0.000000
309.379000	-0.000000
309.560000	0.000000
309.740000	-0.000000
309.921000	0.000000
310.101000	0.000000
310.282000	-0.000000
310.462000	-0.000000
310.643000	-0.000000
310.823000	-0.000000
311.004000	-0.000000
311.184000	-0.000000
311.365000	0.000000
311.545000	0.000000
311.726000	0.000000
311.906000	-0.000000
312.087000	0.000000
312.267000	-0.000000
312.448000	-0.000000
312.628000	-0.000000
312.809000	-0.000000
312.989000	-0.000000
313.170000	-0.000000
313.344000	-0.000000
313.518000	-0.000000
313.691000	-0.000000
313.865000	-0.000000
314.039000	-0.000000
314.213000	-0.000000
314.387000	-0.000000
314.560000	-0.000000
314.734000	-0.000000
314.908000	-0.000000
315.082000	-0.000000
315.255000	0.000000
315.429000	0.000000
315.603000	0.000000
315.777000	-0.000000
315.951000	0.000000
316.124000	-0.000000
316.298000	-0.000000
316.472000	-0.000000
316.646000	-0.000000
316.820000	-0.000000
316.993000	0.000000
317.167000	-0.000000
317.341000	-0.000000
317.515000	-0.000000
317.688000	-0.000000
317.862000	-0.000000
318.036000	-0.000000
318.210000	-0.000000
318.384000	-0.000000
318.557000	-0.000000
318.731000	-0.000000
318.905000	-0.000000
319.079000	0.000000
319.253000	0.000000
319.426000	0.000000
319.600000	0.000000
319.774000	-0.000000
319.948000	-0.000000
320.122000	0.000000
320.295000	0.000000
320.469000	-0.000000
320.643000	-0.000000
320.817000	-0.000000
320.990000	-0.000000
321.164000	-0.000000
321.338000	-0.000000
321.512000	-0.000000
321.686000	-0.000000
321.859000	-0.000000
322.033000	0.000000
322.207000	-0.000000
322.381000	-0.000000
322.555000	0.000000
322.728000	0.000000
322.902000	-0.000000
323.076000	-0.000000
323.250000	-0.000000
323.423000	-0.000000
323.597000	-0.000000
323.771000	-0.000000
323.945000	-0.000000
324.119000	-0.000000
324.292000	0.000000
324.466000	-0.000000
324.640000	0.000000
324.814000	0.000000
324.988000	-0.000000
325.161000	-0.000000
325.335000	-0.000000
325.509000	-0.000000
325.683000	0.000000
325.856000	-0.000000
326.030000	-0.000000
326.204000	-0.000000
326.378000	-0.000000
326.552000	-0.000000
326.725000	-0.000000
326.899000	-0.000000
327.073000	-0.000000
327.247000	-0.000000
327.421000	0.000000
327.594000	0.000000
327.768000	-0.000000
327.942000	-0.000000
328.116000	0.000000
328.289000	0.000000
328.463000	0.000000
328.637000	0.000000
328.811000	-0.000000
328.985000	-0.000000
329.158000	-0.000000
329.332000	-0.000000
329.506000	0.000000
329.680000	-0.000000
329.854000	-0.000000
330.027000	-0.000000
330.201000	0.000000
330.375000	0.000000
330.549000	0.000000
330.723000	-0.000000
330.896000	-0.000000
331.070000	-0.000000
331.244000	-0.000000
331.418000	-0.000000
331.591000	0.000000
331.765000	-0.000000
331.939000	-0.000000
332.113000	-0.000000
332.287000	-0.000000
332.460000	0.000000
332.634000	0.000000
332.808000	-0.000000
332.982000	-0.000000
333.156000	-0.000000
333.329000	-0.000000
333.503000	-0.000000
333.677000	-0.000000
333.851000	-0.000000
334.024000	-0.000000
334.198000	-0.000000
334.372000	-0.000000
334.546000	-0.000000
334.720000	-0.000000
334.893000	-0.000000
335.067000	0.000000
335.241000	0.000000
335.415000	-0.000000
335.589000	-0.000000
335.762000	-0.000000
335.936000	-0.000000
336.110000	-0.000000
336.284000	-0.000000
336.458000	0.000000
336.631000	-0.000000
336.805000	-0.000000
336.979000	-0.000000
337.153000	-0.000000
337.326000	-0.000000
337.500000	-0.000000
337.674000	-0.000000
337.848000	-0.000000
338.022000	0.000000
338.195000	-0.000000
338.369000	-0.000000
338.543000	-0.000000
338.717000	-0.000000
338.891000	0.000000
339.064000	0.000000
339.238000	-0.000000
339.412000	-0.000000
339.586000	-0.000000
339.759000	-0.000000
339.933000	-0.000000
340.107000	0.000000
340.281000	0.000000
340.455000	-0.000000
340.628000	-0.000000
340.802000	-0.000000
340.976000	-0.000000
341.150000	-0.000000
341.324000	-0.000000
341.497000	-0.000000
341.671000	-0.000000
341.845000	-0.000000
342.019000	-0.000000
342.192000	-0.000000
342.366000	-0.000000
342.540000	-0.000000
342.714000	-0.000000
342.888000	-0.000000
343.061000	0.000000
343.235000	-0.000000
343.409000	-0.000000
343.583000	-0.000000
343.757000	-0.000000
343.930000	-0.000000
344.104000	-0.000000
344.278000	0.000000
344.452000	0.000000
344.626000	-0.000000
344.799000	-0.000000
344.973000	-0.000000
345.147000	-0.000000
345.321000	-0.000000
345.494000	-0.000000
345.668000	0.000000
345.842000	0.000000
346.016000	-0.000000
346.190000	0.000000
346.363000	0.000000
346.537000	-0.000000
346.711000	-0.000000
346.885000	-0.000000
347.059000	-0.000000
347.232000	0.000000
347.406000	0.000000
347.580000	-0.000000
347.754000	-0.000000
347.927000	0.000000
348.101000	0.000000
348.275000	-0.000000
348.449000	-0.000000
348.623000	-0.000000
348.796000	-0.000000
348.970000	0.000000
349.144000	0.000000
349.318000	-0.000000
349.492000	-0.000000
349.665000	-0.000000
349.839000	-0.000000
350.013000	-0.000000
350.187000	-0.000000
350.361000	-0.000000
350.534000	-0.000000
350.708000	-0.000000
350.882000	-0.000000
351.056000	0.000000
351.229000	0.000000
351.403000	-0.000000
351.577000	-0.000000
351.751000	-0.000000
351.925000	-0.000000
352.098000	-0.000000
352.272000	-0.000000
352.446000	-0.000000
352.620000	-0.000000
352.794000	-0.000000
352.967000	-0.000000
353.141000	0.000000
353.315000	0.000000
353.489000	-0.000000
353.662000	-0.000000
353.836000	-0.000000
354.010000	-0.000000
354.184000	0.000000
354.358000	-0.000000
354.531000	-0.000000
354.705000	-0.000000
354.879000	-0.000000
355.053000	-0.000000
355.227000	0.000000
355.400000	-0.000000
355.574000	0.000000
355.748000	0.000000
355.922000	-0.000000
356.095000	-0.000000
356.269000	-0.000000
356.443000	-0.000000
356.617000	-0.000000
356.791000	-0.000000
356.964000	-0.000000
357.138000	-0.000000
357.312000	-0.000000
357.486000	-0.000000
357.660000	0.000000
357.833000	0.000000
358.007000	-0.000000
358.181000	-0.000000
358.355000	-0.000000
358.529000	-0.000000
358.702000	-0.000000
358.876000	-0.000000
359.050000	-0.000000
359.224000	-0.000000
359.397000	0.000000
359.571000	0.000000
359.745000	-0.000000
359.919000	-0.000000
360.093000	-0.001065
360.266000	0.077752
360.440000	0.086296
360.614000	0.127277
360.788000	0.077563
360.962000	-0.104183
361.135000	-0.053757
361.309000	-0.135195
361.483000	-0.223309
361.657000	-0.188005
361.830000	-0.167208
362.004000	-0.015033
362.178000	-0.299488
362.352000	-0.145349
362.526000	-0.018100
362.699000	-0.041647
362.873000	-0.322529
363.047000	-0.273569
363.221000	-0.255932
363.395000	-0.132634
363.568000	-0.155373
363.742000	-0.164867
363.916000	-0.151966
364.090000	-0.242613
364.263000	-0.224687
364.437000	-0.295710
364.611000	-0.050262
364.785000	-0.067388
364.959000	-0.206046
365.132000	-0.163875
365.306000	-0.204513
365.480000	-0.085437
365.656000	-0.131329
365.831000	-0.107230
366.007000	-0.166111
366.183000	-0.143385
366.358000	-0.230987
366.534000	-0.117172
366.710000	-0.268304
366.886000	-0.213385
367.061000	-0.032447
367.237000	0.095810
367.413000	-0.060184
367.588000	-0.247493
367.764000	-0.220320
367.940000	-0.255618
368.115000	-0.233823
368.291000	-0.271938
368.467000	-0.120664
368.643000	0.205162
368.818000	-0.160118
368.994000	-0.280361
369.170000	-0.174315
369.345000	-0.120715
369.521000	-0.171671
369.697000	-0.120030
369.872000	-0.205628
370.048000	-0.262739
370.224000	-0.222347
370.399000	-0.400121
370.575000	-0.269315
370.751000	-0.361890
370.927000	-0.329227
371.102000	-0.314809
371.278000	-0.269611
371.454000	-0.142930
371.629000	0.068037
371.805000	-0.002381
371.981000	0.183773
372.156000	0.335827
372.332000	0.105175
372.508000	-0.014298
372.683000	-0.010982
372.859000	-0.093474
373.035000	-0.137222
373.211000	0.122954
373.386000	-0.003511
373.562000	-0.283337
373.738000	-0.380996
373.913000	-0.537469
374.089000	-0.370994
374.265000	0.044674
374.440000	0.061641
374.616000	0.033950
374.792000	-0.157850
374.968000	0.268261
375.143000	0.036540
375.319000	-0.224789
375.495000	-0.294135
375.670000	-0.146717
375.846000	-0.058883
376.022000	-0.210991
376.197000	-0.130865
376.373000	-0.301057
376.549000	-0.365107
376.724000	-0.413618
376.900000	-0.233439
377.076000	-0.106000
377.252000	0.031215
377.427000	0.110471
377.603000	-0.169878
377.779000	-0.135782
377.954000	-0.300865
378.130000	-0.197373
378.306000	-0.116693
378.481000	-0.077195
378.657000	-0.155492
378.833000	-0.222267
379.009000	-0.061818
379.184000	0.073804
379.360000	-0.037941
379.536000	-0.056221
379.711000	-0.103352
379.887000	-0.170639
380.063000	-0.224336
380.238000	-0.280759
380.414000	0.013423
380.590000	-0.203510
380.765000	-0.227158
380.941000	-0.080580
381.117000	-0.035470
381.293000	-0.093330
381.468000	-0.243720
381.644000	-0.163242
381.820000	-0.028270
381.995000	0.068009
382.171000	0.183269
382.347000	0.099844
382.522000	-0.244229
382.698000	0.127960
382.874000	0.160023
383.050000	-0.239009
383.225000	0.137821
383.401000	0.320819
383.577000	-0.063605
383.752000	-0.209517
383.928000	-0.110830
384.104000	-0.005511
384.279000	-0.132789
384.455000	-0.048647
384.631000	-0.077618
384.806000	-0.279719
384.982000	-0.138677
385.158000	-0.179482
385.334000	-0.019706
385.509000	-0.093993
385.685000	-0.373933
385.861000	-0.222163
386.036000	-0.324419
386.212000	-0.446196
386.388000	-0.266398
386.563000	-0.236257
386.739000	-0.279031
386.915000	-0.450761
387.090000	-0.188322
387.266000	-0.028171
387.442000	0.085675
387.618000	0.002874
387.793000	-0.265261
387.969000	-0.410002
388.145000	-0.319054
388.320000	-0.247951
388.496000	-0.241340
388.672000	-0.457860
388.847000	-0.040047
389.023000	-0.008431
389.199000	-0.323706
389.375000	-0.170345
389.550000	-0.240840
389.726000	-0.067103
389.902000	-0.279332
390.077000	-0.174590
390.253000	-0.108277
390.429000	-0.148908
390.604000	-0.067421
390.780000	-0.093433
390.956000	-0.185221
391.131000	-0.190889
391.307000	0.059055
391.483000	-0.123686
391.659000	-0.245967
391.834000	-0.016247
392.010000	-0.168461
392.186000	-0.249848
392.361000	-0.175030
392.537000	-0.270866
392.713000	0.142045
392.888000	0.202601
393.064000	-0.034947
393.240000	-0.152704
393.416000	-0.270855
393.591000	-0.322377
393.767000	-0.367157
393.943000	-0.239801
394.118000	-0.041210
394.294000	0.117887
394.470000	0.048474
394.645000	0.144379
394.821000	0.238904
394.997000	-0.079720
395.172000	-0.064829
395.348000	-0.137453
395.524000	-0.416930
395.700000	-0.309654
395.875000	-0.041370
396.051000	-0.057574
396.227000	-0.137975
396.402000	-0.170673
396.578000	-0.113234
396.754000	-0.268287
396.929000	-0.190559
397.105000	0.019868
397.281000	-0.056529
397.457000	-0.133486
397.632000	-0.145268
397.808000	-0.392693
397.984000	-0.483217
398.159000	-0.388815
398.335000	-0.233040
398.511000	0.173414
398.686000	-0.043782
398.862000	-0.245857
399.038000	-0.339107
399.213000	-0.130071
399.389000	-0.394569
399.565000	-0.104372
399.741000	0.072941
399.916000	-0.004922
400.092000	0.243784
400.268000	-0.088004
400.443000	-0.210061
400.619000	0.070582
400.795000	-0.006819
400.970000	-0.135695
401.146000	-0.215973
401.322000	0.041371
401.497000	0.429261
401.673000	0.183860
401.849000	-0.145806
402.025000	-0.019961
402.200000	-0.123197
402.376000	-0.185090
402.552000	0.165686
402.727000	-0.010506
402.903000	-0.281949
403.079000	-0.174416
403.254000	0.031688
403.430000	0.010058
403.606000	-0.042163
403.782000	-0.071922
403.957000	-0.270193
404.133000	-0.393598
404.309000	-0.179977
404.484000	0.050199
404.660000	-0.004865
404.841000	-0.147177
405.023000	0.037059
405.204000	0.021292
405.385000	-0.264747
405.566000	-0.280367
405.748000	-0.125697
405.929000	0.086113
406.110000	0.037310
406.292000	-0.095776
406.473000	-0.031818
406.654000	-0.199929
406.835000	-0.080558
407.017000	-0.120287
407.198000	-0.055422
407.379000	-0.031399
407.560000	-0.076624
407.742000	-0.132905
407.923000	-0.077647
408.104000	-0.201741
408.286000	-0.094734
408.467000	-0.056589
408.648000	-0.238555
408.829000	-0.269141
409.011000	-0.163056
409.192000	-0.325339
409.373000	-0.092034
409.555000	0.030436
409.736000	-0.012166
409.917000	-0.117676
410.098000	-0.099436
410.280000	0.010766
410.461000	-0.002914
410.642000	-0.052190
410.823000	0.178584
411.005000	0.172419
411.186000	-0.054100
411.367000	-0.154757
411.549000	-0.151903
411.730000	0.099413
411.911000	0.184990
412.092000	-0.023828
412.274000	-0.069681
412.455000	0.035998
412.636000	0.045084
412.818000	-0.139042
412.999000	-0.231245
413.180000	-0.126322
413.361000	-0.101470
413.543000	-0.140507
413.724000	-0.230768
413.905000	-0.220906
414.087000	-0.232157
414.268000	-0.203824
414.449000	-0.195295
414.630000	-0.286390
414.812000	-0.400953
414.993000	-0.047963
415.174000	0.098982
415.355000	-0.095496
415.537000	-0.323001
415.718000	-0.062323
415.899000	-0.133834
416.081000	-0.213500
416.262000	-0.031845
416.443000	-0.144083
416.624000	-0.089472
416.806000	0.009473
416.987000	0.080908
417.168000	0.006833
417.350000	-0.156079
417.531000	-0.180388
417.712000	-0.170798
417.893000	0.017230
418.075000	0.102993
418.256000	-0.097554
418.437000	-0.010650
418.618000	0.072891
418.800000	0.159622
418.981000	-0.034738
419.162000	-0.021636
419.344000	0.127731
419.525000	0.045877
419.706000	0.024182
419.887000	0.126569
420.069000	0.203616
420.250000	0.152411
420.431000	0.120906
420.613000	0.019812
420.794000	-0.194317
420.975000	0.156638
421.156000	-0.011395
421.338000	-0.071765
421.519000	-0.038117
421.700000	-0.106560
421.882000	-0.113460
422.063000	0.054175
422.244000	0.368040
422.425000	0.236762
422.607000	-0.006268
422.788000	-0.069498
422.969000	-0.128396
423.150000	-0.132853
423.332000	-0.192606
423.513000	-0.007929
423.694000	0.024951
423.876000	0.068925
424.057000	0.138908
424.238000	0.148100
424.419000	0.152010
424.601000	0.026781
424.782000	0.066711
424.963000	0.182450
425.145000	0.086205
425.326000	0.167542
425.507000	0.236859
425.688000	0.093050
425.870000	-0.048704
426.051000	-0.124110
426.232000	-0.102585
426.413000	-0.101457
426.595000	-0.100065
426.776000	-0.099158
426.957000	-0.025242
427.139000	0.031677
427.320000	0.066402
427.501000	0.220293
427.682000	0.210579
427.864000	0.178519
428.045000	0.288127
428.226000	0.231813
428.408000	-0.027083
428.589000	0.066382
428.770000	0.096415
428.951000	0.029099
429.133000	-0.115191
429.314000	0.021257
429.495000	0.009226
429.677000	0.013546
429.858000	0.029867
430.039000	0.098644
430.220000	0.180306
430.402000	0.228575
430.583000	0.010992
430.764000	0.043450
430.945000	0.160084
431.127000	0.255089
431.308000	0.126875
431.489000	0.182935
431.671000	0.233283
431.852000	0.194348
432.033000	0.111966
432.214000	0.154139
432.396000	0.197705
432.577000	0.072714
432.758000	-0.066449
432.940000	0.000679
433.121000	0.104973
433.302000	0.167163
433.483000	0.339737
433.665000	0.388022
433.846000	0.279948
434.027000	0.163328
434.208000	0.088591
434.390000	0.031768
434.571000	0.360530
434.752000	0.796860
434.934000	0.627324
435.115000	0.537362
435.296000	0.587930
435.477000	0.434429
435.659000	0.203358
435.840000	0.283826
436.026000	0.276421
436.211000	0.185117
436.397000	-0.060601
436.582000	0.014538
436.768000	0.210387
436.953000	0.131048
437.139000	0.162478
437.325000	0.408702
437.510000	0.336597
437.696000	0.497986
437.881000	0.502037
438.067000	0.177768
438.252000	0.182714
438.438000	0.156135
438.624000	0.180188
438.809000	0.284027
438.995000	0.334726
439.180000	0.263743
439.366000	0.255528
439.551000	0.252807
439.737000	0.283951
439.923000	0.345338
440.108000	0.264163
440.294000	0.307537
440.479000	0.428301
440.665000	0.472382
440.850000	0.430923
441.036000	0.426457
441.222000	0.379009
441.407000	0.274873
441.593000	0.404017
441.778000	0.500606
441.964000	0.545495
442.149000	0.277826
442.335000	0.264103
442.521000	0.378479
442.706000	0.516441
442.892000	0.463320
443.077000	0.434945
443.263000	0.512612
443.448000	0.432709
443.634000	0.376681
443.820000	0.728294
444.005000	0.577388
444.191000	0.368000
444.376000	0.421307
444.562000	0.764173
444.747000	0.734268
444.933000	0.618004
445.119000	0.529604
445.304000	0.459813
445.490000	0.610386
445.675000	0.631042
445.861000	0.497000
446.046000	0.526591
446.232000	0.614034
446.418000	0.651414
446.603000	0.632685
446.789000	0.626785
446.974000	0.647370
447.160000	0.481136
447.345000	0.562358
447.531000	0.545576
447.717000	0.677800
447.902000	0.764415
448.088000	0.848441
448.273000	0.722736
448.459000	0.649872
448.644000	0.614049
448.830000	0.552620
449.016000	0.483306
449.201000	0.558771
449.387000	0.662282
449.572000	0.717183
449.758000	0.653223
449.943000	0.578745
450.129000	0.530782
450.315000	0.556979
450.500000	0.554520
450.686000	0.621129
450.871000	0.517711
451.057000	0.670001
451.243000	0.667021
451.428000	0.631091
451.614000	0.622248
451.799000	0.577080
451.985000	0.780162
452.170000	0.786753
452.356000	0.602979
452.542000	0.575086
452.727000	0.685183
452.913000	0.560304
453.098000	0.722871
453.284000	0.874173
453.469000	0.708054
453.655000	0.753666
453.841000	0.694756
454.026000	0.569494
454.212000	0.617917
454.397000	0.588241
454.583000	0.407254
454.768000	0.345278
454.954000	0.572817
455.140000	0.571121
455.325000	0.413257
455.511000	0.350742
455.696000	0.361651
455.882000	0.479481
456.067000	0.613607
456.253000	0.439933
456.439000	0.345062
456.624000	0.351861
456.810000	0.337226
456.995000	0.367934
457.181000	0.303743
457.366000	0.449437
457.552000	0.446169
457.738000	0.550902
457.923000	0.568255
458.109000	0.612846
458.294000	0.521589
458.480000	0.510798
458.665000	0.489330
458.851000	0.378228
459.037000	0.229469
459.222000	0.370794
459.408000	0.360911
459.593000	0.391514
459.779000	0.486283
459.964000	0.615630
460.150000	0.768652
460.336000	0.635067
460.521000	0.449247
460.707000	0.364660
460.892000	0.290995
461.078000	0.466487
461.263000	0.508081
461.449000	0.354728
461.635000	0.381455
461.820000	0.391097
462.006000	0.451597
462.191000	0.467142
462.377000	0.299717
462.562000	0.463814
462.748000	0.598585
462.934000	0.316763
463.119000	0.206507
463.305000	0.364377
463.490000	0.302266
463.676000	0.366253
463.861000	0.356931
464.047000	0.293190
464.233000	0.350760
464.418000	0.341601
464.604000	0.279529
464.789000	0.405844
464.975000	0.428084
465.160000	0.341266
465.346000	0.355205
465.532000	0.233060
465.717000	0.216532
465.903000	0.458709
466.088000	0.396413
466.274000	0.203471
466.459000	0.170290
466.645000	0.498461
466.831000	0.484027
467.016000	0.462650
467.202000	0.358681
467.387000	0.273872
467.573000	0.133668
467.758000	0.384405
467.944000	0.302479
468.130000	0.194035
468.315000	0.320781
468.501000	0.417419
468.686000	0.335338
468.872000	0.354573
469.057000	0.423027
469.243000	0.333854
469.429000	0.275564
469.614000	0.196604
469.800000	0.139364
469.985000	0.277336
470.171000	0.354067
470.356000	0.255681
470.542000	0.334358
470.728000	0.336486
470.913000	0.260380
471.099000	0.348938
471.284000	0.278482
471.470000	0.219003
471.655000	0.251286
471.841000	0.262955
472.027000	0.211954
472.212000	0.361047
472.398000	0.384511
472.583000	0.287838
472.769000	0.309406
472.954000	0.270867
473.140000	0.129235
473.326000	0.099962
473.511000	0.398775
473.697000	0.394016
473.882000	0.247308
474.068000	0.181363
474.253000	0.117727
474.439000	0.180216
474.625000	0.218509
474.810000	0.241593
474.996000	0.265175
475.181000	0.112126
475.367000	0.248135
475.552000	0.442065
475.738000	0.170395
475.924000	0.163575
476.109000	0.253184
476.295000	0.172110
476.480000	0.228012
476.666000	0.204755
476.851000	0.207917
477.037000	0.253726
477.223000	0.143986
477.408000	0.075879
477.594000	0.026055
477.779000	0.165177
477.965000	0.184265
478.151000	0.079910
478.336000	0.188994
478.522000	0.137443
478.707000	0.115813
478.893000	0.185631
479.078000	0.047904
479.264000	0.067662
479.450000	0.134194
479.635000	0.231332
479.821000	0.160596
480.006000	0.211157
480.192000	0.219506
480.377000	0.237118
480.563000	0.223060
480.749000	0.080902
480.934000	0.099242
481.120000	0.204444
481.305000	0.258509
481.491000	0.243126
481.676000	0.291117
481.862000	0.299714
482.048000	0.154895
482.233000	0.203264
482.419000	0.205696
482.604000	0.138763
482.790000	0.138766
482.975000	0.202808
483.161000	0.366432
483.347000	0.314031
483.532000	0.253085
483.718000	0.082140
483.903000	0.164642
484.089000	0.180025
484.274000	0.070111
484.460000	0.226147
484.646000	0.248532
484.831000	0.117707
485.017000	0.161963
485.202000	0.221261
485.388000	0.427959
485.573000	0.417317
485.759000	0.261844
485.945000	0.406014
486.130000	0.245990
486.316000	0.225785
486.501000	0.317274
486.687000	0.188348
486.872000	0.145436
487.058000	0.291197
487.244000	0.280266
487.429000	0.119132
487.615000	0.287326
487.800000	0.373305
487.986000	0.253074
488.171000	0.351270
488.357000	0.317007
488.543000	0.312621
488.728000	0.346982
488.914000	0.294169
489.099000	0.208018
489.285000	0.198180
489.470000	0.351682
489.656000	0.384831
489.842000	0.355733
490.027000	0.410371
490.213000	0.285327
490.398000	0.053889
490.584000	0.306187
490.769000	0.282476
490.955000	0.303100
491.141000	0.358602
491.326000	0.328724
491.512000	0.425846
491.697000	0.337417
491.883000	0.210606
492.068000	0.174448
492.254000	0.211644
492.440000	0.278253
492.625000	0.227365
492.811000	0.212992
492.996000	0.315008
493.182000	0.288824
493.367000	0.121717
493.553000	0.092702
493.739000	0.167597
493.924000	0.256165
494.110000	0.269827
494.295000	0.187452
494.481000	0.264942
494.666000	0.289644
494.852000	0.451720
495.038000	0.301739
495.223000	0.172985
495.409000	0.242661
495.594000	0.219245
495.780000	0.258059
495.965000	0.188233
496.151000	0.347386
496.337000	0.413877
496.522000	0.224425
496.708000	0.275182
496.893000	0.395645
497.079000	0.243339
497.264000	0.237902
497.450000	0.292706
497.636000	0.331554
497.821000	0.217109
498.007000	0.442424
498.192000	0.460890
498.378000	0.295278
498.563000	0.241872
498.749000	0.306883
498.935000	0.300202
499.120000	0.344134
499.306000	0.215422
499.491000	0.203070
499.677000	0.298999
499.862000	0.375353
500.048000	0.430814
500.234000	0.332202
500.419000	0.290491
500.605000	0.417190
500.790000	0.322780
500.976000	0.224838
501.161000	0.173692
501.347000	0.301395
501.533000	0.384496
501.718000	0.303279
501.904000	0.251531
502.089000	0.335708
502.275000	0.424658
502.460000	0.299644
502.646000	0.346065
502.832000	0.403565
503.017000	0.390646
503.203000	0.191159
503.388000	0.161540
503.574000	0.333609
503.759000	0.381629
503.945000	0.417954
504.131000	0.350985
504.316000	0.304486
504.502000	0.340893
504.687000	0.321727
504.873000	0.201380
505.058000	0.187546
505.244000	0.186874
505.430000	0.241922
505.615000	0.308326
505.801000	0.344829
505.986000	0.217020
506.172000	0.296277
506.358000	0.307652
506.543000	0.276032
506.729000	0.465659
506.914000	0.436403
507.100000	0.466379
507.285000	0.293437
507.471000	0.236743
507.657000	0.469122
507.842000	0.326188
508.028000	0.177063
508.213000	0.227622
508.399000	0.284037
508.584000	0.385498
508.770000	0.280641
508.956000	0.236997
509.141000	0.316180
509.327000	0.365840
509.512000	0.299096
509.698000	0.329391
509.883000	0.428995
510.069000	0.349075
510.255000	0.316019
510.440000	0.407214
510.626000	0.348842
510.811000	0.268697
510.997000	0.344297
511.182000	0.583675
511.368000	0.492131
511.554000	0.186259
511.739000	0.231584
511.925000	0.407865
512.110000	0.409401
512.296000	0.480990
512.481000	0.467591
512.667000	0.405880
512.853000	0.247496
513.038000	0.290885
513.224000	0.287101
513.409000	0.228603
513.595000	0.332581
513.780000	0.184473
513.966000	0.243061
514.152000	0.271969
514.337000	0.236127
514.523000	0.250274
514.708000	0.304518
514.894000	0.376251
515.079000	0.283623
515.265000	0.282665
515.451000	0.297605
515.636000	0.216890
515.822000	0.333220
516.007000	0.248148
516.193000	0.356781
516.378000	0.436770
516.564000	0.363961
516.750000	0.369244
516.935000	0.425542
517.121000	0.424816
517.306000	0.507817
517.492000	0.445881
517.677000	0.249741
517.863000	0.246559
518.049000	0.346117
518.234000	0.252905
518.420000	0.339177
518.605000	0.558725
518.791000	0.550052
518.976000	0.394694
519.162000	0.275546
519.348000	0.383697
519.533000	0.383786
519.719000	0.472810
519.904000	0.383313
520.090000	0.408392
520.275000	0.597539
520.461000	0.532616
520.647000	0.330343
520.832000	0.194792
521.018000	0.302512
521.203000	0.304105
521.389000	0.155428
521.574000	0.249276
521.760000	0.410703
521.946000	0.362631
522.131000	0.305139
522.317000	0.334499
522.502000	0.284442
522.688000	0.370172
522.873000	0.337417
523.059000	0.337006
523.245000	0.346425
523.430000	0.223403
523.616000	0.260368
523.801000	0.202170
523.987000	0.252710
524.172000	0.349116
524.358000	0.384466
524.544000	0.372123
524.729000	0.469144
524.915000	0.479377
525.100000	0.353668
525.286000	0.429094
525.471000	0.439450
525.657000	0.425519
525.843000	0.208034
526.028000	0.373914
526.214000	0.328591
526.399000	0.225779
526.585000	0.206119
526.770000	0.186392
526.956000	0.287595
527.142000	0.233563
527.327000	0.346530
527.513000	0.259856
527.698000	0.250238
527.884000	0.282974
528.069000	0.263878
528.255000	0.368907
528.441000	0.262550
528.626000	0.299952
528.812000	0.516449
528.997000	0.382924
529.183000	0.299522
529.368000	0.344397
529.554000	0.335918
529.740000	0.371170
529.925000	0.315408
530.111000	0.317777
530.296000	0.348601
530.482000	0.456973
530.667000	0.402364
530.853000	0.421974
531.039000	0.356245
531.224000	0.401920
531.410000	0.503647
531.595000	0.423382
531.781000	0.422762
531.967000	0.276489
532.152000	0.476151
532.338000	0.402400
532.523000	0.237547
532.709000	0.199475
532.894000	0.334655
533.080000	0.394488
533.266000	0.277147
533.451000	0.234603
533.637000	0.269210
533.822000	0.448677
534.008000	0.299752
534.193000	0.341330
534.379000	0.420928
534.565000	0.323192
534.750000	0.281310
534.936000	0.528866
535.121000	0.395109
535.307000	0.400136
535.492000	0.383380
535.678000	0.217196
535.864000	0.353132
536.049000	0.542410
536.235000	0.379179
536.420000	0.411311
536.606000	0.369366
536.791000	0.267600
536.977000	0.267520
537.163000	0.509419
537.348000	0.511643
537.534000	0.510498
537.719000	0.338329
537.905000	0.246835
538.090000	0.468824
538.276000	0.503709
538.462000	0.473560
538.647000	0.501167
538.833000	0.403722
539.018000	0.496829
539.204000	0.476713
539.389000	0.355586
539.575000	0.644524
539.761000	0.563267
539.946000	0.304900
540.132000	0.434695
540.317000	0.323896
540.503000	0.436885
540.688000	0.473780
540.874000	0.728815
541.060000	0.866333
541.245000	0.682036
541.431000	0.494725
541.616000	0.557080
541.802000	0.587258
541.987000	0.636098
542.173000	0.641850
542.359000	0.586894
542.544000	0.699794
542.730000	0.528353
542.915000	0.512916
543.101000	0.689636
543.286000	0.550309
543.472000	0.449201
543.658000	0.531366
543.843000	0.536904
544.029000	0.744813
544.214000	0.618332
544.400000	0.321336
544.585000	0.530031
544.771000	0.601893
544.957000	0.761748
545.142000	0.839574
545.328000	0.938104
545.513000	0.963979
545.699000	0.898045
545.884000	0.728070
546.070000	0.679023
546.261000	0.646719
546.451000	0.457718
546.642000	0.235720
546.833000	0.375282
547.023000	0.306072
547.214000	0.313460
547.405000	0.467117
547.595000	0.754437
547.786000	0.714081
547.977000	0.466374
548.167000	0.309051
548.358000	0.362922
548.549000	0.734053
548.740000	0.539329
548.930000	0.229460
549.121000	0.327795
549.312000	0.314657
549.502000	0.254101
549.693000	0.361112
549.884000	0.427914
550.074000	0.533430
550.265000	0.359729
550.456000	0.413312
550.646000	0.480790
550.837000	0.485513
551.028000	0.349293
551.218000	0.423093
551.409000	0.339733
551.600000	0.426221
551.790000	0.524567
551.981000	0.298081
552.172000	0.314316
552.362000	0.633153
552.553000	0.651195
552.744000	0.457237
552.934000	0.478948
553.125000	0.404601
553.316000	0.334254
553.506000	0.596532
553.697000	0.482889
553.888000	0.527745
554.079000	0.617772
554.269000	0.584754
554.460000	0.321124
554.651000	0.313015
554.841000	0.172549
555.032000	0.252732
555.223000	0.396201
555.413000	0.546302
555.604000	0.479901
555.795000	0.389610
555.985000	0.492552
556.176000	0.437845
556.367000	0.161207
556.557000	0.261177
556.748000	0.367955
556.939000	0.373072
557.129000	0.268635
557.320000	0.369201
557.511000	0.361894
557.701000	0.410405
557.892000	0.447117
558.083000	0.575374
558.273000	0.499736
558.464000	0.334061
558.655000	0.313905
558.845000	0.392218
559.036000	0.518044
559.227000	0.487252
559.418000	0.533576
559.608000	0.540933
559.799000	0.271925
559.990000	0.287396
560.180000	0.357410
560.371000	0.183595
560.562000	0.188961
560.752000	0.370921
560.943000	0.274974
561.134000	0.093793
561.324000	0.334918
561.515000	0.601320
561.706000	0.444413
561.896000	0.201975
562.087000	0.326087
562.278000	0.287645
562.468000	0.155097
562.659000	0.261023
562.850000	0.609382
563.040000	0.673792
563.231000	0.215618
563.422000	0.295919
563.612000	0.207689
563.803000	0.311525
563.994000	0.270212
564.185000	0.193953
564.375000	0.392241
564.566000	0.400085
564.757000	0.368754
564.947000	0.274802
565.138000	0.434429
565.329000	0.376459
565.519000	0.201386
565.710000	0.285431
565.901000	0.470946
566.091000	0.548910
566.282000	0.394145
566.473000	0.403005
566.663000	0.429995
566.854000	0.245050
567.045000	0.319883
567.235000	0.392554
567.426000	0.426944
567.617000	0.468870
567.807000	0.414718
567.998000	0.420203
568.189000	0.347793
568.379000	0.455096
568.570000	0.476069
568.761000	0.398704
568.951000	0.378337
569.142000	0.341122
569.333000	0.287227
569.524000	0.197568
569.714000	0.135816
569.905000	0.034655
570.096000	0.376666
570.286000	0.487635
570.477000	0.649956
570.668000	0.473415
570.858000	0.402311
571.049000	0.301737
571.240000	0.252282
571.430000	0.457195
571.621000	0.389459
571.812000	0.427379
572.002000	0.451004
572.193000	0.329974
572.384000	0.407947
572.574000	0.460978
572.765000	0.411915
572.956000	0.350317
573.146000	0.497905
573.337000	0.385090
573.528000	0.414943
573.718000	0.547810
573.909000	0.571350
574.100000	0.474973
574.290000	0.357854
574.481000	0.360497
574.672000	0.363496
574.863000	0.476203
575.053000	0.361360
575.244000	0.465628
575.435000	0.334540
575.625000	0.312662
575.816000	0.355575
576.007000	0.443877
576.197000	0.426718
576.388000	0.435223
576.579000	0.568027
576.769000	0.569058
576.960000	0.288876
577.155000	0.157440
577.350000	0.426620
577.545000	0.550181
577.740000	0.357545
577.935000	0.555776
578.130000	0.543657
578.326000	0.315124
578.521000	0.519237
578.716000	0.555020
578.911000	0.350484
579.106000	0.511859
579.301000	0.566282
579.496000	0.363421
579.691000	0.145802
579.886000	0.332720
580.081000	0.422039
580.276000	0.458478
580.471000	0.367990
580.666000	0.284417
580.861000	0.256681
581.057000	0.254408
581.252000	0.347209
581.447000	0.300165
581.642000	0.355957
581.837000	0.366034
582.032000	0.373899
582.227000	0.589062
582.422000	0.555827
582.617000	0.398943
582.812000	0.296603
583.007000	0.297239
583.202000	0.245758
583.397000	0.478854
583.592000	0.687808
583.788000	0.458338
583.983000	0.450020
584.178000	0.512280
584.373000	0.364770
584.568000	0.325632
584.763000	0.258532
584.958000	0.199725
585.153000	0.320462
585.348000	0.353976
585.543000	0.486099
585.738000	0.463928
585.933000	0.255468
586.128000	0.491316
586.324000	0.486314
586.519000	0.478107
586.714000	0.573586
586.909000	0.631296
587.104000	0.593111
587.299000	0.475620
587.494000	0.465534
587.689000	0.422312
587.884000	0.450463
588.079000	0.378548
588.274000	0.404591
588.469000	0.411686
588.664000	0.496921
588.859000	0.510321
589.055000	0.484721
589.250000	0.449225
589.445000	0.346427
589.640000	0.377734
589.835000	0.627446
590.030000	0.709376
590.225000	0.664056
590.420000	0.423036
590.615000	0.356282
590.810000	0.416556
591.005000	0.407840
591.200000	0.335035
591.395000	0.308526
591.591000	0.435259
591.786000	0.494874
591.981000	0.392065
592.176000	0.473237
592.371000	0.523271
592.566000	0.461025
592.761000	0.587084
592.956000	0.585663
593.151000	0.686595
593.346000	0.539139
593.541000	0.516807
593.736000	0.509499
593.931000	0.376989
594.126000	0.448875
594.322000	0.492625
594.517000	0.425266
594.712000	0.288445
594.907000	0.254498
595.102000	0.391699
595.297000	0.532292
595.492000	0.595434
595.687000	0.393882
595.882000	0.340915
596.077000	0.484992
596.272000	0.626643
596.467000	0.611273
596.662000	0.457631
596.857000	0.490759
597.053000	0.509737
597.248000	0.512815
597.443000	0.525057
597.638000	0.483277
597.833000	0.276587
598.028000	0.435954
598.223000	0.537965
598.418000	0.483272
598.613000	0.411782
598.808000	0.498541
599.003000	0.488262
599.198000	0.340582
599.393000	0.371296
599.589000	0.476700
599.784000	0.323258
599.979000	0.446768
600.174000	0.610396
600.369000	0.388017
600.564000	0.447284
600.759000	0.686504
600.954000	0.750796
601.149000	0.594868
601.344000	0.325876
601.539000	0.528692
601.734000	0.424388
601.929000	0.191532
602.124000	0.263534
602.320000	0.523918
602.515000	0.749251
602.710000	0.670186
602.905000	0.346839
603.100000	0.299692
603.295000	0.369831
603.490000	0.452591
603.685000	0.493525
603.880000	0.516285
604.075000	0.325353
604.270000	0.349160
604.465000	0.431883
604.660000	0.221596
604.856000	0.372020
605.051000	0.534757
605.246000	0.493203
605.441000	0.301556
605.636000	0.239050
605.831000	0.380366
606.026000	0.305506
606.221000	0.291307
606.416000	0.449227
606.611000	0.591872
606.806000	0.566363
607.001000	0.712786
607.196000	0.514118
607.391000	0.333373
607.587000	0.491635
607.782000	0.478413
607.977000	0.331970
608.172000	0.634084
608.367000	0.636677
608.562000	0.466682
608.757000	0.434375
608.952000	0.413609
609.147000	0.714999
609.342000	0.604568
609.537000	0.445922
609.732000	0.471984
609.927000	0.416074
610.122000	0.535667
610.318000	0.866936
610.513000	0.964560
610.708000	0.798219
610.903000	0.905274
611.098000	0.975789
611.293000	0.880192
611.488000	0.867997
611.683000	0.844846
611.878000	0.783406
612.073000	0.788918
612.268000	0.739467
612.463000	0.823392
612.658000	0.779174
612.854000	0.708118
613.049000	0.637486
613.244000	0.729253
613.439000	0.777472
613.634000	0.468820
613.829000	0.601594
614.024000	0.516467
614.219000	0.497656
614.414000	0.735460
614.609000	0.510348
614.804000	0.376333
614.999000	0.386712
615.194000	0.456697
615.389000	0.487728
615.585000	0.321496
615.780000	0.493528
615.975000	0.454866
616.170000	0.463309
616.365000	0.649727
616.560000	0.776844
616.755000	0.676798
616.950000	0.576452
617.145000	0.655026
617.340000	0.535749
617.535000	0.276862
617.730000	0.453698
617.925000	0.331442
618.120000	0.264107
618.316000	0.570650
618.511000	0.514500
618.706000	0.348431
618.901000	0.426190
619.096000	0.534584
619.291000	0.437556
619.486000	0.519203
619.681000	0.250942
619.876000	0.204691
620.071000	0.352658
620.266000	0.571106
620.461000	0.650973
620.656000	0.564832
620.852000	0.541845
621.047000	0.434312
621.242000	0.274644
621.437000	0.580668
621.632000	0.705444
621.827000	0.551526
622.022000	0.281974
622.217000	0.426547
622.412000	0.559684
622.607000	0.565879
622.802000	0.358853
622.997000	0.327951
623.192000	0.469759
623.387000	0.524713
623.583000	0.291684
623.778000	0.530056
623.973000	0.529455
624.168000	0.578367
624.363000	0.623156
624.558000	0.618501
624.753000	0.329753
624.948000	0.607279
625.143000	0.623061
625.338000	0.486764
625.533000	0.413896
625.728000	0.521103
625.923000	0.656177
626.119000	0.540011
626.314000	0.328104
626.509000	0.315553
626.704000	0.391161
626.899000	0.401218
627.094000	0.331698
627.289000	0.304170
627.484000	0.378223
627.679000	0.339414
627.874000	0.342792
628.069000	0.660284
628.264000	0.597914
628.459000	0.483347
628.654000	0.423779
628.850000	0.290025
629.045000	0.384232
629.240000	0.376701
629.435000	0.324694
629.630000	0.469204
629.825000	0.438427
630.020000	0.477017
630.215000	0.308478
630.410000	0.333692
630.605000	0.339968
630.800000	0.410940
630.995000	0.551222
631.190000	0.806605
631.385000	0.630151
631.581000	0.458012
631.776000	0.501637
631.971000	0.336449
632.166000	0.375155
632.361000	0.241832
632.556000	0.352708
632.751000	0.543083
632.946000	0.418080
633.141000	0.333603
633.336000	0.361731
633.531000	0.469506
633.726000	0.427955
633.921000	0.251431
634.117000	0.101701
634.312000	0.014220
634.507000	0.113260
634.702000	0.266401
634.897000	0.287477
635.092000	0.387842
635.287000	0.486355
635.482000	0.331271
635.677000	0.441907
635.872000	0.538940
636.067000	0.613351
636.262000	0.428963
636.457000	0.145056
636.652000	0.169345
636.848000	0.163422
637.043000	0.226242
637.238000	0.227890
637.433000	0.130835
637.628000	0.255531
637.823000	0.408307
638.018000	0.449388
638.213000	0.351556
638.408000	0.307206
638.603000	0.195795
638.798000	0.134205
638.993000	0.232797
639.188000	0.271370
639.383000	0.253408
639.579000	0.531083
639.774000	0.356759
639.969000	0.241085
640.164000	0.150270
640.359000	0.129987
640.554000	0.390897
640.749000	0.456798
640.944000	0.446962
641.139000	0.394185
641.334000	0.250921
641.529000	-0.078312
641.724000	0.062770
641.919000	0.181524
642.115000	0.468864
642.310000	0.527018
642.505000	0.371113
642.700000	0.291057
642.895000	0.218629
643.090000	0.393584
643.285000	0.515074
643.480000	0.437298
643.675000	0.488155
643.870000	0.809075
644.065000	0.591407
644.260000	0.263023
644.455000	0.330827
644.650000	0.254211
644.846000	0.313955
645.041000	0.105934
645.236000	-0.033476
645.431000	0.053061
645.626000	-0.117818
645.821000	0.084060
646.016000	0.181068
646.211000	0.561389
646.406000	0.451923
646.601000	0.406866
646.796000	0.291926
646.991000	0.045502
647.186000	0.158492
647.381000	0.343137
647.577000	0.343466
647.772000	0.520377
647.967000	0.432776
648.162000	0.352290
648.357000	0.335903
648.552000	0.542535
648.747000	0.431537
648.942000	0.428437
649.137000	0.356390
649.332000	0.194136
649.527000	0.233588
649.722000	0.397234
649.917000	0.521839
650.113000	0.288203
650.308000	0.181006
650.503000	0.206947
650.698000	0.377849
650.893000	0.276999
651.088000	0.355628
651.283000	0.444138
651.478000	0.202587
651.673000	0.426618
651.868000	0.232441
652.063000	0.398609
652.258000	0.575040
652.453000	0.762860
652.648000	0.382412
652.844000	0.279815
653.039000	0.354710
653.234000	0.035276
653.429000	-0.105788
653.624000	0.117862
653.819000	0.415722
654.014000	0.343400
654.209000	0.134587
654.404000	0.288693
654.599000	0.177488
654.794000	0.180639
654.989000	0.422660
655.184000	0.381511
655.380000	0.111887
655.575000	0.101496
655.770000	0.139876
655.965000	0.251098
656.160000	0.171272
656.355000	0.323011
656.550000	0.290301
656.745000	0.318408
656.940000	0.259311
657.135000	0.310446
657.330000	0.264010
657.525000	0.085969
657.720000	0.286833
657.915000	0.419476
658.111000	0.297174
658.306000	0.466659
658.501000	0.279375
658.696000	0.112033
658.891000	0.300452
659.086000	0.212618
659.281000	0.292622
659.476000	0.149920
659.671000	-0.233657
659.866000	0.029103
660.061000	0.352050
660.256000	0.462645
660.451000	0.346645
660.646000	0.126925
660.842000	0.286206
661.037000	0.125940
661.232000	0.075342
661.427000	0.201539
661.622000	0.145167
661.817000	0.083673
662.012000	0.227243
662.207000	0.118323
662.402000	0.086529
662.597000	0.255484
662.792000	-0.075101
662.987000	-0.078602
663.182000	0.203225
663.378000	0.191480
663.573000	-0.133936
663.768000	-0.125319
663.963000	0.070122
664.158000	0.115333
664.353000	0.430441
664.548000	0.542706
664.743000	0.342179
664.938000	0.085955
665.133000	0.046522
665.328000	0.394823
665.523000	0.385972
665.718000	0.277720
665.913000	0.193780
666.109000	0.194214
666.304000	0.416312
666.499000	0.244707
666.694000	0.259924
666.889000	0.551490
667.084000	0.305686
667.279000	0.209654
667.474000	0.217056
667.669000	0.254627
667.864000	0.226981
668.059000	0.301561
668.254000	0.260515
668.449000	0.105885
668.644000	0.202440
668.840000	0.481417
669.035000	0.163387
669.230000	-0.098267
669.425000	0.275629
669.620000	0.135843
669.815000	0.052664
670.010000	0.068596
670.205000	0.216294
670.400000	0.257666
670.595000	0.239971
670.790000	0.146545
670.985000	0.214614
671.180000	0.457147
671.376000	0.092551
671.571000	0.012152
671.766000	0.020881
671.961000	-0.056201
672.156000	-0.082415
672.351000	0.088162
672.546000	0.054656
672.741000	0.202707
672.936000	0.250350
673.131000	0.647325
673.326000	0.336974
673.521000	0.017315
673.716000	-0.055457
673.911000	-0.191099
674.107000	0.373356
674.302000	0.590130
674.497000	0.284564
674.692000	0.046410
674.887000	-0.030624
675.082000	0.097333
675.277000	0.313223
675.472000	0.220865
675.667000	0.104111
675.862000	0.107984
676.057000	0.133541
676.252000	0.181071
676.447000	0.121351
676.643000	0.300315
676.838000	0.438000
677.033000	0.187099
677.228000	0.531055
677.423000	0.477313
677.618000	0.052662
677.813000	-0.067337
678.008000	0.175743
678.203000	0.276978
678.398000	0.019208
678.593000	0.154238
678.788000	0.321460
678.983000	0.041369
679.178000	0.081739
679.374000	0.051878
679.569000	0.132979
679.764000	0.054764
679.959000	-0.088253
680.154000	-0.048864
680.349000	-0.213797
680.544000	-0.120050
680.739000	0.007639
680.934000	-0.056953
681.129000	-0.050502
681.324000	-0.088952
681.519000	0.090029
681.714000	0.058181
681.909000	-0.012206
682.105000	-0.089406
682.300000	0.209424
682.495000	0.333464
682.690000	0.354292
682.885000	0.288964
683.080000	0.060155
683.275000	0.097801
683.470000	0.424769
683.665000	0.545676
683.860000	0.553368
684.055000	0.346965
684.250000	0.018664
684.445000	-0.023225
684.641000	0.305811
684.836000	0.144884
685.031000	0.201229
685.226000	0.227404
685.421000	0.374332
685.616000	0.122772
685.811000	0.086064
686.006000	0.353270
686.201000	0.222014
686.396000	-0.138016
686.591000	-0.059624
686.786000	0.407522
686.981000	0.248573
687.176000	0.170184
687.372000	0.092680
687.567000	0.431404
687.762000	0.317067
687.957000	0.187617
688.152000	0.055512
688.347000	0.163204
688.542000	-0.061914
688.737000	-0.375520
688.932000	-0.398598
689.127000	0.008146
689.322000	0.246203
689.517000	0.034923
689.712000	-0.123228
689.908000	-0.017258
690.103000	-0.027213
690.298000	0.094694
690.493000	0.113419
690.688000	-0.097052
690.883000	0.026845
691.078000	0.356819
691.273000	0.419716
691.468000	0.158594
691.663000	0.095978
691.858000	0.241137
692.053000	0.248312
692.248000	0.334873
692.443000	0.281638
692.639000	0.208713
692.834000	0.420197
693.029000	0.868461
693.224000	0.656180
693.419000	0.133451
693.614000	0.033207
693.809000	-0.051305
694.004000	-0.121496
694.199000	-0.114165
694.394000	0.168166
694.589000	-0.088278
694.784000	-0.138276
694.979000	0.092187
695.174000	0.107137
695.370000	0.621169
695.565000	0.303093
695.760000	0.015942
695.955000	0.431775
696.150000	0.437832
696.345000	0.013076
696.540000	0.197673
696.740000	0.059201
696.940000	0.298910
697.140000	0.349827
697.340000	0.103122
697.539000	0.260640
697.739000	0.208235
697.939000	0.197871
698.139000	-0.114518
698.339000	-0.403070
698.539000	-0.135988
698.739000	-0.180193
698.939000	-0.042816
699.138000	-0.083948
699.338000	0.624128
699.538000	0.579344
699.738000	0.086668
699.938000	0.072997
700.138000	-0.018663
700.338000	-0.210483
700.538000	0.016610
700.737000	0.136525
700.937000	-0.230240
701.137000	-0.268974
701.337000	0.152470
701.537000	0.290453
701.737000	0.174238
701.937000	0.033750
702.137000	0.061620
702.337000	-0.031327
702.536000	-0.140171
702.736000	-0.118557
702.936000	-0.293247
703.136000	0.232541
703.336000	0.216864
703.536000	0.027888
703.736000	-0.257960
703.936000	-0.199418
704.135000	-0.204019
704.335000	0.093967
704.535000	-0.115337
704.735000	-0.293686
704.935000	0.226329
705.135000	0.202125
705.335000	0.028246
705.535000	0.263275
705.735000	0.261642
705.934000	0.153604
706.134000	-0.046351
706.334000	-0.084648
706.534000	-0.123011
706.734000	-0.129487
706.934000	-0.199642
707.134000	-0.142274
707.334000	0.095584
707.533000	0.081348
707.733000	0.002880
707.933000	-0.107640
708.133000	0.222058
708.333000	0.274675
708.533000	0.001289
708.733000	0.373405
708.933000	0.144786
709.132000	-0.045556
709.332000	-0.001942
709.532000	-0.099252
709.732000	0.103317
709.932000	-0.339589
710.132000	-0.302064
710.332000	-0.455969
710.532000	0.084072
710.732000	0.251931
710.931000	-0.021498
711.131000	-0.054283
711.331000	0.128940
711.531000	-0.031470
711.731000	-0.006901
711.931000	0.113239
712.131000	0.129543
712.331000	0.144385
712.530000	0.030879
712.730000	-0.105725
712.930000	0.063874
713.130000	0.007930
713.330000	-0.135964
713.530000	0.071054
713.730000	0.770329
713.930000	0.351668
714.129000	-0.068336
714.329000	-0.180042
714.529000	0.117720
714.729000	0.332892
714.929000	0.147957
715.129000	-0.115491
715.329000	0.011359
715.529000	0.016438
715.729000	0.530380
715.928000	0.268206
716.128000	0.021497
716.328000	0.095674
716.528000	-0.012142
716.728000	0.153156
716.928000	-0.062753
717.128000	0.058836
717.328000	0.089253
717.527000	-0.066344
717.727000	-0.022362
717.927000	0.074440
718.127000	0.020066
718.327000	-0.376837
718.527000	-0.315349
718.727000	0.018407
718.927000	-0.036197
719.127000	-0.283199
719.326000	-0.077171
719.526000	0.237412
719.726000	0.080218
719.926000	-0.308306
720.126000	-0.229202
720.326000	-0.017549
720.526000	-0.113917
720.726000	0.030723
720.925000	0.243175
721.125000	-0.230901
721.325000	0.006579
721.525000	0.034365
721.725000	-0.111437
721.925000	-0.122195
722.125000	-0.146576
722.325000	0.333851
722.524000	0.099168
722.724000	-0.398912
722.924000	-0.472302
723.124000	-0.227869
723.324000	0.218643
723.524000	0.196045
723.724000	-0.325048
723.924000	-0.074332
724.124000	0.112417
724.323000	0.204307
724.523000	0.077209
724.723000	0.533148
724.923000	0.351296
725.123000	0.183616
725.323000	0.258372
725.523000	0.115051
725.723000	-0.096130
725.922000	-0.172591
726.122000	-0.060795
726.322000	-0.134038
726.522000	-0.184125
726.722000	0.332897
726.922000	0.145677
727.122000	0.146184
727.322000	0.412986
727.521000	0.112648
727.721000	-0.099161
727.921000	0.078686
728.121000	0.037358
728.321000	-0.291854
728.521000	-0.133853
728.721000	-0.041923
728.921000	0.346464
729.121000	0.909746
729.320000	0.356476
729.520000	0.012318
729.720000	-0.127379
729.920000	-0.080584
730.120000	-0.018549
730.320000	0.072555
730.520000	-0.162677
730.720000	-0.168678
730.919000	-0.141209
731.119000	0.201207
731.319000	-0.196763
731.519000	-0.308685
731.719000	-0.027917
731.919000	-0.248444
732.119000	-0.604101
732.319000	-0.561683
732.519000	-0.046555
732.718000	-0.274146
732.918000	-0.172553
733.118000	-0.020788
733.318000	0.189489
733.518000	-0.106480
733.718000	-0.593164
733.918000	-0.537554
734.118000	-0.294974
734.317000	-0.017224
734.517000	-0.200417
734.717000	-0.126240
734.917000	0.272632
735.117000	0.186221
735.317000	0.157908
735.517000	0.407749
735.717000	0.537819
735.916000	-0.161483
736.116000	-0.163237
736.316000	-0.086123
736.516000	0.016762
736.716000	0.014865
736.916000	-0.419445
737.116000	-0.227280
737.316000	0.353361
737.516000	0.250038
737.715000	0.192371
737.915000	-0.287723
738.115000	-0.344739
738.315000	-0.037171
738.515000	-0.282987
738.715000	-0.146413
738.915000	0.284251
739.115000	-0.180050
739.314000	-0.150622
739.514000	0.242408
739.714000	0.315651
739.914000	0.245699
740.114000	0.023275
740.314000	0.165413
740.514000	0.487905
740.714000	-0.178923
740.913000	-0.578472
741.113000	-0.402301
741.313000	-0.070035
741.513000	-0.052275
741.713000	0.003601
741.913000	0.023718
742.113000	-0.054590
742.313000	-0.519309
742.513000	-0.131257
742.712000	-0.038778
742.912000	-0.317575
743.112000	-0.192973
743.312000	-0.491761
743.512000	-0.266989
743.712000	-0.110650
743.912000	-0.601581
744.112000	-0.683810
744.311000	-0.706175
744.511000	-0.349821
744.711000	0.022253
744.911000	-0.332624
745.111000	-0.328905
745.311000	0.146553
745.511000	-0.157949
745.711000	-0.336529
745.911000	-0.093902
746.110000	-0.486775
746.310000	-0.554461
746.510000	-0.275797
746.710000	0.035209
746.910000	0.077193
747.110000	-0.334483
747.310000	-0.509758
747.510000	-0.332119
747.709000	-0.097687
747.909000	-0.032222
748.109000	0.303737
748.309000	0.040070
748.509000	-0.363326
748.709000	-0.476088
748.909000	-0.195346
749.109000	-0.249981
749.308000	0.057713
749.508000	-0.078242
749.708000	-0.069620
749.908000	0.148787
750.108000	0.131877
750.308000	-0.531524
750.508000	0.263605
750.708000	-0.292944
750.908000	-0.707035
751.107000	-0.075047
751.307000	0.591335
751.507000	0.050184
751.707000	-0.004836
751.907000	-0.108419
752.107000	0.023880
752.307000	-0.373159
752.507000	-0.300732
752.706000	-0.356099
752.906000	0.694553
753.106000	-0.130094
753.306000	-0.688788
753.506000	0.253603
753.706000	-0.151385
753.906000	-0.009463
754.106000	0.164243
754.305000	0.071836
754.505000	0.214715
754.705000	0.022318
754.905000	-0.041508
755.105000	0.134302
755.305000	-0.602000
755.505000	-0.413347
755.705000	-0.071657
755.905000	-0.154802
756.104000	-0.560718
756.304000	-0.941356
756.504000	-1.089239
756.704000	-0.023751
756.904000	0.122879
757.104000	-0.207298
757.304000	-0.223780
757.504000	0.196127
757.703000	-0.094067
757.903000	0.149650
758.103000	0.335641
758.303000	0.008957
758.503000	-0.142268
758.703000	-0.282358
758.903000	-0.438892
759.103000	-0.050379
759.303000	0.009074
759.502000	-0.081920
759.702000	0.064170
759.902000	-0.226705
760.102000	-0.171763
760.302000	-0.269163
760.502000	0.079156
760.702000	0.233943
760.902000	-0.044078
761.101000	-0.406105
761.301000	-0.657427
761.501000	-0.377741
761.701000	-0.512633
761.901000	-0.328989
762.101000	-0.081564
762.301000	-0.103675
762.501000	-0.386521
762.700000	-0.551328
762.900000	-0.487279
763.100000	-0.079656
763.300000	0.203184
763.500000	-0.164598
763.703000	-0.359815
763.905000	-0.617393
764.108000	0.154273
764.311000	-0.112849
764.513000	-0.322959
764.716000	-0.103404
764.919000	-0.096003
765.121000	-0.613953
765.324000	-0.704058
765.527000	-0.614014
765.729000	-0.439075
765.932000	0.248336
766.135000	0.141647
766.337000	-0.041144
766.540000	-0.217100
766.743000	0.037993
766.945000	-0.510347
767.148000	-0.968567
767.351000	-0.788712
767.553000	-0.103597
767.756000	-0.356525
767.958000	-0.666029
768.161000	-0.287090
768.364000	-0.549864
768.566000	-0.777001
768.769000	-0.248052
768.972000	0.075031
769.174000	-0.366366
769.377000	-0.930854
769.580000	-0.911828
769.782000	-0.139594
769.985000	-0.627021
770.188000	-1.457028
770.390000	-0.530858
770.593000	0.844289
770.796000	0.394365
770.998000	-0.064175
771.201000	-0.507568
771.404000	-0.154718
771.606000	-0.414220
771.809000	-0.347383
772.012000	-0.246470
772.214000	-0.966325
772.417000	-1.038670
772.620000	-0.117896
772.822000	-0.409114
773.025000	-0.602760
773.228000	-0.668530
773.430000	-0.553630
773.633000	-0.254634
773.836000	-0.092573
774.038000	0.002174
774.241000	-0.225997
774.444000	-0.365648
774.646000	0.563004
774.849000	0.029469
775.052000	-0.254262
775.254000	-0.033349
775.457000	-0.350122
775.659000	-0.323585
775.862000	-0.485218
776.065000	-0.252883
776.267000	0.307167
776.470000	0.507242
776.673000	-0.177299
776.875000	0.351205
777.078000	0.325760
777.281000	-0.544624
777.483000	-0.006126
777.686000	0.108249
777.889000	0.002234
778.091000	0.111541
778.294000	-0.831727
778.497000	-0.675876
778.699000	-0.477305
778.902000	-0.478936
779.105000	-0.301677
779.307000	0.517979
779.510000	-0.401639
779.713000	-0.199049
779.915000	-0.381775
780.118000	0.645837
780.321000	0.729312
780.523000	-0.172035
780.726000	-0.589509
780.929000	-0.692181
781.131000	-0.567310
781.334000	-0.985993
781.537000	-1.109753
781.739000	-0.101503
781.942000	-0.623940
782.145000	-1.158025
782.347000	-1.086189
782.550000	-0.665725
782.753000	-0.839845
782.955000	-0.701871
783.158000	-0.555442
783.361000	-0.278699
783.563000	-0.305097
783.766000	-0.423311
783.968000	1.184270
784.171000	1.056792
784.374000	-0.174868
784.576000	-0.269311
784.779000	0.052480
784.982000	0.367106
785.184000	-0.254015
785.387000	-0.030457
785.590000	0.458994
785.792000	0.472717
785.995000	0.263423
786.198000	0.077533
786.400000	-0.251083
786.603000	-0.245670
786.806000	-0.359525
787.008000	-0.214728
787.211000	-0.151942
787.414000	-0.768991
787.616000	-0.467041
787.819000	-0.388692
788.022000	-0.988952
788.224000	-0.396320
788.427000	-1.007320
788.630000	-0.542695
788.832000	-0.348278
789.035000	-0.774698
789.238000	-1.268808
789.440000	-1.009298
789.643000	0.083005
789.846000	-0.404403
790.048000	0.108351
790.251000	0.161320
790.454000	-0.283455
790.656000	0.501619
790.859000	-0.297666
791.062000	-0.742971
791.264000	-0.019404
791.467000	-0.830357
791.669000	-1.360351
791.872000	-0.481443
792.075000	-0.866356
792.277000	-0.534687
792.480000	-0.257994
792.683000	-0.713565
792.885000	-0.980675
793.088000	-0.818740
793.291000	-1.018645
793.493000	-1.036487
793.696000	-0.272496
793.899000	-0.003849
794.101000	-0.219234
794.304000	-0.425927
794.507000	-0.145843
794.709000	0.044651
794.912000	-0.513927
795.115000	-0.827380
795.317000	-0.537551
795.520000	-0.249035
795.723000	-0.361605
795.925000	-0.795904
796.128000	-1.083692
796.331000	-0.659201
796.533000	-1.063437
796.736000	-0.544673
796.939000	-0.319872
797.141000	-0.500743
797.344000	0.176195
797.547000	0.062763
797.749000	0.039451
797.952000	-0.484546
798.155000	-0.859012
798.357000	-1.083436
798.560000	-0.896200
798.763000	-0.153166
798.965000	-0.312136
799.168000	-0.380953
799.371000	-0.259024
799.573000	-0.563432
799.776000	-1.179105
799.978000	-1.190054
800.181000	-0.364705
800.384000	1.082738
800.586000	0.450937
800.789000	-1.027610
800.992000	-1.068238
801.194000	-1.132721
801.397000	-1.114888
801.600000	-1.021484
801.802000	0.117531
802.005000	-0.007674
802.208000	-1.284572
802.410000	-0.518002
802.613000	-0.362306
802.816000	-0.229166
803.018000	-0.846506
803.221000	-0.908108
803.424000	0.261111
803.626000	0.027640
803.829000	-0.398857
804.032000	0.305815
804.234000	0.925713
804.437000	-0.297734
804.640000	-0.322513
804.842000	-0.441513
805.045000	-0.933519
805.248000	-0.646604
805.450000	-0.498178
805.653000	-0.588398
805.856000	-0.776186
806.058000	0.250072
806.261000	-0.707538
806.464000	-0.752010
806.666000	-0.333133
806.869000	-0.618333
807.072000	-1.684243
807.274000	-1.906041
807.477000	-0.889603
807.679000	-0.510139
807.882000	-1.099578
808.085000	-0.924479
808.287000	-0.224451
808.490000	-1.009351
808.693000	-0.785771
808.895000	-0.554625
809.098000	-0.502474
809.301000	-0.534209
809.503000	-0.608214
809.706000	0.154780
809.909000	0.370956
810.111000	0.306905
810.314000	-0.084515
810.517000	-0.793833
810.719000	-1.000555
810.922000	-0.575590
811.125000	0.301325
811.327000	0.276127
811.530000	-0.398458
811.735000	-0.713984
811.940000	-0.804450
812.146000	-0.772913
812.351000	-0.276284
812.556000	-0.366706
812.761000	-0.906788
812.967000	-0.071381
813.172000	-0.094814
813.377000	-0.295540
813.582000	0.314949
813.788000	-0.088222
813.993000	-1.067112
814.198000	-0.222996
814.403000	-0.952559
814.609000	-0.383900
814.814000	-0.325502
815.019000	0.703431
815.224000	0.455115
815.429000	-0.729479
815.635000	-0.380424
815.840000	-0.360622
816.045000	-0.159202
816.250000	0.096814
816.456000	-1.072482
816.661000	-1.875628
816.866000	-1.362840
817.071000	-1.329183
817.277000	-2.068114
817.482000	-1.133394
817.687000	-0.389124
817.892000	-0.532570
818.097000	-0.088342
818.303000	0.411703
818.508000	0.922446
818.713000	7.915771
818.918000	4.158679
819.124000	0.472289
819.329000	-0.606323
819.534000	-0.802125
819.739000	-1.042596
819.945000	-0.822925
820.150000	-0.486674
820.355000	-0.526050
820.560000	-0.183962
820.766000	-0.316782
820.971000	-0.344373
821.176000	-1.774255
821.381000	-2.322796
821.586000	-1.227080
821.792000	0.319758
821.997000	-0.261076
822.202000	-0.617300
822.407000	-1.124264
822.613000	-1.349157
822.818000	-0.814583
823.023000	-0.460787
823.228000	-0.596015
823.434000	0.131266
823.639000	0.219835
823.844000	-0.744450
824.049000	0.162996
824.255000	0.367929
824.460000	-0.389289
824.665000	-0.832414
824.870000	0.236844
825.075000	0.097912
825.281000	0.066672
825.486000	0.801189
825.691000	-1.339754
825.896000	-2.347339
826.102000	-0.738038
826.307000	-0.511772
826.512000	-0.756337
826.717000	-0.506086
826.923000	-0.654908
827.128000	-0.471718
827.333000	-1.264497
827.538000	-0.411265
827.744000	0.111246
827.949000	-0.873352
828.154000	-0.572414
828.359000	0.326796
828.564000	-0.335023
828.770000	-0.667148
828.975000	0.657295
829.180000	-0.058067
829.385000	-1.604313
829.591000	-1.123729
829.796000	-0.485925
830.001000	-0.486853
830.206000	-1.207463
830.412000	-1.066420
830.617000	-0.948179
830.822000	0.246727
831.027000	-0.504955
831.232000	-1.054064
831.438000	-0.899484
831.643000	-0.349551
831.848000	-0.689989
832.053000	-0.534535
832.259000	-0.629178
832.464000	-2.247987
832.669000	-1.778206
832.874000	-1.472141
833.080000	-1.303927
833.285000	0.359012
833.490000	-0.091068
833.695000	-1.295432
833.901000	-0.967542
834.106000	-1.176810
834.311000	-0.974112
834.516000	-0.424531
834.721000	-0.822038
834.927000	0.225681
835.132000	-0.259164
835.337000	0.986498
835.542000	0.045769
835.748000	-1.319547
835.953000	-0.094803
836.158000	0.035508
836.363000	-0.142601
836.569000	-0.133139
836.774000	-1.080748
836.979000	-1.447695
837.184000	-1.796482
837.390000	-1.389998
837.595000	-0.801443
837.800000	-0.530531
838.005000	-0.248595
838.210000	-0.469414
838.416000	-1.087293
838.621000	-0.900568
838.826000	-1.013738
839.031000	-0.817549
839.237000	-1.273327
839.442000	-1.956435
839.647000	-2.090622
839.852000	-1.477237
840.058000	-1.272516
840.263000	-1.195441
840.468000	-2.025175
840.673000	-0.907583
840.878000	-0.752580
841.084000	-1.552207
841.289000	-0.714060
841.494000	1.858647
841.699000	1.683309
841.905000	0.368482
842.110000	0.696351
842.315000	-1.152743
842.520000	-0.848236
842.726000	-1.257609
842.931000	-1.537488
843.136000	-0.428437
843.341000	-1.938272
843.547000	-1.168013
843.752000	-0.896192
843.957000	-1.641826
844.162000	-1.490661
844.367000	-1.057301
844.573000	-0.279685
844.778000	-0.078010
844.983000	-0.172992
845.188000	-0.102422
845.394000	-1.599472
845.599000	-1.361788
845.804000	-1.137892
846.009000	-0.467508
846.215000	-1.625609
846.420000	-1.166374
846.625000	-0.319472
846.830000	0.218313
847.036000	-0.889740
847.241000	-1.275042
847.446000	-0.370406
847.651000	-0.915702
847.856000	-1.784397
848.062000	-1.239401
848.267000	0.048790
848.472000	-1.218960
848.677000	-2.349055
848.883000	-0.522589
849.088000	1.001198
849.293000	-0.529963
849.498000	-0.993686
849.704000	0.017862
849.909000	-0.864737
850.114000	-1.709060
850.319000	-0.334628
850.524000	-0.536286
850.730000	-0.792139
850.935000	-0.905962
851.140000	0.096578
851.345000	-0.014354
851.551000	-0.276166
851.756000	0.005264
851.961000	-0.938083
852.166000	-1.327991
852.372000	-0.914534
852.577000	-0.827895
852.782000	-1.102829
852.987000	0.454074
853.193000	-0.129051
853.398000	-0.559387
853.603000	-1.598355
853.808000	-2.104841
854.013000	-1.134427
854.219000	0.161773
854.424000	2.045699
854.629000	1.728801
854.834000	-0.848141
855.040000	-0.569512
855.245000	-0.104959
855.450000	-2.355691
855.655000	-3.286870
855.861000	-2.924908
856.066000	-1.910103
856.271000	-1.976436
856.476000	-0.220047
856.682000	-1.091725
856.887000	-3.637297
857.092000	-2.078352
857.297000	0.325961
857.502000	-0.243882
857.708000	-0.758793
857.913000	0.349278
858.118000	-0.297601
858.323000	-0.609991
858.529000	-0.457147
858.734000	-0.879066
858.939000	-0.947127
859.144000	-1.658337
859.350000	-2.505377
859.555000	-2.088484
859.760000	-0.413790
859.965000	0.292955
860.171000	-1.287771
860.376000	-0.097988
860.581000	-1.951611
860.786000	-4.112458
860.991000	-3.477276
861.197000	-2.364786
861.402000	-0.972102
861.607000	-1.439509
861.812000	-2.368172
862.018000	-2.377256
862.223000	-1.408356
862.428000	-0.835308
862.633000	0.365804
862.839000	-0.178659
863.044000	-1.298338
863.249000	-2.193133
863.454000	-0.257360
863.659000	-0.903494
863.865000	-1.650315
864.070000	-1.819168
864.275000	-2.355848
864.480000	-1.917267
864.686000	-3.586002
864.891000	-2.907936
865.096000	-0.566436
865.301000	-0.041446
865.507000	-0.226089
865.712000	-0.057721
865.917000	-0.929473
866.122000	0.030743
866.328000	-3.028277
866.533000	-2.928598
866.738000	0.283301
866.943000	0.267583
867.148000	0.687484
867.354000	-2.118327
867.559000	-3.210666
867.764000	-1.123657
867.969000	-0.536277
868.175000	-1.916421
868.380000	-2.198833
868.585000	-3.071668
868.790000	-1.260776
868.996000	-1.167716
869.201000	-2.441514
869.406000	-3.396448
869.611000	-2.523676
869.817000	-1.942143
870.022000	2.168196
870.227000	-0.035968
870.432000	-2.058571
870.637000	-0.535910
870.843000	-1.240967
871.048000	-1.354278
871.253000	0.111042
871.458000	-0.716719
871.664000	-2.660469
871.869000	-3.188124
872.074000	-2.356686
872.279000	-1.010533
872.485000	-1.417808
872.690000	-1.665455
872.895000	-1.923817
873.100000	-2.645453
873.306000	-2.584459
873.511000	-1.202117
873.716000	0.125761
873.921000	-1.547002
874.126000	-2.013757
874.332000	-1.279733
874.537000	-0.297495
874.742000	-0.360998
874.947000	-0.732458
875.153000	1.024979
875.358000	-0.469714
875.563000	-1.245177
875.768000	-3.803778
875.974000	-3.678019
876.179000	-0.417441
876.384000	-0.248645
876.589000	-1.869284
876.794000	-1.593385
877.000000	-2.381494
877.205000	-3.451760
877.410000	-0.743442
877.615000	-2.664944
877.821000	-4.628391
878.026000	-3.243020
878.231000	-3.290792
878.436000	-3.364343
878.642000	-2.731999
878.847000	-1.276856
879.052000	0.144935
879.257000	-1.799779
879.463000	-2.999156
879.668000	-2.277755
879.873000	-0.001987
880.078000	-2.491591
880.283000	-3.930888
880.489000	-4.230712
880.694000	-3.425782
880.899000	-1.398050
881.104000	-0.113761
881.310000	1.318373
881.515000	-0.032465
881.720000	1.259007
881.925000	2.012681
882.131000	2.636695
882.336000	0.441112
882.541000	-2.619707
882.746000	-2.956227
882.952000	-3.411557
883.157000	-2.709212
883.362000	-2.776184
883.567000	-3.492114
883.772000	-3.832219
883.978000	-2.859254
884.183000	-1.066673
884.388000	-1.489002
884.593000	-3.465823
884.799000	1.235860
885.004000	0.549814
885.209000	-1.453086
885.414000	-0.574063
885.620000	-3.208442
885.825000	-0.396274
886.030000	-0.854367
886.235000	-2.409558
886.440000	-1.465310
886.646000	-3.683231
886.851000	-4.014706
887.056000	-0.361046
887.261000	-0.899971
887.467000	-3.506371
887.672000	-0.989200
887.877000	-2.214248
888.082000	-4.309869
888.288000	-4.727894
888.493000	-6.978065
888.698000	-5.266339
888.903000	-1.807792
889.109000	-2.901260
889.314000	-0.013867
889.519000	-1.521917
889.724000	0.804709
889.929000	-0.867977
890.135000	-1.911909
890.340000	-1.797921
890.545000	-2.857649
890.750000	-4.277249
890.956000	-3.037558
891.161000	-0.739569
891.366000	-2.642749
891.571000	-1.272720
891.777000	-1.532928
891.982000	-0.085184
892.187000	-0.216250
892.392000	0.827381
892.598000	0.128750
892.803000	-0.423338
893.008000	-2.837879
893.213000	-2.974179
893.418000	-2.910670
893.624000	-3.179961
893.829000	-5.280389
894.034000	-2.434254
894.239000	-0.955520
894.445000	-3.537720
894.650000	-3.322762
894.855000	-2.995687
895.060000	-3.235625
895.266000	-3.478152
895.471000	-4.343474
895.676000	-0.980137
895.881000	-0.464330
896.087000	-1.937579
896.292000	-2.993130
896.497000	0.856132
896.702000	-1.222456
896.907000	-3.088567
897.113000	1.426090
897.318000	1.336916
897.523000	0.314205
897.728000	-1.681364
897.934000	-2.183039
898.139000	-1.845826
898.344000	0.074424
898.549000	-1.215637
898.755000	-2.380439
898.960000	-2.811232
899.165000	-4.815845
899.370000	-1.635576
899.575000	2.040520
899.781000	-2.130372
899.986000	-2.839769
900.191000	-1.284869
900.396000	-2.318625
900.602000	-1.560355
900.807000	-2.107691
901.012000	-1.986468
901.217000	-0.273276
901.423000	-2.523859
901.628000	-3.844455
901.833000	0.459500
902.038000	0.490472
902.244000	-2.981208
902.449000	-2.820101
902.654000	-2.710944
902.859000	-1.319045
903.064000	0.902141
903.270000	0.723750
903.475000	-3.568389
903.680000	-6.037163
903.885000	-5.057463
904.091000	-4.007916
904.296000	-5.373656
904.501000	-4.182464
904.706000	-3.308654
904.912000	1.038607
905.117000	-1.310236
905.322000	-4.615730
905.527000	-3.865530
905.733000	-3.124210
905.938000	-3.041025
906.143000	-3.552868
906.348000	-5.057088
906.553000	-1.275587
906.759000	-0.122691
906.964000	-1.055568
907.169000	-2.346823
907.374000	-5.042242
907.580000	-3.870835
907.785000	-3.474662
907.990000	11.817880
908.195000	8.233680
908.401000	-0.283838
908.606000	-7.373299
908.811000	-8.995196
909.016000	-2.146476
909.221000	-1.352858
909.427000	-2.560127
909.632000	-4.222607
909.837000	-4.043601
910.042000	-5.422093
910.248000	-6.806419
910.453000	-2.130347
910.658000	-3.242786
910.863000	-4.121988
911.069000	-5.432900
911.274000	-0.961705
911.479000	0.844592
911.684000	-5.783989
911.890000	-3.115421
912.095000	-2.968493
912.300000	-5.756616
912.506000	-4.645529
912.711000	-4.327418
912.917000	-1.046897
913.123000	-0.979347
913.328000	-1.898442
913.534000	-1.585536
913.740000	7.647151
913.946000	3.497845
914.151000	-3.606535
914.357000	-4.921480
914.563000	-0.778374
914.768000	-4.405190
914.974000	-5.814977
915.180000	-4.839221
915.385000	-3.713055
915.591000	-7.249897
915.797000	-2.525162
916.002000	0.922633
916.208000	-2.272228
916.414000	-4.870325
916.620000	-5.590803
916.825000	-2.121863
917.031000	-2.911342
917.237000	-8.384247
917.442000	-4.705673
917.648000	-5.356533
917.854000	-5.793967
918.059000	-0.196906
918.265000	0.343189
918.471000	-2.619896
918.676000	-5.879391
918.882000	-8.244465
919.088000	-6.462285
919.294000	-10.930425
919.499000	-6.857702
919.705000	-1.454769
919.911000	-3.127012
920.116000	-1.041917
920.322000	-6.829854
920.528000	-5.387101
920.733000	-7.233067
920.939000	-7.764940
921.145000	-6.620316
921.350000	-5.584854
921.556000	-3.563466
921.762000	-3.278152
921.968000	-3.969739
922.173000	-6.206988
922.379000	-8.276918
922.585000	-3.733578
922.790000	-4.876235
922.996000	-6.389358
923.202000	-8.004117
923.407000	-7.650612
923.613000	-4.876751
923.819000	-2.619318
924.024000	-3.028797
924.230000	-0.816082
924.436000	-3.452857
924.642000	4.451293
924.847000	1.202112
925.053000	-4.641141
925.259000	-8.872427
925.464000	-3.836634
925.670000	-4.627314
925.876000	-6.686402
926.081000	-6.888413
926.287000	-2.906894
926.493000	-1.723581
926.698000	-3.836029
926.904000	-0.920592
927.110000	-3.786880
927.316000	-3.535047
927.521000	3.635022
927.727000	-2.426501
927.933000	-5.069617
928.138000	-3.958612
928.344000	-9.736288
928.550000	-5.362620
928.755000	-0.959944
928.961000	-5.825501
929.167000	-5.265067
929.372000	2.283992
929.578000	0.178521
929.784000	-5.691016
929.990000	-8.878663
930.195000	-5.572507
930.401000	-4.379550
930.607000	-3.260300
930.812000	-2.450110
931.018000	-5.678806
931.224000	-11.642444
931.429000	-7.724416
931.635000	-10.395152
931.841000	-10.189110
932.046000	-6.319683
932.252000	-2.827206
932.458000	3.780903
932.664000	0.483691
932.869000	-5.193587
933.075000	-8.014637
933.281000	-7.392941
933.486000	-0.095420
933.692000	-3.660290
933.898000	-8.094120
934.103000	-0.791431
934.309000	-4.138988
934.515000	-1.855859
934.720000	-0.572512
934.926000	3.070544
935.132000	1.231746
935.338000	-1.643008
935.543000	-9.348467
935.749000	-10.421822
935.955000	-11.559000
936.160000	-10.591072
936.366000	-2.090198
936.572000	-2.439790
936.777000	-0.916163
936.983000	0.483693
937.189000	-4.069443
937.394000	-8.850366
937.600000	-0.187037
937.806000	3.036129
938.012000	-5.527773
938.217000	5.739499
938.423000	2.643766
938.629000	-6.916618
938.834000	-13.172488
939.040000	-11.613046
939.246000	-5.411901
939.451000	-9.089558
939.657000	-5.338332
939.863000	-8.792472
940.068000	-0.650181
940.274000	-6.352300
940.480000	-4.225690
940.686000	-2.176456
940.891000	-4.845503
941.097000	10.878152
941.303000	1.130581
941.508000	-6.373383
941.714000	-2.696329
941.920000	-14.012741
942.125000	-4.352918
942.331000	-2.365535
942.537000	3.916316
942.742000	1.180664
942.948000	-8.071974
943.154000	-10.042460
943.360000	-21.875099
943.565000	-7.918289
943.771000	2.349997
943.977000	4.721947
944.182000	-12.783195
944.388000	-14.103580
944.594000	0.860644
944.799000	8.684496
945.005000	0.081844
945.211000	3.365572
945.416000	0.361199
945.622000	-11.754831
945.828000	-8.643765
946.034000	0.944326
946.239000	0.565922
946.445000	-5.911877
946.651000	-15.988576
946.856000	-13.343669
947.062000	-1.569860
947.268000	1.133272
947.473000	-13.587587
947.679000	-17.614601
947.885000	-2.132666
948.090000	1.155412
948.296000	13.714399
948.502000	1.887891
948.708000	-9.531689
948.913000	-12.177807
949.119000	-0.059576
949.325000	-6.617120
949.530000	-19.198247
949.736000	-22.798069
949.942000	-11.852791
950.147000	-12.982855
950.353000	-10.654914
950.559000	-6.075577
950.764000	14.026577
950.970000	6.705295
951.176000	-7.513122
951.382000	-11.929350
951.587000	-0.427383
951.793000	1.878227
951.999000	1.592931
952.204000	-9.619685
952.410000	-22.163104
952.616000	-11.719399
952.821000	-7.712017
953.027000	-12.747980
953.233000	-14.347546
953.438000	-14.185468
953.644000	-1.018886
953.850000	-4.736734
954.056000	-8.006711
954.261000	-9.028430
954.467000	-1.851051
954.673000	6.254482
954.878000	-2.774869
955.084000	-4.189152
955.290000	-18.425952
955.495000	-19.463358
955.701000	-15.106239
955.907000	1.986686
956.112000	0.987895
956.318000	10.000127
956.524000	9.392013
956.730000	-6.397503
956.935000	-9.761331
957.141000	-11.947043
957.347000	-0.068556
957.552000	-6.232054
957.758000	-20.856314
957.964000	-29.087042
958.169000	4.452031
958.375000	4.989160
958.581000	-9.419360
958.786000	-22.413359
958.992000	-26.841802
959.198000	-8.853071
959.404000	-3.166744
959.609000	-9.321601
959.815000	-13.471556
960.021000	2.170003
960.226000	-4.965481
960.432000	-25.644391
960.638000	-15.026075
960.843000	-9.186147
961.049000	-11.022232
961.255000	-1.015940
961.460000	-13.403373
961.666000	-31.907995
961.872000	-19.121168
962.078000	-15.554671
962.283000	-24.931859
962.489000	-25.824912
962.695000	-18.074218
962.900000	-9.881401
963.106000	-6.050741
963.312000	-12.112468
963.517000	-15.877818
963.723000	-20.400836
963.929000	1.267332
964.134000	8.732858
964.340000	-15.728980
964.546000	-16.946909
964.752000	-20.921440
964.957000	-26.321539
965.163000	-3.521541
965.369000	-5.557753
965.574000	0.631886
965.780000	-5.332398
966.000000	-15.262221
966.220000	-11.374046
966.440000	-10.779600
966.661000	0.424425
966.881000	-18.438493
967.101000	-34.528472
967.321000	-33.909773
967.541000	-11.541707
967.761000	-16.264204
967.981000	-9.186521
968.202000	-8.249023
968.422000	1.529725
968.642000	0.061617
968.862000	0.613321
969.082000	-8.174272
969.302000	-2.878897
969.522000	-9.421269
969.743000	5.855261
969.963000	-12.256749
970.183000	-24.416609
970.403000	-23.184759
970.623000	-18.657261
970.843000	2.876312
971.063000	-1.443566
971.284000	-21.126424
971.504000	-29.375019
971.724000	-7.136469
971.944000	-21.654139
972.164000	-31.411034
972.384000	-24.013618
972.604000	-39.066141
972.825000	-44.855049
973.045000	-29.097888
973.265000	22.874274
973.485000	13.681066
973.705000	-7.408031
973.925000	-15.114287
974.145000	-45.644844
974.365000	-12.824052
974.586000	-12.612983
974.806000	-30.554512
975.026000	2.471374
975.246000	-10.159758
975.466000	-29.166595
975.686000	-13.556951
975.906000	-18.055662
976.127000	-37.586313
976.347000	-35.339706
976.567000	-12.867692
976.787000	-8.611599
977.007000	-16.065849
977.227000	-22.864898
977.447000	-25.868902
977.668000	-45.266270
977.888000	-27.207203
978.108000	-27.800666
978.328000	-18.415133
978.548000	11.420998
978.768000	19.080442
978.988000	3.472532
979.209000	-15.959477
979.429000	-18.534640
979.649000	-6.091184
979.869000	-28.638813
980.089000	-40.540067
980.309000	-43.087215
980.529000	-54.746941
980.750000	-33.502926
980.970000	-43.073770
981.190000	-29.119569
981.410000	-25.005705
981.630000	-32.709711
981.850000	-20.963080
982.070000	-12.726046
982.291000	-39.791902
982.511000	-43.600528
982.731000	-8.938606
982.951000	-23.918297
983.171000	-24.532748
983.391000	-19.943065
983.611000	3.381140
983.832000	-22.924029
984.052000	-45.230636
984.272000	-23.734659
984.492000	-13.891577
984.712000	-28.319060
984.932000	-49.653136
985.152000	-53.002478
985.373000	-34.681025
985.593000	-12.486582
985.813000	-18.679035
986.033000	-34.665804
986.253000	0.268716
986.473000	11.754016
986.693000	-19.030868
986.914000	-30.473573
987.134000	6.394165
987.354000	-31.467055
987.574000	104.719333
987.794000	62.817230
988.014000	-38.449842
988.234000	-19.338779
988.455000	-3.999060
988.675000	-3.520847
988.895000	-13.955895
989.115000	-30.134348
989.335000	-12.891833
989.555000	-0.371535
989.775000	-40.128043
989.995000	-31.643221
990.216000	-16.184659
990.436000	-9.894593
990.656000	11.855383
990.876000	-26.061864
991.096000	-10.078412
991.316000	10.997522
991.536000	-17.548019
991.757000	-24.396066
991.977000	-66.011657
992.197000	-20.910715
992.417000	-27.895821
992.637000	-71.866779
992.857000	-74.192899
993.077000	-66.802152
993.298000	-32.747807
993.518000	-25.930097
993.738000	-79.004338
993.958000	-47.576790
994.178000	-46.908429
994.398000	-33.631122
994.618000	-71.047476
994.839000	-124.893221
995.059000	-29.924829
995.279000	37.134426
995.499000	-5.592597
995.719000	-9.841532
995.939000	-30.167770
996.159000	-26.260311
996.380000	-12.055738
996.600000	-62.309299
996.820000	-21.536240
997.040000	21.323853
997.260000	-44.392874
997.480000	-33.422346
997.700000	-91.823456
997.921000	-57.798923
998.141000	31.566653
998.361000	-6.979893
998.581000	-51.380151
998.801000	-78.132485
999.021000	-48.259879
999.241000	-15.608889
999.462000	-47.031503
999.682000	-95.244892
999.902000	-54.488785
1000.122000	-72.130332
1000.342000	-122.674022
1000.562000	-47.318128
1000.782000	-49.190046
1001.003000	-995.353574
