Wavelength	Irradiance
(nm)	(mW/cm2/nm)

294.396000	0.000000
294.577000	0.000000
294.757000	-0.000000
294.938000	-0.000000
295.118000	-0.000000
295.299000	0.000000
295.479000	-0.000000
295.660000	-0.000000
295.840000	-0.000000
296.021000	0.000000
296.202000	-0.000000
296.382000	-0.000000
296.563000	-0.000000
296.743000	-0.000000
296.924000	-0.000000
297.104000	-0.000000
297.285000	-0.000000
297.465000	-0.000000
297.646000	0.000000
297.826000	0.000000
298.007000	0.000000
298.187000	-0.000000
298.368000	-0.000000
298.548000	-0.000000
298.729000	0.000000
298.909000	-0.000000
299.090000	-0.000000
299.270000	-0.000000
299.451000	-0.000000
299.631000	-0.000000
299.812000	-0.000000
299.992000	0.000000
300.173000	0.000000
300.353000	-0.000000
300.534000	0.000000
300.714000	0.000000
300.895000	0.000000
301.075000	-0.000000
301.256000	0.000000
301.436000	-0.000000
301.617000	0.000000
301.797000	-0.000000
301.978000	-0.000000
302.159000	0.000000
302.339000	0.000000
302.520000	0.000000
302.700000	-0.000000
302.881000	0.000000
303.061000	0.000000
303.242000	0.000000
303.422000	0.000000
303.603000	-0.000000
303.783000	-0.000000
303.964000	-0.000000
304.144000	-0.000000
304.325000	-0.000000
304.505000	-0.000000
304.686000	-0.000000
304.866000	0.000000
305.047000	-0.000000
305.227000	-0.000000
305.408000	-0.000000
305.588000	-0.000000
305.769000	-0.000000
305.949000	-0.000000
306.130000	-0.000000
306.310000	-0.000000
306.491000	-0.000000
306.671000	0.000000
306.852000	-0.000000
307.032000	-0.000000
307.213000	-0.000000
307.393000	-0.000000
307.574000	0.000000
307.755000	0.000000
307.935000	-0.000000
308.116000	0.000000
308.296000	-0.000000
308.477000	-0.000000
308.657000	0.000000
308.838000	0.000000
309.018000	0.000000
309.199000	-0.000000
309.379000	-0.000000
309.560000	0.000000
309.740000	-0.000000
309.921000	-0.000000
310.101000	-0.000000
310.282000	-0.000000
310.462000	-0.000000
310.643000	-0.000000
310.823000	-0.000000
311.004000	-0.000000
311.184000	-0.000000
311.365000	0.000000
311.545000	0.000000
311.726000	-0.000000
311.906000	-0.000000
312.087000	-0.000000
312.267000	-0.000000
312.448000	-0.000000
312.628000	-0.000000
312.809000	-0.000000
312.989000	-0.000000
313.170000	-0.000000
313.344000	-0.000000
313.518000	-0.000000
313.691000	-0.000000
313.865000	-0.000000
314.039000	-0.000000
314.213000	-0.000000
314.387000	-0.000000
314.560000	-0.000000
314.734000	-0.000000
314.908000	-0.000000
315.082000	-0.000000
315.255000	-0.000000
315.429000	0.000000
315.603000	-0.000000
315.777000	-0.000000
315.951000	-0.000000
316.124000	-0.000000
316.298000	-0.000000
316.472000	-0.000000
316.646000	-0.000000
316.820000	-0.000000
316.993000	-0.000000
317.167000	-0.000000
317.341000	-0.000000
317.515000	0.000000
317.688000	-0.000000
317.862000	-0.000000
318.036000	-0.000000
318.210000	-0.000000
318.384000	-0.000000
318.557000	-0.000000
318.731000	-0.000000
318.905000	-0.000000
319.079000	-0.000000
319.253000	-0.000000
319.426000	0.000000
319.600000	0.000000
319.774000	-0.000000
319.948000	-0.000000
320.122000	0.000000
320.295000	-0.000000
320.469000	-0.000000
320.643000	-0.000000
320.817000	-0.000000
320.990000	-0.000000
321.164000	-0.000000
321.338000	-0.000000
321.512000	-0.000000
321.686000	-0.000000
321.859000	-0.000000
322.033000	-0.000000
322.207000	0.000000
322.381000	0.000000
322.555000	0.000000
322.728000	-0.000000
322.902000	-0.000000
323.076000	-0.000000
323.250000	-0.000000
323.423000	-0.000000
323.597000	-0.000000
323.771000	-0.000000
323.945000	-0.000000
324.119000	-0.000000
324.292000	-0.000000
324.466000	-0.000000
324.640000	0.000000
324.814000	0.000000
324.988000	-0.000000
325.161000	-0.000000
325.335000	-0.000000
325.509000	-0.000000
325.683000	-0.000000
325.856000	-0.000000
326.030000	-0.000000
326.204000	-0.000000
326.378000	-0.000000
326.552000	-0.000000
326.725000	-0.000000
326.899000	-0.000000
327.073000	-0.000000
327.247000	-0.000000
327.421000	0.000000
327.594000	0.000000
327.768000	-0.000000
327.942000	-0.000000
328.116000	0.000000
328.289000	0.000000
328.463000	-0.000000
328.637000	0.000000
328.811000	-0.000000
328.985000	-0.000000
329.158000	-0.000000
329.332000	-0.000000
329.506000	0.000000
329.680000	-0.000000
329.854000	-0.000000
330.027000	-0.000000
330.201000	-0.000000
330.375000	0.000000
330.549000	0.000000
330.723000	-0.000000
330.896000	-0.000000
331.070000	-0.000000
331.244000	-0.000000
331.418000	-0.000000
331.591000	-0.000000
331.765000	-0.000000
331.939000	-0.000000
332.113000	-0.000000
332.287000	-0.000000
332.460000	0.000000
332.634000	0.000000
332.808000	-0.000000
332.982000	-0.000000
333.156000	-0.000000
333.329000	-0.000000
333.503000	-0.000000
333.677000	-0.000000
333.851000	-0.000000
334.024000	-0.000000
334.198000	-0.000000
334.372000	-0.000000
334.546000	-0.000000
334.720000	-0.000000
334.893000	-0.000000
335.067000	-0.000000
335.241000	-0.000000
335.415000	-0.000000
335.589000	-0.000000
335.762000	-0.000000
335.936000	-0.000000
336.110000	-0.000000
336.284000	-0.000000
336.458000	-0.000000
336.631000	-0.000000
336.805000	-0.000000
336.979000	-0.000000
337.153000	-0.000000
337.326000	-0.000000
337.500000	-0.000000
337.674000	-0.000000
337.848000	-0.000000
338.022000	0.000000
338.195000	-0.000000
338.369000	-0.000000
338.543000	-0.000000
338.717000	-0.000000
338.891000	0.000000
339.064000	0.000000
339.238000	-0.000000
339.412000	-0.000000
339.586000	-0.000000
339.759000	-0.000000
339.933000	-0.000000
340.107000	0.000000
340.281000	-0.000000
340.455000	-0.000000
340.628000	-0.000000
340.802000	-0.000000
340.976000	-0.000000
341.150000	-0.000000
341.324000	-0.000000
341.497000	-0.000000
341.671000	-0.000000
341.845000	-0.000000
342.019000	-0.000000
342.192000	-0.000000
342.366000	-0.000000
342.540000	-0.000000
342.714000	-0.000000
342.888000	-0.000000
343.061000	-0.000000
343.235000	-0.000000
343.409000	-0.000000
343.583000	-0.000000
343.757000	-0.000000
343.930000	-0.000000
344.104000	-0.000000
344.278000	0.000000
344.452000	0.000000
344.626000	-0.000000
344.799000	-0.000000
344.973000	-0.000000
345.147000	-0.000000
345.321000	-0.000000
345.494000	-0.000000
345.668000	-0.000000
345.842000	0.000000
346.016000	-0.000000
346.190000	0.000000
346.363000	-0.000000
346.537000	-0.000000
346.711000	-0.000000
346.885000	-0.000000
347.059000	-0.000000
347.232000	-0.000000
347.406000	0.000000
347.580000	-0.000000
347.754000	-0.000000
347.927000	0.000000
348.101000	0.000000
348.275000	-0.000000
348.449000	-0.000000
348.623000	-0.000000
348.796000	0.000000
348.970000	0.000000
349.144000	-0.000000
349.318000	-0.000000
349.492000	-0.000000
349.665000	-0.000000
349.839000	-0.000000
350.013000	-0.000000
350.187000	-0.000000
350.361000	-0.000000
350.534000	-0.000000
350.708000	-0.000000
350.882000	-0.000000
351.056000	0.000000
351.229000	-0.000000
351.403000	-0.000000
351.577000	-0.000000
351.751000	-0.000000
351.925000	-0.000000
352.098000	-0.000000
352.272000	-0.000000
352.446000	-0.000000
352.620000	-0.000000
352.794000	-0.000000
352.967000	-0.000000
353.141000	0.000000
353.315000	-0.000000
353.489000	-0.000000
353.662000	-0.000000
353.836000	-0.000000
354.010000	-0.000000
354.184000	-0.000000
354.358000	-0.000000
354.531000	-0.000000
354.705000	-0.000000
354.879000	-0.000000
355.053000	-0.000000
355.227000	0.000000
355.400000	-0.000000
355.574000	0.000000
355.748000	0.000000
355.922000	-0.000000
356.095000	-0.000000
356.269000	-0.000000
356.443000	-0.000000
356.617000	-0.000000
356.791000	-0.000000
356.964000	-0.000000
357.138000	-0.000000
357.312000	-0.000000
357.486000	-0.000000
357.660000	-0.000000
357.833000	-0.000000
358.007000	-0.000000
358.181000	-0.000000
358.355000	-0.000000
358.529000	-0.000000
358.702000	0.000000
358.876000	-0.000000
359.050000	-0.000000
359.224000	-0.000000
359.397000	-0.000000
359.571000	-0.000000
359.745000	-0.000000
359.919000	0.000000
360.093000	0.115099
360.266000	0.142863
360.440000	0.139870
360.614000	0.097156
360.788000	-0.089095
360.962000	-0.276876
361.135000	-0.002364
361.309000	-0.215384
361.483000	-0.388129
361.657000	-0.257356
361.830000	-0.146575
362.004000	-0.100713
362.178000	-0.537094
362.352000	-0.385890
362.526000	-0.010813
362.699000	-0.027436
362.873000	-0.539900
363.047000	-0.592917
363.221000	-0.479403
363.395000	-0.296778
363.568000	-0.340622
363.742000	-0.418908
363.916000	-0.376523
364.090000	-0.476003
364.263000	-0.424582
364.437000	-0.355000
364.611000	0.059191
364.785000	0.015269
364.959000	-0.213218
365.132000	-0.228813
365.306000	-0.234713
365.480000	-0.223857
365.656000	-0.276447
365.831000	-0.296129
366.007000	-0.366421
366.183000	-0.323157
366.358000	-0.467688
366.534000	-0.340665
366.710000	-0.448548
366.886000	-0.463788
367.061000	-0.149574
367.237000	0.006377
367.413000	-0.303842
367.588000	-0.394421
367.764000	-0.418950
367.940000	-0.600658
368.115000	-0.400243
368.291000	-0.456377
368.467000	-0.378411
368.643000	0.024963
368.818000	-0.189682
368.994000	-0.440184
369.170000	-0.436353
369.345000	-0.372612
369.521000	-0.385866
369.697000	-0.108599
369.872000	-0.240081
370.048000	-0.288832
370.224000	-0.315304
370.399000	-0.465654
370.575000	-0.283955
370.751000	-0.533155
370.927000	-0.444275
371.102000	-0.428458
371.278000	-0.474436
371.454000	-0.381564
371.629000	-0.060224
371.805000	-0.136566
371.981000	0.006764
372.156000	0.160250
372.332000	-0.087354
372.508000	-0.155783
372.683000	-0.221360
372.859000	-0.232504
373.035000	-0.302696
373.211000	0.327020
373.386000	-0.022266
373.562000	-0.649121
373.738000	-0.534346
373.913000	-0.799352
374.089000	-0.724553
374.265000	-0.312064
374.440000	-0.314833
374.616000	-0.071000
374.792000	-0.220463
374.968000	0.177194
375.143000	-0.126865
375.319000	-0.563519
375.495000	-0.527261
375.670000	-0.497103
375.846000	-0.328797
376.022000	-0.438784
376.197000	-0.473597
376.373000	-0.654650
376.549000	-0.417049
376.724000	-0.354588
376.900000	-0.435068
377.076000	-0.295108
377.252000	-0.002773
377.427000	0.108821
377.603000	-0.341777
377.779000	-0.464348
377.954000	-0.466565
378.130000	-0.160088
378.306000	-0.133611
378.481000	-0.160978
378.657000	-0.345311
378.833000	-0.575783
379.009000	-0.218369
379.184000	0.034520
379.360000	-0.086006
379.536000	-0.226588
379.711000	-0.097639
379.887000	-0.114885
380.063000	-0.206076
380.238000	-0.198220
380.414000	-0.021282
380.590000	-0.367170
380.765000	-0.403289
380.941000	-0.150120
381.117000	-0.140012
381.293000	-0.304019
381.468000	-0.363828
381.644000	-0.076050
381.820000	-0.030263
381.995000	-0.076862
382.171000	0.173989
382.347000	0.052970
382.522000	-0.372406
382.698000	-0.039536
382.874000	-0.011935
383.050000	-0.335465
383.225000	0.043365
383.401000	0.219388
383.577000	-0.198573
383.752000	-0.313598
383.928000	-0.194305
384.104000	-0.152419
384.279000	-0.377141
384.455000	-0.093668
384.631000	-0.121127
384.806000	-0.437949
384.982000	-0.212447
385.158000	-0.278658
385.334000	-0.192892
385.509000	-0.211883
385.685000	-0.307588
385.861000	-0.187527
386.036000	-0.485590
386.212000	-0.536456
386.388000	-0.382126
386.563000	-0.435499
386.739000	-0.494776
386.915000	-0.744123
387.090000	-0.415417
387.266000	-0.048434
387.442000	0.115950
387.618000	-0.138583
387.793000	-0.349893
387.969000	-0.559725
388.145000	-0.503492
388.320000	-0.387927
388.496000	-0.361794
388.672000	-0.615636
388.847000	-0.192001
389.023000	-0.084371
389.199000	-0.513428
389.375000	-0.245413
389.550000	-0.323843
389.726000	-0.279944
389.902000	-0.447236
390.077000	-0.312168
390.253000	-0.272581
390.429000	-0.400865
390.604000	-0.254310
390.780000	-0.181514
390.956000	-0.206728
391.131000	-0.410010
391.307000	-0.038105
391.483000	-0.170966
391.659000	-0.349274
391.834000	-0.091147
392.010000	-0.382652
392.186000	-0.338820
392.361000	-0.197702
392.537000	-0.441648
392.713000	0.032249
392.888000	0.198143
393.064000	-0.282950
393.240000	-0.325925
393.416000	-0.376026
393.591000	-0.623656
393.767000	-0.581763
393.943000	-0.288530
394.118000	0.049114
394.294000	0.074914
394.470000	-0.097051
394.645000	-0.216602
394.821000	0.143804
394.997000	0.005990
395.172000	-0.155773
395.348000	-0.190196
395.524000	-0.503223
395.700000	-0.474837
395.875000	-0.289826
396.051000	-0.188183
396.227000	-0.283104
396.402000	-0.421354
396.578000	-0.241255
396.754000	-0.290818
396.929000	-0.289519
397.105000	-0.128951
397.281000	-0.120485
397.457000	-0.187341
397.632000	-0.193680
397.808000	-0.521163
397.984000	-0.807934
398.159000	-0.775736
398.335000	-0.480515
398.511000	0.097935
398.686000	-0.153019
398.862000	-0.517417
399.038000	-0.607206
399.213000	-0.291043
399.389000	-0.592153
399.565000	-0.308909
399.741000	0.014063
399.916000	-0.152849
400.092000	0.122180
400.268000	-0.175580
400.443000	-0.369528
400.619000	-0.069105
400.795000	-0.077716
400.970000	-0.249852
401.146000	-0.441229
401.322000	-0.002500
401.497000	0.280655
401.673000	-0.002511
401.849000	-0.219427
402.025000	-0.060648
402.200000	-0.275901
402.376000	-0.383441
402.552000	0.072348
402.727000	-0.068699
402.903000	-0.448495
403.079000	-0.349615
403.254000	-0.035571
403.430000	-0.109286
403.606000	-0.208234
403.782000	-0.240854
403.957000	-0.183833
404.133000	-0.357872
404.309000	-0.349500
404.484000	-0.018936
404.660000	-0.175851
404.841000	-0.382482
405.023000	-0.109270
405.204000	-0.117833
405.385000	-0.499153
405.566000	-0.365058
405.748000	-0.185682
405.929000	-0.203344
406.110000	-0.143095
406.292000	-0.239932
406.473000	-0.215898
406.654000	-0.465842
406.835000	-0.249853
407.017000	-0.166762
407.198000	-0.294873
407.379000	-0.342665
407.560000	-0.205592
407.742000	-0.149862
407.923000	-0.208337
408.104000	-0.485996
408.286000	-0.419580
408.467000	-0.296161
408.648000	-0.575329
408.829000	-0.508064
409.011000	-0.320897
409.192000	-0.559865
409.373000	-0.166178
409.555000	-0.010644
409.736000	-0.262684
409.917000	-0.459569
410.098000	-0.326786
410.280000	-0.131217
410.461000	-0.163127
410.642000	-0.107074
410.823000	0.037824
411.005000	-0.115229
411.186000	-0.220130
411.367000	-0.357515
411.549000	-0.389515
411.730000	-0.139477
411.911000	0.045877
412.092000	-0.243146
412.274000	-0.336884
412.455000	-0.201911
412.636000	-0.154167
412.818000	-0.360416
412.999000	-0.468611
413.180000	-0.447591
413.361000	-0.345522
413.543000	-0.415109
413.724000	-0.619882
413.905000	-0.580317
414.087000	-0.518062
414.268000	-0.504537
414.449000	-0.419006
414.630000	-0.483770
414.812000	-0.632430
414.993000	-0.236589
415.174000	-0.080463
415.355000	-0.293184
415.537000	-0.581426
415.718000	-0.213853
415.899000	-0.338177
416.081000	-0.554569
416.262000	-0.374904
416.443000	-0.552042
416.624000	-0.365375
416.806000	-0.311901
416.987000	-0.150088
417.168000	-0.156919
417.350000	-0.288262
417.531000	-0.386392
417.712000	-0.486216
417.893000	-0.286400
418.075000	-0.055842
418.256000	-0.293827
418.437000	-0.179471
418.618000	-0.094401
418.800000	-0.163218
418.981000	-0.398776
419.162000	-0.267422
419.344000	0.020589
419.525000	-0.071299
419.706000	-0.340007
419.887000	-0.040596
420.069000	0.150738
420.250000	-0.025244
420.431000	-0.223590
420.613000	-0.224649
420.794000	-0.478570
420.975000	-0.017485
421.156000	-0.345049
421.338000	-0.443708
421.519000	-0.352307
421.700000	-0.422038
421.882000	-0.315137
422.063000	-0.002284
422.244000	0.421830
422.425000	0.088945
422.607000	-0.232756
422.788000	-0.407537
422.969000	-0.397126
423.150000	-0.306362
423.332000	-0.540462
423.513000	-0.420517
423.694000	-0.392149
423.876000	-0.200434
424.057000	-0.169976
424.238000	-0.254774
424.419000	-0.171111
424.601000	-0.301517
424.782000	-0.209239
424.963000	0.073728
425.145000	-0.070881
425.326000	-0.169232
425.507000	-0.100783
425.688000	-0.124144
425.870000	-0.285217
426.051000	-0.381991
426.232000	-0.397147
426.413000	-0.361291
426.595000	-0.321408
426.776000	-0.397208
426.957000	-0.330273
427.139000	-0.131399
427.320000	-0.185382
427.501000	-0.163129
427.682000	-0.048014
427.864000	-0.124155
428.045000	-0.009931
428.226000	-0.055965
428.408000	-0.362277
428.589000	-0.208206
428.770000	-0.299045
428.951000	-0.245363
429.133000	-0.426400
429.314000	-0.304793
429.495000	-0.198249
429.677000	-0.198951
429.858000	-0.252177
430.039000	-0.222146
430.220000	-0.191852
430.402000	-0.085421
430.583000	-0.365972
430.764000	-0.424890
430.945000	-0.183747
431.127000	0.020271
431.308000	-0.174125
431.489000	-0.069886
431.671000	0.012827
431.852000	-0.129662
432.033000	-0.324565
432.214000	-0.241638
432.396000	-0.203693
432.577000	-0.383609
432.758000	-0.594560
432.940000	-0.354258
433.121000	-0.256621
433.302000	-0.300512
433.483000	-0.188285
433.665000	0.079673
433.846000	0.027545
434.027000	-0.120588
434.208000	-0.327303
434.390000	-0.454575
434.571000	-0.202531
434.752000	0.056703
434.934000	-0.009521
435.115000	0.056533
435.296000	0.034496
435.477000	-0.111966
435.659000	-0.248368
435.840000	-0.023969
436.026000	-0.096315
436.211000	-0.334923
436.397000	-0.607496
436.582000	-0.405736
436.768000	-0.131774
436.953000	-0.376088
437.139000	-0.332217
437.325000	0.190740
437.510000	-0.009286
437.696000	-0.016385
437.881000	0.012091
438.067000	-0.355715
438.252000	-0.179052
438.438000	-0.207214
438.624000	-0.285021
438.809000	-0.107767
438.995000	-0.044323
439.180000	-0.086268
439.366000	-0.233313
439.551000	-0.212010
439.737000	-0.197615
439.923000	-0.134945
440.108000	-0.176664
440.294000	-0.183085
440.479000	-0.168562
440.665000	-0.002067
440.850000	0.011651
441.036000	-0.070751
441.222000	-0.057254
441.407000	-0.235797
441.593000	-0.186867
441.778000	-0.015707
441.964000	0.093959
442.149000	-0.370991
442.335000	-0.403116
442.521000	-0.260072
442.706000	-0.137287
442.892000	-0.170732
443.077000	-0.286409
443.263000	-0.049222
443.448000	-0.189961
443.634000	-0.257267
443.820000	0.118137
444.005000	-0.008671
444.191000	-0.356254
444.376000	-0.354578
444.562000	0.110417
444.747000	0.104347
444.933000	0.057658
445.119000	-0.160658
445.304000	-0.292343
445.490000	-0.087804
445.675000	-0.028375
445.861000	-0.220323
446.046000	-0.312268
446.232000	-0.153612
446.418000	-0.074416
446.603000	-0.021730
446.789000	-0.100637
446.974000	-0.173514
447.160000	-0.350380
447.345000	-0.289689
447.531000	-0.341704
447.717000	-0.140016
447.902000	-0.008581
448.088000	0.024280
448.273000	-0.015016
448.459000	-0.060545
448.644000	-0.275529
448.830000	-0.394243
449.016000	-0.439643
449.201000	-0.308554
449.387000	-0.165411
449.572000	-0.132324
449.758000	-0.171322
449.943000	-0.243325
450.129000	-0.372304
450.315000	-0.319722
450.500000	-0.274564
450.686000	-0.119001
450.871000	-0.320895
451.057000	-0.268363
451.243000	-0.222620
451.428000	-0.131932
451.614000	-0.235360
451.799000	-0.351857
451.985000	-0.157392
452.170000	-0.008412
452.356000	-0.150663
452.542000	-0.345062
452.727000	-0.163276
452.913000	-0.215259
453.098000	-0.066575
453.284000	0.133745
453.469000	-0.066628
453.655000	0.062638
453.841000	0.088330
454.026000	-0.162406
454.212000	-0.225948
454.397000	-0.162159
454.583000	-0.286413
454.768000	-0.355583
454.954000	-0.091396
455.140000	-0.021056
455.325000	-0.332937
455.511000	-0.424109
455.696000	-0.296201
455.882000	-0.110428
456.067000	0.100263
456.253000	-0.078555
456.439000	-0.244569
456.624000	-0.199212
456.810000	-0.287524
456.995000	-0.332402
457.181000	-0.483658
457.366000	-0.273078
457.552000	-0.171465
457.738000	-0.064620
457.923000	-0.052164
458.109000	0.218744
458.294000	0.174442
458.480000	0.124215
458.665000	-0.033319
458.851000	-0.221525
459.037000	-0.438233
459.222000	-0.338517
459.408000	-0.369697
459.593000	-0.194193
459.779000	0.059989
459.964000	0.153024
460.150000	0.196739
460.336000	0.153139
460.521000	-0.057261
460.707000	-0.204555
460.892000	-0.277728
461.078000	-0.137038
461.263000	0.040989
461.449000	-0.087796
461.635000	-0.161297
461.820000	-0.069164
462.006000	0.071307
462.191000	-0.026111
462.377000	-0.286373
462.562000	0.022473
462.748000	0.295040
462.934000	-0.147391
463.119000	-0.418399
463.305000	-0.176145
463.490000	-0.163326
463.676000	-0.133752
463.861000	-0.170482
464.047000	-0.127907
464.233000	0.016107
464.418000	-0.019665
464.604000	-0.346656
464.789000	-0.085091
464.975000	0.099057
465.160000	-0.067139
465.346000	-0.185865
465.532000	-0.126667
465.717000	-0.173959
465.903000	-0.007706
466.088000	-0.096502
466.274000	-0.296277
466.459000	-0.237650
466.645000	0.169479
466.831000	0.004108
467.016000	-0.101352
467.202000	-0.148885
467.387000	-0.195411
467.573000	-0.317358
467.758000	0.044813
467.944000	-0.071552
468.130000	-0.235644
468.315000	-0.136314
468.501000	0.027399
468.686000	-0.065714
468.872000	-0.042467
469.057000	-0.001745
469.243000	-0.217234
469.429000	-0.257810
469.614000	-0.251387
469.800000	-0.338482
469.985000	-0.123280
470.171000	-0.019028
470.356000	-0.048037
470.542000	0.067975
470.728000	-0.042265
470.913000	-0.151513
471.099000	-0.018998
471.284000	-0.164084
471.470000	-0.141096
471.655000	-0.112081
471.841000	-0.071204
472.027000	-0.191740
472.212000	0.038611
472.398000	0.113901
472.583000	-0.088556
472.769000	-0.094520
472.954000	-0.134901
473.140000	-0.278447
473.326000	-0.319212
473.511000	0.015554
473.697000	0.107851
473.882000	-0.013320
474.068000	-0.071368
474.253000	-0.215496
474.439000	-0.198479
474.625000	0.015595
474.810000	-0.013294
474.996000	-0.186697
475.181000	-0.255112
475.367000	-0.065141
475.552000	0.143199
475.738000	-0.191971
475.924000	-0.186625
476.109000	-0.007508
476.295000	-0.128863
476.480000	-0.146349
476.666000	-0.175006
476.851000	-0.151822
477.037000	-0.111996
477.223000	-0.319640
477.408000	-0.313946
477.594000	-0.302098
477.779000	-0.244836
477.965000	-0.244922
478.151000	-0.296972
478.336000	-0.140801
478.522000	-0.209830
478.707000	-0.313845
478.893000	-0.198658
479.078000	-0.460425
479.264000	-0.460543
479.450000	-0.321289
479.635000	-0.135188
479.821000	-0.176111
480.006000	-0.152746
480.192000	-0.158404
480.377000	-0.118044
480.563000	-0.135356
480.749000	-0.315647
480.934000	-0.384991
481.120000	-0.175301
481.305000	-0.082619
481.491000	-0.175772
481.676000	-0.147097
481.862000	0.015734
482.048000	-0.268359
482.233000	-0.256463
482.419000	-0.204822
482.604000	-0.216648
482.790000	-0.263120
482.975000	-0.228481
483.161000	-0.030721
483.347000	-0.042246
483.532000	-0.198537
483.718000	-0.419873
483.903000	-0.321599
484.089000	-0.239602
484.274000	-0.389827
484.460000	-0.262921
484.646000	-0.239725
484.831000	-0.321219
485.017000	-0.262307
485.202000	-0.267589
485.388000	-0.036387
485.573000	-0.042079
485.759000	-0.198215
485.945000	-0.076875
486.130000	-0.284741
486.316000	-0.238627
486.501000	-0.140032
486.687000	-0.197379
486.872000	-0.341551
487.058000	-0.134290
487.244000	-0.134374
487.429000	-0.352498
487.615000	-0.197274
487.800000	-0.064980
487.986000	-0.179305
488.171000	-0.018948
488.357000	-0.087553
488.543000	-0.132847
488.728000	-0.081559
488.914000	-0.104441
489.099000	-0.172822
489.285000	-0.298090
489.470000	-0.138155
489.656000	-0.047224
489.842000	-0.041375
490.027000	0.026558
490.213000	-0.222440
490.398000	-0.364847
490.584000	-0.154364
490.769000	-0.171327
490.955000	-0.029916
491.141000	-0.153757
491.326000	-0.108320
491.512000	-0.001683
491.697000	-0.164032
491.883000	-0.192102
492.068000	-0.192126
492.254000	-0.153189
492.440000	-0.164314
492.625000	-0.158234
492.811000	-0.079794
492.996000	0.003901
493.182000	-0.123867
493.367000	-0.408311
493.553000	-0.436283
493.739000	-0.279848
493.924000	-0.174339
494.110000	-0.068293
494.295000	-0.156653
494.481000	-0.079254
494.666000	-0.206872
494.852000	-0.018273
495.038000	-0.090073
495.223000	-0.250700
495.409000	-0.211463
495.594000	-0.173100
495.780000	-0.150586
495.965000	-0.211475
496.151000	-0.045774
496.337000	0.047935
496.522000	-0.243137
496.708000	-0.111819
496.893000	0.025888
497.079000	-0.248884
497.264000	-0.286794
497.450000	-0.199133
497.636000	-0.149898
497.821000	-0.313802
498.007000	-0.018073
498.192000	-0.001649
498.378000	-0.243090
498.563000	-0.215722
498.749000	-0.139016
498.935000	-0.149779
499.120000	-0.034480
499.306000	-0.237324
499.491000	-0.307742
499.677000	-0.154643
499.862000	-0.012616
500.048000	0.020331
500.234000	-0.209919
500.419000	-0.166375
500.605000	0.009343
500.790000	-0.155359
500.976000	-0.227089
501.161000	-0.353460
501.347000	-0.199535
501.533000	-0.018151
501.718000	-0.084106
501.904000	-0.200010
502.089000	-0.089945
502.275000	-0.073200
502.460000	-0.116885
502.646000	0.091748
502.832000	0.146766
503.017000	-0.007160
503.203000	-0.222282
503.388000	-0.250460
503.574000	-0.150544
503.759000	-0.062296
503.945000	0.014910
504.131000	-0.007179
504.316000	-0.156187
504.502000	-0.172810
504.687000	-0.200950
504.873000	-0.306302
505.058000	-0.383799
505.244000	-0.367095
505.430000	-0.229104
505.615000	-0.107199
505.801000	-0.085135
505.986000	-0.195476
506.172000	-0.101399
506.358000	0.031655
506.543000	-0.007216
506.729000	0.020549
506.914000	-0.068463
507.100000	0.115612
507.285000	-0.096785
507.471000	-0.236385
507.657000	0.009499
507.842000	-0.124432
508.028000	-0.241774
508.213000	-0.085644
508.399000	-0.158741
508.584000	-0.001684
508.770000	-0.130594
508.956000	-0.282148
509.141000	-0.315523
509.327000	-0.074691
509.512000	-0.147113
509.698000	-0.169745
509.883000	-0.125276
510.069000	-0.238272
510.255000	-0.159482
510.440000	-0.137110
510.626000	-0.204712
510.811000	-0.295368
510.997000	-0.171158
511.182000	0.173211
511.368000	0.083028
511.554000	-0.278619
511.739000	-0.097708
511.925000	0.083076
512.110000	-0.046862
512.296000	0.094526
512.481000	0.032224
512.667000	-0.131865
512.853000	-0.273398
513.038000	-0.160415
513.224000	-0.143444
513.409000	-0.256813
513.595000	-0.177730
513.780000	-0.393305
513.966000	-0.256475
514.152000	-0.318794
514.337000	-0.432216
514.523000	-0.211312
514.708000	-0.109450
514.894000	-0.189365
515.079000	-0.250935
515.265000	-0.138119
515.451000	-0.189353
515.636000	-0.359677
515.822000	-0.172382
516.007000	-0.212240
516.193000	-0.018759
516.378000	0.095094
516.564000	-0.109739
516.750000	-0.138216
516.935000	-0.001707
517.121000	0.049500
517.306000	0.117884
517.492000	0.061027
517.677000	-0.252377
517.863000	-0.263820
518.049000	-0.081508
518.234000	-0.172575
518.420000	-0.075845
518.605000	0.106602
518.791000	0.038175
518.976000	-0.133286
519.162000	-0.167301
519.348000	-0.133069
519.533000	-0.138579
519.719000	0.169546
519.904000	0.141162
520.090000	0.021103
520.275000	0.186629
520.461000	0.038315
520.647000	-0.144653
520.832000	-0.328501
521.018000	-0.224722
521.203000	-0.189790
521.389000	-0.337730
521.574000	-0.309571
521.760000	-0.133012
521.946000	-0.058978
522.131000	-0.179379
522.317000	-0.224879
522.502000	-0.241942
522.688000	-0.076105
522.873000	-0.185001
523.059000	-0.248180
523.245000	-0.247948
523.430000	-0.322800
523.616000	-0.322709
523.801000	-0.288699
523.987000	-0.254718
524.172000	-0.162703
524.358000	-0.070746
524.544000	-0.133795
524.729000	-0.047534
524.915000	0.015500
525.100000	-0.099276
525.286000	-0.070688
525.471000	0.032850
525.657000	0.038653
525.843000	-0.336738
526.028000	-0.175135
526.214000	-0.134624
526.399000	-0.279877
526.585000	-0.384257
526.770000	-0.413187
526.956000	-0.216695
527.142000	-0.280549
527.327000	-0.193645
527.513000	-0.222997
527.698000	-0.258220
527.884000	-0.241610
528.069000	-0.258639
528.255000	-0.142058
528.441000	-0.189052
528.626000	-0.183761
528.812000	0.115565
528.997000	-0.089935
529.183000	-0.360174
529.368000	-0.155245
529.554000	-0.090553
529.740000	-0.132355
529.925000	-0.185811
530.111000	-0.156301
530.296000	-0.097014
530.482000	-0.001790
530.667000	-0.222638
530.853000	-0.025748
531.039000	-0.061811
531.224000	0.028356
531.410000	0.118819
531.595000	0.004226
531.781000	0.088758
531.967000	-0.153614
532.152000	-0.056643
532.338000	-0.209325
532.523000	-0.362581
532.709000	-0.278004
532.894000	-0.100525
533.080000	-0.112980
533.266000	-0.286061
533.451000	-0.318131
533.637000	-0.219620
533.822000	-0.045598
534.008000	-0.189098
534.193000	-0.196063
534.379000	-0.096184
534.565000	-0.279615
534.750000	-0.324998
534.936000	0.042607
535.121000	-0.174058
535.307000	-0.136038
535.492000	-0.097875
535.678000	-0.297954
535.864000	-0.189487
536.049000	0.102120
536.235000	-0.164745
536.420000	-0.060836
536.606000	-0.034769
536.791000	-0.114165
536.977000	-0.246764
537.163000	-0.061765
537.348000	-0.042085
537.534000	-0.042367
537.719000	-0.312144
537.905000	-0.367504
538.090000	-0.192293
538.276000	-0.022502
538.462000	-0.132031
538.647000	-0.043273
538.833000	-0.140197
539.018000	-0.009020
539.204000	-0.029856
539.389000	-0.281734
539.575000	-0.072067
539.761000	-0.163838
539.946000	-0.397752
540.132000	-0.200714
540.317000	-0.300870
540.503000	-0.130444
540.688000	-0.202995
540.874000	0.026621
541.060000	0.141691
541.245000	-0.168370
541.431000	-0.335842
541.616000	-0.264027
541.802000	-0.300651
541.987000	-0.097097
542.173000	-0.068154
542.359000	-0.273671
542.544000	-0.134072
542.730000	-0.325850
542.915000	-0.304517
543.101000	-0.171898
543.286000	-0.453186
543.472000	-0.470893
543.658000	-0.233012
543.843000	-0.233586
544.029000	-0.114548
544.214000	-0.302104
544.400000	-0.625150
544.585000	-0.430970
544.771000	-0.372014
544.957000	-0.145951
545.142000	-0.115797
545.328000	-0.229927
545.513000	-0.047896
545.699000	0.012980
545.884000	-0.147462
546.070000	-0.078733
546.261000	-0.109708
546.451000	-0.256266
546.642000	-0.434015
546.833000	-0.388430
547.023000	-0.504150
547.214000	-0.436423
547.405000	-0.281337
547.595000	0.036473
547.786000	-0.017917
547.977000	-0.267932
548.167000	-0.299430
548.358000	-0.143701
548.549000	0.060687
548.740000	-0.065416
548.930000	-0.325615
549.121000	-0.271204
549.312000	-0.343675
549.502000	-0.312680
549.693000	-0.272678
549.884000	-0.209143
550.074000	-0.066236
550.265000	-0.314368
550.456000	-0.122685
550.646000	-0.050637
550.837000	-0.227544
551.028000	-0.260054
551.218000	-0.131200
551.409000	-0.196448
551.600000	-0.245162
551.790000	-0.108037
551.981000	-0.327344
552.172000	-0.344230
552.362000	-0.051246
552.553000	0.169236
552.744000	-0.108664
552.934000	-0.100580
553.125000	-0.223638
553.316000	-0.305750
553.506000	0.013964
553.697000	-0.200342
553.888000	-0.216451
554.079000	-0.018944
554.269000	0.055240
554.460000	-0.300042
554.651000	-0.209335
554.841000	-0.458072
555.032000	-0.483662
555.223000	-0.284955
555.413000	-0.143087
555.604000	-0.210143
555.795000	-0.202367
555.985000	-0.077608
556.176000	-0.052477
556.367000	-0.360600
556.557000	-0.336735
556.748000	-0.278788
556.939000	-0.478977
557.129000	-0.520333
557.320000	-0.236510
557.511000	-0.219386
557.701000	-0.160739
557.892000	-0.119575
558.083000	0.022553
558.273000	-0.152885
558.464000	-0.336701
558.655000	-0.194501
558.845000	-0.060759
559.036000	-0.135763
559.227000	-0.152534
559.418000	-0.094361
559.608000	-0.060935
559.799000	-0.310964
559.990000	-0.500038
560.180000	-0.459176
560.371000	-0.701039
560.562000	-0.650149
560.752000	-0.426349
560.943000	-0.409916
561.134000	-0.458571
561.324000	-0.259239
561.515000	-0.159553
561.706000	-0.358362
561.896000	-0.456682
562.087000	-0.291189
562.278000	-0.183880
562.468000	-0.349142
562.659000	-0.521048
562.850000	-0.167204
563.040000	-0.101311
563.231000	-0.546519
563.422000	-0.224298
563.612000	-0.216320
563.803000	-0.256977
563.994000	-0.296598
564.185000	-0.377671
564.375000	-0.084115
564.566000	-0.059543
564.757000	-0.313266
564.947000	-0.557980
565.138000	-0.328117
565.329000	-0.311206
565.519000	-0.400379
565.710000	-0.295100
565.901000	-0.100062
566.091000	-0.059342
566.282000	-0.156531
566.473000	-0.115620
566.663000	-0.268929
566.854000	-0.404609
567.045000	-0.178913
567.235000	-0.178881
567.426000	-0.178815
567.617000	-0.106264
567.807000	-0.130289
567.998000	-0.185862
568.189000	-0.249616
568.379000	-0.073979
568.570000	-0.002383
568.761000	-0.279821
568.951000	-0.200233
569.142000	-0.152952
569.333000	-0.240122
569.524000	-0.397126
569.714000	-0.507612
569.905000	-0.514622
570.096000	-0.096916
570.286000	-0.065311
570.477000	-0.072981
570.668000	-0.292435
570.858000	-0.159145
571.049000	-0.142962
571.240000	-0.322804
571.430000	-0.267742
571.621000	-0.391242
571.812000	-0.072042
572.002000	0.098555
572.193000	-0.304480
572.384000	-0.203674
572.574000	-0.095331
572.765000	-0.296303
572.956000	-0.272239
573.146000	0.005407
573.337000	-0.156480
573.528000	-0.210073
573.718000	-0.109750
573.909000	-0.124922
574.100000	0.005346
574.290000	-0.078406
574.481000	-0.176967
574.672000	-0.222794
574.863000	-0.161316
575.053000	-0.221484
575.244000	-0.100299
575.435000	-0.333756
575.625000	-0.354786
575.816000	-0.331872
576.007000	-0.324383
576.197000	-0.279873
576.388000	-0.151725
576.579000	-0.091902
576.769000	-0.121647
576.960000	-0.240871
577.155000	-0.448434
577.350000	-0.113642
577.545000	-0.098603
577.740000	-0.320064
577.935000	0.064176
578.130000	0.012550
578.326000	-0.215640
578.521000	-0.075770
578.716000	-0.163290
578.911000	-0.419113
579.106000	-0.242653
579.301000	0.019614
579.496000	-0.110799
579.691000	-0.443543
579.886000	-0.391868
580.081000	-0.232742
580.276000	-0.088412
580.471000	-0.210572
580.666000	-0.389563
580.861000	-0.461143
581.057000	-0.468619
581.252000	-0.303633
581.447000	-0.396059
581.642000	-0.382377
581.837000	-0.324547
582.032000	-0.330768
582.227000	-0.080258
582.422000	-0.002127
582.617000	-0.312630
582.812000	-0.445566
583.007000	-0.417184
583.202000	-0.500683
583.397000	-0.163045
583.592000	0.081729
583.788000	-0.169203
583.983000	-0.141217
584.178000	0.004862
584.373000	-0.341383
584.568000	-0.465051
584.763000	-0.340999
584.958000	-0.479302
585.153000	-0.375584
585.348000	-0.479075
585.543000	-0.355004
585.738000	-0.278755
585.933000	-0.334176
586.128000	-0.174983
586.324000	-0.307194
586.519000	-0.126807
586.714000	-0.078364
586.909000	-0.147975
587.104000	-0.050883
587.299000	-0.217547
587.494000	-0.245016
587.689000	-0.231589
587.884000	-0.232286
588.079000	-0.232302
588.274000	-0.169830
588.469000	-0.190415
588.664000	-0.037016
588.859000	-0.009092
589.055000	0.025908
589.250000	-0.219274
589.445000	-0.500100
589.640000	-0.507523
589.835000	-0.170986
590.030000	0.110440
590.225000	0.047139
590.420000	-0.220522
590.615000	-0.446376
590.810000	-0.255692
591.005000	-0.058703
591.200000	-0.221467
591.395000	-0.285104
591.591000	-0.206928
591.786000	-0.107964
591.981000	-0.263985
592.176000	-0.236155
592.371000	-0.186585
592.566000	-0.151003
592.761000	-0.073010
592.956000	-0.101535
593.151000	0.004973
593.346000	-0.158855
593.541000	-0.051948
593.736000	-0.016418
593.931000	-0.373485
594.126000	-0.295369
594.322000	-0.173782
594.517000	-0.273847
594.712000	-0.467103
594.907000	-0.368279
595.102000	-0.203431
595.297000	-0.095543
595.492000	-0.023757
595.687000	-0.225780
595.882000	-0.355801
596.077000	-0.219101
596.272000	0.033979
596.467000	0.048454
596.662000	-0.204864
596.857000	-0.198414
597.053000	-0.162347
597.248000	-0.169554
597.443000	-0.155206
597.638000	-0.162884
597.833000	-0.294641
598.028000	-0.119021
598.223000	-0.221681
598.418000	-0.170772
598.613000	-0.236704
598.808000	-0.134211
599.003000	-0.295876
599.198000	-0.399166
599.393000	-0.347603
599.589000	-0.238016
599.784000	-0.319295
599.979000	-0.275457
600.174000	-0.127847
600.369000	-0.261140
600.564000	-0.328145
600.759000	0.109015
600.954000	0.264306
601.149000	0.012625
601.344000	-0.299580
601.539000	-0.203179
601.734000	-0.373866
601.929000	-0.538739
602.124000	-0.479528
602.320000	-0.181536
602.515000	0.012702
602.710000	-0.114554
602.905000	-0.391527
603.100000	-0.398371
603.295000	-0.376639
603.490000	-0.197495
603.685000	-0.114912
603.880000	-0.205289
604.075000	-0.386739
604.270000	-0.281792
604.465000	-0.311774
604.660000	-0.568899
604.856000	-0.304246
605.051000	-0.206498
605.246000	-0.229002
605.441000	-0.410691
605.636000	-0.425939
605.831000	-0.259974
606.026000	-0.449273
606.221000	-0.487821
606.416000	-0.169398
606.611000	-0.040301
606.806000	-0.025070
607.001000	0.043359
607.196000	-0.245927
607.391000	-0.307266
607.587000	-0.124531
607.782000	-0.224146
607.977000	-0.383888
608.172000	0.112540
608.367000	0.173784
608.562000	-0.186405
608.757000	-0.332047
608.952000	-0.409684
609.147000	0.051435
609.342000	-0.002307
609.537000	-0.179476
609.732000	-0.087180
609.927000	-0.233302
610.122000	-0.310831
610.318000	-0.040918
610.513000	0.082652
610.708000	-0.311635
610.903000	-0.319725
611.098000	-0.211795
611.293000	-0.343776
611.488000	-0.258449
611.683000	-0.328876
611.878000	-0.414527
612.073000	-0.251276
612.268000	-0.158095
612.463000	0.021074
612.658000	-0.244311
612.854000	-0.221359
613.049000	-0.190157
613.244000	-0.033668
613.439000	0.036815
613.634000	-0.237928
613.829000	-0.128031
614.024000	-0.388153
614.219000	-0.372352
614.414000	-0.041750
614.609000	-0.459932
614.804000	-0.381142
614.999000	-0.380794
615.194000	-0.310644
615.389000	-0.216045
615.585000	-0.430504
615.780000	-0.280101
615.975000	-0.391970
616.170000	-0.392253
616.365000	-0.113893
616.560000	0.212858
616.755000	0.205509
616.950000	-0.066399
617.145000	-0.074468
617.340000	-0.355061
617.535000	-0.595498
617.730000	-0.275282
617.925000	-0.468658
618.120000	-0.589425
618.316000	-0.163594
618.511000	-0.228276
618.706000	-0.374787
618.901000	-0.293688
619.096000	-0.164865
619.291000	-0.310778
619.486000	-0.295483
619.681000	-0.654156
619.876000	-0.580588
620.071000	-0.466998
620.266000	-0.247547
620.461000	-0.043378
620.656000	-0.059858
620.852000	-0.117109
621.047000	-0.306212
621.242000	-0.446360
621.437000	-0.084871
621.632000	0.014038
621.827000	-0.126454
622.022000	-0.374689
622.217000	-0.176654
622.412000	-0.093819
622.607000	-0.068979
622.802000	-0.459819
622.997000	-0.377982
623.192000	-0.110965
623.387000	-0.019194
623.583000	-0.336970
623.778000	0.014254
623.973000	0.089775
624.168000	-0.086624
624.363000	-0.002519
624.558000	-0.128695
624.753000	-0.525718
624.948000	-0.010991
625.143000	-0.061761
625.338000	-0.299157
625.533000	-0.333158
625.728000	-0.231680
625.923000	0.082372
626.119000	-0.096181
626.314000	-0.283710
626.509000	-0.395680
626.704000	-0.225353
626.899000	-0.148364
627.094000	-0.303152
627.289000	-0.105874
627.484000	-0.097495
627.679000	-0.313472
627.874000	-0.357111
628.069000	0.006062
628.264000	-0.141020
628.459000	-0.236742
628.654000	-0.393192
628.850000	-0.464251
629.045000	-0.089815
629.240000	-0.185918
629.435000	-0.422138
629.630000	-0.282832
629.825000	-0.265312
630.020000	-0.160869
630.215000	-0.433143
630.410000	-0.284908
630.605000	-0.320452
630.800000	-0.179179
630.995000	-0.099964
631.190000	0.015071
631.385000	-0.233300
631.581000	-0.242584
631.776000	-0.260522
631.971000	-0.172162
632.166000	0.006249
632.361000	-0.324361
632.556000	-0.297970
632.751000	-0.038601
632.946000	-0.281071
633.141000	-0.390013
633.336000	-0.336496
633.531000	-0.256091
633.726000	-0.400383
633.921000	-0.365220
634.117000	-0.429608
634.312000	-0.666426
634.507000	-0.612537
634.702000	-0.431277
634.897000	-0.304059
635.092000	-0.039366
635.287000	-0.213743
635.482000	-0.333871
635.677000	-0.131567
635.872000	-0.168388
636.067000	-0.058103
636.262000	-0.160176
636.457000	-0.371614
636.652000	-0.427579
636.848000	-0.502556
637.043000	-0.328062
637.238000	-0.198471
637.433000	-0.497019
637.628000	-0.459701
637.823000	-0.152214
638.018000	-0.058945
638.213000	-0.331014
638.408000	-0.312550
638.603000	-0.416392
638.798000	-0.416997
638.993000	-0.370643
639.188000	-0.455680
639.383000	-0.361642
639.579000	-0.049992
639.774000	-0.296059
639.969000	-0.580064
640.164000	-0.515000
640.359000	-0.449094
640.554000	-0.259537
640.749000	-0.241186
640.944000	-0.260817
641.139000	-0.346094
641.334000	-0.537743
641.529000	-0.988624
641.724000	-0.434073
641.919000	-0.262146
642.115000	-0.002888
642.310000	-0.070166
642.505000	-0.243091
642.700000	-0.320538
642.895000	-0.447030
643.090000	-0.321413
643.285000	0.006757
643.480000	-0.051279
643.675000	-0.061006
643.870000	0.162027
644.065000	0.074853
644.260000	-0.401377
644.455000	-0.372916
644.650000	-0.276232
644.846000	-0.129822
645.041000	-0.451747
645.236000	-0.599556
645.431000	-0.512265
645.626000	-0.649000
645.821000	-0.687887
646.016000	-0.473999
646.211000	0.036379
646.406000	0.016746
646.601000	-0.091521
646.796000	-0.593284
646.991000	-0.711463
647.186000	-0.525656
647.381000	-0.200332
647.577000	0.105695
647.772000	0.046429
647.967000	-0.111846
648.162000	-0.032689
648.357000	-0.112087
648.552000	-0.231025
648.747000	-0.231159
648.942000	-0.151888
649.137000	-0.451081
649.332000	-0.541408
649.527000	-0.331884
649.722000	-0.072730
649.917000	0.016987
650.113000	-0.342323
650.308000	-0.602664
650.503000	-0.432527
650.698000	-0.103185
650.893000	-0.163408
651.088000	-0.163516
651.283000	-0.073391
651.478000	-0.344838
651.673000	-0.234012
651.868000	-0.284798
652.063000	-0.003025
652.258000	0.148341
652.453000	0.399559
652.648000	-0.013102
652.844000	-0.043368
653.039000	-0.033339
653.234000	-0.639699
653.429000	-0.772452
653.624000	-0.518970
653.819000	-0.185536
654.014000	-0.155151
654.209000	-0.226729
654.404000	-0.053830
654.599000	-0.379809
654.794000	-0.511299
654.989000	-0.013254
655.184000	0.088801
655.380000	-0.278427
655.575000	-0.360058
655.770000	-0.544559
655.965000	-0.452720
656.160000	-0.514308
656.355000	-0.074626
656.550000	-0.085109
656.745000	-0.300650
656.940000	-0.434399
657.135000	-0.167352
657.330000	-0.290674
657.525000	-0.558122
657.720000	-0.239909
657.915000	-0.013373
658.111000	-0.075124
658.306000	0.120499
658.501000	0.007226
658.696000	-0.343611
658.891000	-0.075361
659.086000	-0.209481
659.281000	-0.127134
659.476000	-0.499942
659.671000	-1.027735
659.866000	-0.603658
660.061000	-0.179251
660.256000	-0.137869
660.451000	-0.034238
660.646000	-0.179729
660.842000	-0.107130
661.037000	-0.273648
661.232000	-0.399077
661.427000	-0.336291
661.622000	-0.420356
661.817000	-0.441099
662.012000	-0.295849
662.207000	-0.588966
662.402000	-0.611423
662.597000	-0.380959
662.792000	-0.716131
662.987000	-0.715544
663.182000	-0.328607
663.378000	-0.265828
663.573000	-0.508736
663.768000	-0.465637
663.963000	-0.392489
664.158000	-0.591875
664.353000	-0.024279
664.548000	0.345057
664.743000	-0.013733
664.938000	-0.467943
665.133000	-0.436938
665.328000	-0.204489
665.523000	-0.300435
665.718000	-0.321704
665.913000	-0.417886
666.109000	-0.599990
666.304000	-0.365417
666.499000	-0.216131
666.694000	0.050182
666.889000	0.199640
667.084000	-0.356703
667.279000	-0.549187
667.474000	-0.249576
667.669000	-0.153136
667.864000	-0.164039
668.059000	-0.078386
668.254000	-0.164497
668.449000	-0.519882
668.644000	-0.240248
668.840000	-0.024747
669.035000	-0.315698
669.230000	-0.457318
669.425000	-0.219618
669.620000	-0.587407
669.815000	-0.567819
670.010000	-0.285274
670.205000	-0.220376
670.400000	-0.350023
670.595000	-0.231522
670.790000	-0.427749
670.985000	-0.471779
671.180000	-0.232333
671.376000	-0.461807
671.571000	-0.473772
671.766000	-0.573572
671.961000	-0.420194
672.156000	-0.453672
672.351000	-0.376866
672.546000	-0.278566
672.741000	-0.212038
672.936000	-0.476336
673.131000	0.162151
673.326000	0.018804
673.521000	-0.567941
673.716000	-0.578999
673.911000	-0.579412
674.107000	-0.081026
674.302000	0.096632
674.497000	-0.247972
674.692000	-0.448448
674.887000	-0.472309
675.082000	-0.227006
675.277000	0.198209
675.472000	-0.149132
675.667000	-0.486265
675.862000	-0.565164
676.057000	-0.464352
676.252000	-0.206189
676.447000	-0.263168
676.643000	-0.048528
676.838000	0.053143
677.033000	-0.309115
677.228000	0.280375
677.423000	0.121532
677.618000	-0.481749
677.813000	-0.583906
678.008000	-0.334571
678.203000	-0.094876
678.398000	-0.484407
678.593000	-0.427294
678.788000	-0.233303
678.983000	-0.462593
679.178000	-0.347980
679.374000	-0.463498
679.569000	-0.233977
679.764000	-0.223111
679.959000	-0.571282
680.154000	-0.536627
680.349000	-0.608268
680.544000	-0.560994
680.739000	-0.375356
680.934000	-0.678182
681.129000	-0.668415
681.324000	-0.622521
681.519000	-0.319858
681.714000	-0.355132
681.909000	-0.577120
682.105000	-0.813529
682.300000	-0.144953
682.495000	-0.309781
682.690000	-0.157014
682.885000	-0.050805
683.080000	-0.453771
683.275000	-0.465852
683.470000	-0.003560
683.665000	0.186740
683.860000	0.544504
684.055000	0.270619
684.250000	-0.337710
684.445000	-0.623114
684.641000	0.008365
684.836000	-0.219050
685.031000	-0.183801
685.226000	-0.388550
685.421000	0.008444
685.616000	-0.413769
685.811000	-0.451039
686.006000	-0.124538
686.201000	-0.245777
686.396000	-0.757170
686.591000	-0.612554
686.786000	-0.211014
686.981000	-0.418409
687.176000	-0.125950
687.372000	-0.370931
687.567000	0.069810
687.762000	0.168252
687.957000	-0.114211
688.152000	-0.311364
688.347000	-0.250280
688.542000	-0.510456
688.737000	-0.992046
688.932000	-1.105109
689.127000	-0.338315
689.322000	-0.264712
689.517000	-0.339207
689.712000	-0.402752
689.908000	-0.527977
690.103000	-0.391436
690.298000	-0.278929
690.493000	-0.505393
690.688000	-0.958043
690.883000	-0.621154
691.078000	0.046634
691.273000	0.097059
691.468000	-0.294270
691.663000	-0.434844
691.858000	-0.130603
692.053000	-0.257391
692.248000	-0.384576
692.443000	-0.092650
692.639000	-0.143715
692.834000	-0.080323
693.029000	0.340545
693.224000	0.393421
693.419000	-0.080810
693.614000	-0.286582
693.809000	-0.582586
694.004000	-0.905806
694.199000	-0.841163
694.394000	-0.275307
694.589000	-0.612011
694.784000	-0.664441
694.979000	-0.483128
695.174000	-0.562263
695.370000	-0.068706
695.565000	-0.263797
695.760000	-0.537917
695.955000	-0.016973
696.150000	0.048323
696.345000	-0.410371
696.540000	-0.358555
696.740000	-0.450177
696.940000	-0.266633
697.140000	0.101658
697.340000	-0.189121
697.539000	-0.123060
697.739000	-0.321672
697.939000	-0.215921
698.139000	-0.428314
698.339000	-0.869159
698.539000	-0.669122
698.739000	-0.644243
698.939000	-0.231762
699.138000	-0.352915
699.338000	0.143091
699.538000	0.116789
699.738000	-0.650280
699.938000	-0.313960
700.138000	-0.273999
700.338000	-0.450765
700.538000	-0.221193
700.737000	-0.275383
700.937000	-0.842637
701.137000	-0.708469
701.337000	-0.004085
701.537000	0.036846
701.737000	-0.181271
701.937000	-0.359265
702.137000	-0.427587
702.337000	-0.756717
702.536000	-0.854244
702.736000	-0.814087
702.936000	-0.815289
703.136000	-0.142029
703.336000	-0.128210
703.536000	-0.363580
703.736000	-0.946764
703.936000	-0.778805
704.135000	-0.792241
704.335000	-0.336917
704.535000	-0.643698
704.735000	-0.574772
704.935000	-0.004166
705.135000	-0.311198
705.335000	-0.452256
705.535000	-0.200357
705.735000	-0.270364
705.934000	-0.032203
706.134000	-0.368359
706.334000	-0.383272
706.534000	-0.397883
706.734000	-0.679612
706.934000	-0.975041
707.134000	-0.820486
707.334000	-0.540162
707.533000	-0.470513
707.733000	-0.540768
707.933000	-0.527176
708.133000	-0.145398
708.333000	-0.089395
708.533000	-0.487607
708.733000	-0.089547
708.933000	-0.217663
709.132000	-0.332119
709.332000	-0.603965
709.532000	-0.548060
709.732000	-0.375795
709.932000	-0.906645
710.132000	-0.719995
710.332000	-0.805510
710.532000	-0.333672
710.732000	0.010052
710.931000	-0.320464
711.131000	-0.437131
711.331000	-0.423030
711.531000	-0.626221
711.731000	-0.787284
711.931000	-0.745022
712.131000	-0.541052
712.331000	-0.280044
712.530000	-0.366659
712.730000	-0.643705
712.930000	-0.585387
713.130000	-0.412518
713.330000	-0.486002
713.530000	-0.297362
713.730000	0.376635
713.930000	0.083507
714.129000	-0.750781
714.329000	-0.973423
714.529000	-0.459200
714.729000	-0.033813
714.929000	-0.445458
715.129000	-0.534552
715.329000	-0.254995
715.529000	-0.241240
715.729000	0.202379
715.928000	-0.152536
716.128000	-0.478637
716.328000	-0.271983
716.528000	-0.540123
716.728000	-0.212827
716.928000	-0.525422
717.128000	-0.466925
717.328000	-0.451933
717.527000	-0.691416
717.727000	-0.378183
717.927000	-0.169455
718.127000	-0.454639
718.327000	-0.726036
718.527000	-0.800793
718.727000	-0.696266
718.927000	-0.637267
719.127000	-0.730585
719.326000	-0.787880
719.526000	-0.185635
719.726000	-0.201149
719.926000	-0.748398
720.126000	-0.596690
720.326000	-0.384071
720.526000	-0.551161
720.726000	-0.583285
720.925000	-0.537940
721.125000	-0.784661
721.325000	-0.233738
721.525000	-0.096478
721.725000	-0.555960
721.925000	-0.542167
722.125000	-0.342530
722.325000	-0.050683
722.524000	-0.466774
722.724000	-1.007203
722.924000	-1.176797
723.124000	-0.684101
723.324000	-0.282888
723.524000	-0.221255
723.724000	-0.453750
723.924000	-0.486461
724.124000	-0.455534
724.323000	-0.020238
724.523000	0.057549
724.723000	0.603228
724.923000	-0.067045
725.123000	-0.051507
725.323000	0.261124
725.523000	-0.333687
725.723000	-0.724577
725.922000	-0.584389
726.122000	-0.381143
726.322000	-0.649533
726.522000	-0.776110
726.722000	-0.083340
726.922000	-0.303275
727.122000	-0.209720
727.322000	0.137360
727.521000	-0.099712
727.721000	-0.258365
727.921000	-0.416891
728.121000	-0.702039
728.321000	-0.862098
728.521000	-0.609630
728.721000	-0.164226
728.921000	0.027096
729.121000	0.713633
729.320000	-0.068725
729.520000	-0.580221
729.720000	-0.645220
729.920000	-0.278299
730.120000	-0.325731
730.320000	-0.342614
730.520000	-0.600223
730.720000	-0.828108
730.919000	-0.602001
731.119000	-0.231217
731.319000	-0.733652
731.519000	-0.911676
731.719000	-0.636875
731.919000	-0.604787
732.119000	-1.157985
732.319000	-1.161620
732.519000	-0.461310
732.718000	-0.690424
732.918000	-0.691018
733.118000	-0.512596
733.318000	-0.004927
733.518000	-0.382710
733.718000	-1.139856
733.918000	-0.761994
734.118000	-0.663016
734.317000	-0.583122
734.517000	-0.829756
734.717000	-0.750875
734.917000	-0.171115
735.117000	-0.171297
735.317000	-0.370773
735.517000	0.211732
735.717000	0.429733
735.916000	-0.607068
736.116000	-0.623250
736.316000	-0.240415
736.516000	-0.341181
736.716000	-0.156384
736.916000	-0.663543
737.116000	-0.632842
737.316000	-0.140797
737.516000	-0.039093
737.715000	-0.345260
737.915000	-0.992011
738.115000	-0.892742
738.315000	-0.739662
738.515000	-0.978625
738.715000	-0.520532
738.915000	-0.228790
739.115000	-1.142399
739.314000	-0.556051
739.514000	0.288527
739.714000	0.012124
739.914000	-0.474236
740.114000	-0.388106
740.314000	-0.040059
740.514000	0.221532
740.714000	-0.512824
740.913000	-0.934245
741.113000	-0.707486
741.313000	-0.373933
741.513000	-0.480614
741.713000	-0.534862
741.913000	-0.413241
742.113000	-0.483447
742.313000	-0.786169
742.513000	-0.413878
742.712000	-0.450860
742.912000	-1.128338
743.112000	-1.006954
743.312000	-1.187780
743.512000	-0.795436
743.712000	-0.599842
743.912000	-1.340548
744.112000	-1.955239
744.311000	-1.489853
744.511000	-0.712723
744.711000	-0.314526
744.911000	-0.861176
745.111000	-0.880475
745.311000	-0.626468
745.511000	-1.194311
745.711000	-1.305278
745.911000	-0.628740
746.110000	-0.885791
746.310000	-1.057047
746.510000	-0.668201
746.710000	-0.061024
746.910000	-0.301691
747.110000	-0.932484
747.310000	-1.119823
747.510000	-1.310504
747.709000	-0.751865
747.909000	-0.828612
748.109000	-0.493592
748.309000	-0.645049
748.509000	-0.796746
748.709000	-0.780793
748.909000	-0.723854
749.109000	-0.366354
749.308000	0.450331
749.508000	-0.158290
749.708000	-0.692513
749.908000	-0.253787
750.108000	-0.331095
750.308000	-1.177281
750.508000	-0.217574
750.708000	-0.737689
750.908000	-1.607892
751.107000	-0.741562
751.307000	0.148910
751.507000	-0.297140
751.707000	-0.374348
751.907000	-0.666926
752.107000	-0.630164
752.307000	-0.867188
752.507000	-0.673193
752.706000	-0.437376
752.906000	0.387202
753.106000	-0.558164
753.306000	-1.311656
753.506000	-0.204327
753.706000	-0.562524
753.906000	-0.463210
754.106000	-0.085598
754.305000	-0.245169
754.505000	-0.185857
754.705000	-0.347623
754.905000	-0.690238
755.105000	-0.227733
755.305000	-0.934403
755.505000	-0.795417
755.705000	-0.350583
755.905000	-0.148379
756.104000	-1.084303
756.304000	-1.699157
756.504000	-1.763981
756.704000	-0.191080
756.904000	-0.108833
757.104000	-0.867387
757.304000	-0.601389
757.504000	-0.130100
757.703000	-0.646248
757.903000	-0.068299
758.103000	0.346342
758.303000	-0.151821
758.503000	-0.590119
758.703000	-1.009515
758.903000	-1.135427
759.103000	-0.572429
759.303000	-0.406627
759.502000	-0.936292
759.702000	-0.703534
759.902000	-0.728362
760.102000	-1.070681
760.302000	-0.967499
760.502000	-0.112857
760.702000	-0.198317
760.902000	-0.562021
761.101000	-0.885104
761.301000	-1.401903
761.501000	-0.758087
761.701000	-0.738092
761.901000	-0.179535
762.101000	0.210267
762.301000	-0.266631
762.501000	-1.199741
762.700000	-1.227062
762.900000	-0.791443
763.100000	-0.486757
763.300000	-0.444912
763.500000	-0.576984
763.703000	-0.509460
763.905000	-0.511397
764.108000	-0.138767
764.311000	-0.557344
764.513000	-0.535961
764.716000	-0.582422
764.919000	-0.405802
765.121000	-0.893999
765.324000	-1.007937
765.527000	-0.968577
765.729000	-1.080389
765.932000	-0.253175
766.135000	-0.409888
766.337000	-0.791067
766.540000	-0.658765
766.743000	-0.255952
766.945000	-1.272702
767.148000	-1.456839
767.351000	-1.139482
767.553000	-0.325161
767.756000	-0.666947
767.958000	-0.689639
768.161000	-0.280195
768.364000	-1.150060
768.566000	-1.244234
768.769000	-0.696613
768.972000	-0.650541
769.174000	-1.090612
769.377000	-1.186228
769.580000	-1.003375
769.782000	-0.331080
769.985000	-0.866346
770.188000	-2.242023
770.390000	-1.153464
770.593000	0.577181
770.796000	0.180065
770.998000	-0.872772
771.201000	-0.967384
771.404000	-0.476165
771.606000	-0.784198
771.809000	-0.572066
772.012000	-0.761866
772.214000	-1.376215
772.417000	-1.423580
772.620000	-0.595443
772.822000	-0.908387
773.025000	-1.216938
773.228000	-0.743885
773.430000	-0.459454
773.633000	-0.269517
773.836000	-0.317652
774.038000	-0.366800
774.241000	-0.294799
774.444000	-0.584197
774.646000	0.449205
774.849000	-0.272057
775.052000	-0.512728
775.254000	-0.634344
775.457000	-0.971133
775.659000	-1.094236
775.862000	-1.553556
776.065000	-0.878490
776.267000	0.138182
776.470000	0.552762
776.673000	-0.519030
776.875000	-0.129527
777.078000	-0.202522
777.281000	-1.060543
777.483000	-0.941065
777.686000	-0.081236
777.889000	-0.204540
778.091000	-0.180516
778.294000	-1.242059
778.497000	-0.848059
778.699000	-0.626036
778.902000	-0.876465
779.105000	-0.206095
779.307000	0.688794
779.510000	-0.530834
779.713000	-0.407805
779.915000	-1.011584
780.118000	0.218596
780.321000	0.344648
780.523000	-0.259717
780.726000	-0.360728
780.929000	-1.268398
781.131000	-1.245105
781.334000	-1.782068
781.537000	-1.837894
781.739000	-0.363844
781.942000	-0.847957
782.145000	-1.082705
782.347000	-1.262672
782.550000	-0.955942
782.753000	-1.370487
782.955000	-1.322647
783.158000	-1.373401
783.361000	-0.937665
783.563000	-0.317773
783.766000	-0.189086
783.968000	1.107723
784.171000	1.164928
784.374000	-0.398770
784.576000	-0.945819
784.779000	-0.450053
784.982000	0.149138
785.184000	-0.718167
785.387000	-0.376757
785.590000	0.545084
785.792000	0.520718
785.995000	0.150895
786.198000	-0.140535
786.400000	-0.434035
786.603000	-0.488528
786.806000	-0.540246
787.008000	-0.274087
787.211000	-0.595554
787.414000	-1.294336
787.616000	-1.030237
787.819000	-1.302290
788.022000	-1.871025
788.224000	-1.009565
788.427000	-1.416358
788.630000	-0.904975
788.832000	-0.632525
789.035000	-1.282008
789.238000	-1.532828
789.440000	-1.295306
789.643000	-0.418121
789.846000	-0.748184
790.048000	-0.365383
790.251000	0.239068
790.454000	-0.227619
790.656000	0.349570
790.859000	-0.725589
791.062000	-1.224343
791.264000	-0.312047
791.467000	-1.422630
791.669000	-1.896834
791.872000	-0.761966
792.075000	-1.904109
792.277000	-1.235222
792.480000	-0.232688
792.683000	-1.042837
792.885000	-1.519594
793.088000	-1.216201
793.291000	-1.472666
793.493000	-1.983119
793.696000	-1.193724
793.899000	-0.404665
794.101000	-0.036873
794.304000	-0.179096
794.507000	0.133810
794.709000	-0.236958
794.912000	-1.069168
795.115000	-0.726595
795.317000	-0.783818
795.520000	-0.844918
795.723000	-1.137856
795.925000	-1.255500
796.128000	-1.948885
796.331000	-1.432331
796.533000	-1.435738
796.736000	-0.447813
796.939000	-0.654256
797.141000	-1.391388
797.344000	-0.214944
797.547000	0.727590
797.749000	0.227145
797.952000	-1.194860
798.155000	-2.109366
798.357000	-2.330406
798.560000	-1.415715
798.763000	-0.756463
798.965000	-1.383047
799.168000	-1.087496
799.371000	-0.398914
799.573000	-0.701181
799.776000	-1.666668
799.978000	-1.974888
800.181000	-1.402946
800.384000	0.688901
800.586000	0.051713
800.789000	-1.255778
800.992000	-1.133385
801.194000	-1.318605
801.397000	-1.779985
801.600000	-1.939255
801.802000	-0.039886
802.005000	0.021546
802.208000	-1.336552
802.410000	-0.903635
802.613000	-0.566877
802.816000	-0.350447
803.018000	-1.066580
803.221000	-0.819341
803.424000	0.802314
803.626000	-0.196982
803.829000	-1.138607
804.032000	0.116363
804.234000	1.468238
804.437000	-0.104199
804.640000	-1.271418
804.842000	-1.274326
805.045000	-1.471335
805.248000	-1.060198
805.450000	-0.931936
805.653000	-1.129894
805.856000	-0.904847
806.058000	-0.234122
806.261000	-1.424120
806.464000	-0.781958
806.666000	0.473786
806.869000	-0.626031
807.072000	-2.604399
807.274000	-2.865747
807.477000	-1.181321
807.679000	-0.661178
807.882000	-1.576763
808.085000	-1.160145
808.287000	-0.700723
808.490000	-1.921622
808.693000	-1.988945
808.895000	-0.967522
809.098000	-0.901916
809.301000	-0.938081
809.503000	-1.108607
809.706000	0.157324
809.909000	0.023427
810.111000	-0.211142
810.314000	-0.917037
810.517000	-1.282357
810.719000	-0.885536
810.922000	-1.125979
811.125000	0.293542
811.327000	0.532754
811.530000	-0.487171
811.735000	-1.438899
811.940000	-1.919415
812.146000	-1.859018
812.351000	-0.866240
812.556000	-0.697278
812.761000	-1.388644
812.967000	-0.114201
813.172000	0.024199
813.377000	-0.807974
813.582000	-0.219392
813.788000	-0.185842
813.993000	-1.094767
814.198000	-0.605688
814.403000	-1.410153
814.609000	-1.102123
814.814000	-0.364315
815.019000	0.624911
815.224000	-0.151736
815.429000	-1.715712
815.635000	-1.614200
815.840000	-1.116540
816.045000	-0.261594
816.250000	0.384050
816.456000	-1.628713
816.661000	-2.575275
816.866000	-2.074160
817.071000	-2.036678
817.277000	-2.668761
817.482000	-1.761582
817.687000	-0.885698
817.892000	-1.000676
818.097000	-0.121336
818.303000	0.209578
818.508000	0.282561
818.713000	2.456065
818.918000	1.352358
819.124000	0.395298
819.329000	-0.975747
819.534000	-0.680965
819.739000	-0.643807
819.945000	-1.282472
820.150000	-1.214555
820.355000	-0.350382
820.560000	-0.499735
820.766000	-1.631124
820.971000	-1.754194
821.176000	-2.897843
821.381000	-3.040963
821.586000	-1.687698
821.792000	0.179682
821.997000	-0.049746
822.202000	-1.237205
822.407000	-1.394636
822.613000	-2.090572
822.818000	-1.825824
823.023000	-1.518866
823.228000	-1.723164
823.434000	-0.128260
823.639000	0.962069
823.844000	-0.597507
824.049000	0.769908
824.255000	-0.090179
824.460000	-1.232942
824.665000	-1.116320
824.870000	0.502661
825.075000	-0.091148
825.281000	-0.131172
825.486000	0.507807
825.691000	-1.894140
825.896000	-3.382422
826.102000	-1.336947
826.307000	-1.662173
826.512000	-1.789580
826.717000	-1.268321
826.923000	-1.109394
827.128000	-0.663837
827.333000	-0.996044
827.538000	0.028800
827.744000	-0.259831
827.949000	-1.453117
828.154000	-1.128351
828.359000	0.152850
828.564000	-0.801299
828.770000	-1.179821
828.975000	-0.472163
829.180000	-0.600545
829.385000	-1.565859
829.591000	-1.741072
829.796000	-0.944792
830.001000	-1.243735
830.206000	-1.630902
830.412000	-1.586699
830.617000	-2.315439
830.822000	-1.127069
831.027000	-1.039042
831.232000	-1.518548
831.438000	-0.749474
831.643000	-0.706091
831.848000	-1.185494
832.053000	-1.015658
832.259000	-1.409715
832.464000	-2.989283
832.669000	-2.297284
832.874000	-1.635744
833.080000	-1.995357
833.285000	-0.586785
833.490000	0.030905
833.695000	-1.435451
833.901000	-1.442205
834.106000	-1.578560
834.311000	-1.182277
834.516000	-1.139067
834.721000	-1.779363
834.927000	-0.150030
835.132000	-0.560297
835.337000	1.400549
835.542000	0.491042
835.748000	-2.395485
835.953000	0.583707
836.158000	0.677286
836.363000	-0.060136
836.569000	-0.806481
836.774000	-2.302278
836.979000	-2.445346
837.184000	-2.029455
837.390000	-1.422742
837.595000	-1.473634
837.800000	-1.712963
838.005000	-0.916327
838.210000	-1.106719
838.416000	-1.683200
838.621000	-2.118027
838.826000	-1.447788
839.031000	-0.782842
839.237000	-1.804799
839.442000	-2.243855
839.647000	-2.821197
839.852000	-2.201567
840.058000	-2.258298
840.263000	-2.416435
840.468000	-2.762316
840.673000	-0.996104
840.878000	-0.849697
841.084000	-2.287599
841.289000	-1.847562
841.494000	1.132227
841.699000	1.186016
841.905000	0.787740
842.110000	0.892887
842.315000	-1.076779
842.520000	-1.126200
842.726000	-1.382007
842.931000	-1.633796
843.136000	-0.524762
843.341000	-1.965852
843.547000	-2.115495
843.752000	-0.938448
843.957000	-2.807379
844.162000	-2.041503
844.367000	-0.952696
844.573000	-0.956797
844.778000	-0.432811
844.983000	-0.381599
845.188000	-0.646265
845.394000	-2.348630
845.599000	-1.549570
845.804000	-1.183388
846.009000	-1.031267
846.215000	-2.378075
846.420000	-2.438318
846.625000	-0.772219
846.830000	-0.069949
847.036000	-0.827238
847.241000	-1.210826
847.446000	0.146585
847.651000	-0.452508
847.856000	-1.941954
848.062000	-1.782186
848.267000	0.038635
848.472000	-1.013523
848.677000	-2.904661
848.883000	-0.570843
849.088000	0.599017
849.293000	-1.759174
849.498000	-1.644667
849.704000	-0.523490
849.909000	-0.073366
850.114000	-1.992223
850.319000	-1.148232
850.524000	-1.893911
850.730000	-1.618672
850.935000	-2.256866
851.140000	-1.226412
851.345000	-0.362690
851.551000	-0.883469
851.756000	-0.772115
851.961000	-1.298043
852.166000	-1.124002
852.372000	-1.302084
852.577000	-2.076207
852.782000	-1.914168
852.987000	-0.608663
853.193000	-0.907389
853.398000	-1.322929
853.603000	-2.098822
853.808000	-2.218899
854.013000	-1.095553
854.219000	0.041983
854.424000	2.390248
854.629000	1.671437
854.834000	-0.443428
855.040000	-0.262870
855.245000	0.042650
855.450000	-2.933782
855.655000	-4.107367
855.861000	-4.256294
856.066000	-2.495261
856.271000	-1.879110
856.476000	-0.392052
856.682000	-1.518020
856.887000	-4.637435
857.092000	-3.646415
857.297000	-0.584016
857.502000	0.044045
857.708000	-1.027611
857.913000	-0.966241
858.118000	-1.994911
858.323000	-1.489393
858.529000	-1.040325
858.734000	-1.491136
858.939000	-0.211813
859.144000	-2.659848
859.350000	-3.561994
859.555000	-2.022406
859.760000	-0.799081
859.965000	0.175357
860.171000	-1.715492
860.376000	-0.740152
860.581000	-2.778071
860.786000	-5.757546
860.991000	-4.921549
861.197000	-3.395982
861.402000	-2.542672
861.607000	-3.208603
861.812000	-3.289127
862.018000	-2.765965
862.223000	-1.563398
862.428000	-0.897673
862.633000	-0.357881
862.839000	-1.039608
863.044000	-3.035272
863.249000	-2.685385
863.454000	-0.362511
863.659000	-2.147364
863.865000	-3.674873
864.070000	-2.785852
864.275000	-3.136730
864.480000	-3.011961
864.686000	-4.140165
864.891000	-2.885856
865.096000	-0.582628
865.301000	-1.568302
865.507000	-1.577529
865.712000	-0.657849
865.917000	-2.299477
866.122000	-1.806035
866.328000	-4.759651
866.533000	-3.895455
866.738000	-0.093380
866.943000	-0.165560
867.148000	0.484993
867.354000	-1.918722
867.559000	-3.670709
867.764000	-1.928657
867.969000	-0.022111
868.175000	-1.858440
868.380000	-3.634089
868.585000	-4.303110
868.790000	-1.799768
868.996000	-1.662556
869.201000	-3.984142
869.406000	-5.202475
869.611000	-3.480742
869.817000	-3.702157
870.022000	2.314129
870.227000	0.279586
870.432000	-3.060216
870.637000	-0.478943
870.843000	-1.705157
871.048000	-2.777000
871.253000	-0.864965
871.458000	-1.484829
871.664000	-3.739543
871.869000	-4.462564
872.074000	-2.601239
872.279000	-0.960355
872.485000	-1.595191
872.690000	-2.154558
872.895000	-2.321958
873.100000	-3.197458
873.306000	-3.529767
873.511000	-2.671788
873.716000	-0.426172
873.921000	-2.831055
874.126000	-2.674906
874.332000	-1.322239
874.537000	-0.839659
874.742000	-1.730777
874.947000	-1.656517
875.153000	0.469494
875.358000	-0.520131
875.563000	-0.684616
875.768000	-3.420882
875.974000	-4.932007
876.179000	-0.608328
876.384000	-0.276334
876.589000	-2.898224
876.794000	-3.409079
877.000000	-4.766486
877.205000	-5.267775
877.410000	-0.535319
877.615000	-2.570277
877.821000	-4.989310
878.026000	-4.135544
878.231000	-4.049003
878.436000	-4.141547
878.642000	-2.616075
878.847000	-1.670054
879.052000	-1.322041
879.257000	-3.076718
879.463000	-3.255525
879.668000	-1.859618
879.873000	-0.376910
880.078000	-4.068298
880.283000	-6.024767
880.489000	-7.171346
880.694000	-5.253488
880.899000	-1.454938
881.104000	-1.460846
881.310000	-0.206126
881.515000	-0.563958
881.720000	0.242278
881.925000	1.958176
882.131000	2.319276
882.336000	0.427411
882.541000	-3.143721
882.746000	-3.803968
882.952000	-4.903530
883.157000	-4.638935
883.362000	-3.260556
883.567000	-4.387249
883.772000	-5.083288
883.978000	-4.151679
884.183000	-3.221810
884.388000	-3.026858
884.593000	-4.715555
884.799000	-0.310754
885.004000	-1.174626
885.209000	-2.226061
885.414000	-1.266315
885.620000	-3.960684
885.825000	-1.091461
886.030000	-1.378529
886.235000	-4.005799
886.440000	-3.061152
886.646000	-4.739451
886.851000	-5.453620
887.056000	-2.503049
887.261000	-2.703083
887.467000	-3.807671
887.672000	-0.730689
887.877000	-4.658010
888.082000	-8.925823
888.288000	-7.382509
888.493000	-8.736585
888.698000	-6.345764
888.903000	-2.583629
889.109000	-4.208811
889.314000	-0.642387
889.519000	-2.062044
889.724000	1.393626
889.929000	-1.456361
890.135000	-4.625916
890.340000	-3.425886
890.545000	-4.658316
890.750000	-5.390018
890.956000	-3.650116
891.161000	-0.340736
891.366000	-3.655145
891.571000	-3.248571
891.777000	-1.070016
891.982000	1.325784
892.187000	-2.128250
892.392000	0.386985
892.598000	1.125507
892.803000	-1.517480
893.008000	-4.060272
893.213000	-5.424067
893.418000	-3.865134
893.624000	-3.563491
893.829000	-6.134427
894.034000	-3.465347
894.239000	-1.433927
894.445000	-5.625615
894.650000	-5.653971
894.855000	-5.661022
895.060000	-5.543513
895.266000	-4.165170
895.471000	-6.017489
895.676000	-1.343102
895.881000	-0.473581
896.087000	-1.685394
896.292000	-3.802947
896.497000	1.526420
896.702000	-1.808826
896.907000	-6.257304
897.113000	-0.368124
897.318000	0.858522
897.523000	-0.257118
897.728000	-2.839181
897.934000	-3.836761
898.139000	-1.155324
898.344000	2.570125
898.549000	-1.286689
898.755000	-3.226979
898.960000	-4.623686
899.165000	-6.117946
899.370000	-1.648332
899.575000	1.583202
899.781000	-3.511476
899.986000	-4.438829
900.191000	-0.968084
900.396000	-2.720788
900.602000	-3.441960
900.807000	-2.874770
901.012000	-1.940903
901.217000	-0.871396
901.423000	-4.556175
901.628000	-4.810145
901.833000	0.203920
902.038000	0.084620
902.244000	-2.929450
902.449000	-1.612803
902.654000	-4.448255
902.859000	-2.115004
903.064000	-0.159693
903.270000	-0.653397
903.475000	-3.614943
903.680000	-6.076275
903.885000	-6.497412
904.091000	-6.905464
904.296000	-7.058283
904.501000	-4.443092
904.706000	-4.078574
904.912000	-0.676465
905.117000	-0.935638
905.322000	-5.465588
905.527000	-7.369405
905.733000	-5.315120
905.938000	-5.089382
906.143000	-4.757369
906.348000	-7.122105
906.553000	-1.624867
906.759000	0.488476
906.964000	-0.437830
907.169000	-4.442989
907.374000	-7.494938
907.580000	-7.401018
907.785000	-5.486452
907.990000	28.529468
908.195000	18.264988
908.401000	-0.041282
908.606000	-7.374775
908.811000	-7.505672
909.016000	0.372716
909.221000	-1.841785
909.427000	-2.270077
909.632000	-5.942783
909.837000	-6.125668
910.042000	-7.278454
910.248000	-10.023698
910.453000	-3.194947
910.658000	-3.219302
910.863000	-2.927521
911.069000	-6.122433
911.274000	-2.522362
911.479000	-1.070899
911.684000	-8.398382
911.890000	-4.325607
912.095000	-6.695959
912.300000	-9.125592
912.506000	-7.789881
912.711000	-7.736150
912.917000	-5.629942
913.123000	-4.577469
913.328000	-5.365778
913.534000	-6.181996
913.740000	8.295330
913.946000	4.610871
914.151000	-8.388388
914.357000	-9.988341
914.563000	-5.018925
914.768000	-8.503642
914.974000	-9.543213
915.180000	-6.120404
915.385000	-5.182276
915.591000	-11.541088
915.797000	-4.920623
916.002000	-0.375984
916.208000	-8.185618
916.414000	-10.085271
916.620000	-10.271715
916.825000	-6.830669
917.031000	-5.015180
917.237000	-10.684697
917.442000	-8.112650
917.648000	-8.176319
917.854000	-10.539303
918.059000	-1.584102
918.265000	-0.221156
918.471000	-3.641911
918.676000	-6.791357
918.882000	-8.923560
919.088000	-5.454557
919.294000	-11.994152
919.499000	-10.485657
919.705000	-1.297842
919.911000	-5.386700
920.116000	-4.722385
920.322000	-8.529203
920.528000	-6.580689
920.733000	-10.165067
920.939000	-11.499011
921.145000	-9.447246
921.350000	-7.330167
921.556000	-5.697986
921.762000	-4.558200
921.968000	-6.640478
922.173000	-6.684973
922.379000	-9.038190
922.585000	-7.562342
922.790000	-8.732346
922.996000	-5.886333
923.202000	-7.530403
923.407000	-10.940940
923.613000	-6.795278
923.819000	-3.639783
924.024000	-6.977672
924.230000	-6.424953
924.436000	-8.267159
924.642000	2.776485
924.847000	1.576698
925.053000	-3.947848
925.259000	-9.483640
925.464000	-3.979027
925.670000	-5.211805
925.876000	-6.937226
926.081000	-9.278287
926.287000	-7.619159
926.493000	-3.481622
926.698000	-3.915334
926.904000	-4.103964
927.110000	-5.625986
927.316000	-7.583080
927.521000	1.019936
927.727000	-2.268788
927.933000	-5.154568
928.138000	-6.288096
928.344000	-11.530880
928.550000	-8.171339
928.755000	-3.028288
928.961000	-10.748409
929.167000	-10.813933
929.372000	0.849267
929.578000	1.783665
929.784000	-3.570108
929.990000	-13.900748
930.195000	-11.117123
930.401000	-4.096357
930.607000	-2.207396
930.812000	-7.501804
931.018000	-13.790286
931.224000	-21.047907
931.429000	-17.957870
931.635000	-13.274255
931.841000	-13.404126
932.046000	-9.731097
932.252000	-7.294570
932.458000	3.944024
932.664000	2.972261
932.869000	-4.145172
933.075000	-5.453585
933.281000	-8.387691
933.486000	-6.393514
933.692000	-9.858150
933.898000	-11.623251
934.103000	-2.212240
934.309000	-6.885009
934.515000	-5.061937
934.720000	-1.193504
934.926000	3.834449
935.132000	-3.165267
935.338000	-8.862503
935.543000	-18.754758
935.749000	-20.380185
935.955000	-21.347668
936.160000	-17.765048
936.366000	-4.833113
936.572000	0.816354
936.777000	-1.018188
936.983000	1.144285
937.189000	-1.963656
937.394000	-6.412851
937.600000	-4.538400
937.806000	4.059964
938.012000	-7.241482
938.217000	3.827641
938.423000	3.525461
938.629000	-10.643824
938.834000	-22.004299
939.040000	-18.411698
939.246000	-14.305328
939.451000	-18.937530
939.657000	-17.395577
939.863000	-16.238624
940.068000	-10.375976
940.274000	-13.655876
940.480000	-4.443912
940.686000	-1.949834
940.891000	-15.066198
941.097000	18.432726
941.303000	-1.600581
941.508000	-10.221276
941.714000	-7.641774
941.920000	-22.996923
942.125000	-9.314540
942.331000	-5.121818
942.537000	-4.348327
942.742000	-2.060201
942.948000	-11.391062
943.154000	-15.648468
943.360000	-26.231721
943.565000	-11.618108
943.771000	-0.920678
943.977000	2.266089
944.182000	-20.756750
944.388000	-17.259441
944.594000	2.302411
944.799000	10.486353
945.005000	-7.341913
945.211000	-3.742207
945.416000	-0.531175
945.622000	-12.821516
945.828000	-7.991218
946.034000	-0.547069
946.239000	-5.628184
946.445000	-17.623971
946.651000	-29.567006
946.856000	-25.900754
947.062000	-7.217908
947.268000	0.294102
947.473000	-20.797326
947.679000	-24.743741
947.885000	-9.919709
948.090000	-3.983687
948.296000	15.550884
948.502000	2.017834
948.708000	-11.389869
948.913000	-10.648716
949.119000	-1.883650
949.325000	-12.404908
949.530000	-25.571735
949.736000	-31.166161
949.942000	-25.819312
950.147000	-19.428671
950.353000	-15.784951
950.559000	-7.527751
950.764000	19.631820
950.970000	10.037603
951.176000	-14.895629
951.382000	-22.703801
951.587000	-13.474531
951.793000	-1.990563
951.999000	4.426498
952.204000	-5.667854
952.410000	-36.215914
952.616000	-21.886644
952.821000	-13.819240
953.027000	-12.929511
953.233000	-18.742904
953.438000	-20.283245
953.644000	-3.418136
953.850000	-2.014767
954.056000	-13.873795
954.261000	-18.724526
954.467000	-0.620838
954.673000	7.958691
954.878000	-10.185785
955.084000	-6.367996
955.290000	-28.987848
955.495000	-29.554708
955.701000	-25.629060
955.907000	-4.064122
956.112000	7.198640
956.318000	18.782999
956.524000	4.762120
956.730000	-10.621504
956.935000	-21.157221
957.141000	-21.013470
957.347000	1.865121
957.552000	3.877409
957.758000	-21.315204
957.964000	-35.275428
958.169000	2.404015
958.375000	3.437616
958.581000	-10.466338
958.786000	-25.916563
958.992000	-30.144157
959.198000	-21.768984
959.404000	-11.187247
959.609000	-20.432379
959.815000	-17.124859
960.021000	4.653064
960.226000	-8.255419
960.432000	-26.957803
960.638000	-20.541786
960.843000	-15.477969
961.049000	-18.591223
961.255000	0.387341
961.460000	-21.903001
961.666000	-37.804705
961.872000	-21.742363
962.078000	-16.811622
962.283000	-33.037716
962.489000	-34.045717
962.695000	-20.959688
962.900000	-17.357566
963.106000	-25.073090
963.312000	-37.130459
963.517000	-36.205867
963.723000	-28.865725
963.929000	-6.721301
964.134000	2.790114
964.340000	-19.389098
964.546000	-16.785408
964.752000	-22.100970
964.957000	-25.976011
965.163000	4.147116
965.369000	-8.967490
965.574000	-12.861591
965.780000	-10.970012
966.000000	-24.940619
966.220000	-23.812972
966.440000	-27.789752
966.661000	-13.752921
966.881000	-24.805438
967.101000	-40.626079
967.321000	-43.012180
967.541000	-18.569794
967.761000	-29.405136
967.981000	-22.751829
968.202000	-13.783075
968.422000	-4.294683
968.642000	-0.883478
968.862000	-2.289547
969.082000	-16.983141
969.302000	-1.659792
969.522000	-2.340659
969.743000	7.390448
969.963000	-12.918436
970.183000	-31.898467
970.403000	-35.738378
970.623000	-20.772828
970.843000	4.156942
971.063000	1.258924
971.284000	-32.260338
971.504000	-40.727885
971.724000	-19.147978
971.944000	-34.049122
972.164000	-47.280477
972.384000	-25.362207
972.604000	-44.265758
972.825000	-54.215360
973.045000	-37.987940
973.265000	18.627003
973.485000	-0.240150
973.705000	-23.586132
973.925000	-29.663096
974.145000	-57.995141
974.365000	-16.989749
974.586000	-14.563803
974.806000	-54.135274
975.026000	-21.383637
975.246000	-26.927890
975.466000	-33.578837
975.686000	-17.917787
975.906000	-38.986623
976.127000	-58.651686
976.347000	-41.523453
976.567000	-23.111931
976.787000	-14.368336
977.007000	-23.877926
977.227000	-30.854620
977.447000	-41.407443
977.668000	-59.147746
977.888000	-35.609737
978.108000	-47.202536
978.328000	-29.706930
978.548000	-5.889361
978.768000	-1.237918
978.988000	9.649608
979.209000	-23.073704
979.429000	-25.198452
979.649000	-6.134025
979.869000	-58.261421
980.089000	-56.745794
980.309000	-49.468635
980.529000	-67.516908
980.750000	-39.838206
980.970000	-55.774616
981.190000	-40.683477
981.410000	-36.517219
981.630000	-43.759928
981.850000	-23.994067
982.070000	-11.542645
982.291000	-42.825659
982.511000	-35.395179
982.731000	-14.018810
982.951000	-45.027260
983.171000	-42.658496
983.391000	-41.424425
983.611000	-8.441286
983.832000	-49.976968
984.052000	-88.993616
984.272000	-40.498265
984.492000	-18.349931
984.712000	-30.510684
984.932000	-61.326275
985.152000	-86.183238
985.373000	-78.389652
985.593000	-57.836008
985.813000	-58.695914
986.033000	-54.404077
986.253000	-10.933063
986.473000	8.392147
986.693000	-14.573652
986.914000	-31.450843
987.134000	-12.552575
987.354000	-14.143422
987.574000	226.866176
987.794000	133.821960
988.014000	-28.318442
988.234000	-13.425697
988.455000	-12.102163
988.675000	-19.489707
988.895000	-21.686029
989.115000	-49.585965
989.335000	-39.260678
989.555000	-27.269109
989.775000	-52.124506
989.995000	-37.344856
990.216000	-51.452094
990.436000	-56.931559
990.656000	51.173155
990.876000	4.366284
991.096000	-5.316298
991.316000	39.421264
991.536000	-8.900520
991.757000	-58.045578
991.977000	-78.806848
992.197000	9.719833
992.417000	-23.911659
992.637000	-71.840233
992.857000	-101.992784
993.077000	-92.797196
993.298000	-40.474954
993.518000	-75.433241
993.738000	-110.077414
993.958000	-37.696619
994.178000	-58.842000
994.398000	-26.324170
994.618000	-120.839157
994.839000	-188.290463
995.059000	-56.523493
995.279000	-8.707811
995.499000	-14.885498
995.719000	7.269164
995.939000	-16.341313
996.159000	-6.938643
996.380000	-6.724803
996.600000	-72.093292
996.820000	-76.473736
997.040000	-45.644989
997.260000	-124.346218
997.480000	-65.360511
997.700000	-120.796919
997.921000	-111.235171
998.141000	-2.811243
998.361000	-35.598326
998.581000	-43.991834
998.801000	-71.002548
999.021000	-71.580253
999.241000	-46.470315
999.462000	-66.468180
999.682000	-123.814820
999.902000	-120.195850
1000.122000	-129.776398
1000.342000	-181.891856
1000.562000	-71.455186
1000.782000	-130.024513
1001.003000	-1261.124156
