Wavelength	Irradiance
(nm)	(mW/cm2/nm)

294.396000	0.000000
294.577000	0.000000
294.757000	-0.000000
294.938000	-0.000000
295.118000	-0.000000
295.299000	0.000000
295.479000	-0.000000
295.660000	-0.000000
295.840000	-0.000000
296.021000	-0.000000
296.202000	-0.000000
296.382000	-0.000000
296.563000	-0.000000
296.743000	-0.000000
296.924000	0.000000
297.104000	-0.000000
297.285000	-0.000000
297.465000	-0.000000
297.646000	-0.000000
297.826000	-0.000000
298.007000	0.000000
298.187000	-0.000000
298.368000	-0.000000
298.548000	-0.000000
298.729000	0.000000
298.909000	-0.000000
299.090000	-0.000000
299.270000	-0.000000
299.451000	-0.000000
299.631000	-0.000000
299.812000	-0.000000
299.992000	0.000000
300.173000	0.000000
300.353000	-0.000000
300.534000	0.000000
300.714000	0.000000
300.895000	-0.000000
301.075000	-0.000000
301.256000	0.000000
301.436000	0.000000
301.617000	0.000000
301.797000	-0.000000
301.978000	0.000000
302.159000	0.000000
302.339000	0.000000
302.520000	-0.000000
302.700000	-0.000000
302.881000	0.000000
303.061000	0.000000
303.242000	0.000000
303.422000	0.000000
303.603000	-0.000000
303.783000	-0.000000
303.964000	0.000000
304.144000	0.000000
304.325000	-0.000000
304.505000	-0.000000
304.686000	-0.000000
304.866000	-0.000000
305.047000	0.000000
305.227000	-0.000000
305.408000	-0.000000
305.588000	-0.000000
305.769000	-0.000000
305.949000	-0.000000
306.130000	-0.000000
306.310000	-0.000000
306.491000	-0.000000
306.671000	0.000000
306.852000	-0.000000
307.032000	-0.000000
307.213000	-0.000000
307.393000	-0.000000
307.574000	-0.000000
307.755000	0.000000
307.935000	0.000000
308.116000	0.000000
308.296000	-0.000000
308.477000	0.000000
308.657000	0.000000
308.838000	0.000000
309.018000	0.000000
309.199000	-0.000000
309.379000	-0.000000
309.560000	-0.000000
309.740000	-0.000000
309.921000	0.000000
310.101000	-0.000000
310.282000	-0.000000
310.462000	-0.000000
310.643000	-0.000000
310.823000	-0.000000
311.004000	-0.000000
311.184000	-0.000000
311.365000	0.000000
311.545000	0.000000
311.726000	0.000000
311.906000	-0.000000
312.087000	0.000000
312.267000	-0.000000
312.448000	-0.000000
312.628000	-0.000000
312.809000	-0.000000
312.989000	-0.000000
313.170000	-0.000000
313.344000	0.000000
313.518000	-0.000000
313.691000	-0.000000
313.865000	-0.000000
314.039000	-0.000000
314.213000	-0.000000
314.387000	-0.000000
314.560000	-0.000000
314.734000	-0.000000
314.908000	-0.000000
315.082000	-0.000000
315.255000	-0.000000
315.429000	-0.000000
315.603000	-0.000000
315.777000	-0.000000
315.951000	0.000000
316.124000	0.000000
316.298000	-0.000000
316.472000	-0.000000
316.646000	-0.000000
316.820000	-0.000000
316.993000	-0.000000
317.167000	-0.000000
317.341000	-0.000000
317.515000	-0.000000
317.688000	-0.000000
317.862000	-0.000000
318.036000	-0.000000
318.210000	-0.000000
318.384000	-0.000000
318.557000	-0.000000
318.731000	-0.000000
318.905000	0.000000
319.079000	0.000000
319.253000	-0.000000
319.426000	0.000000
319.600000	0.000000
319.774000	-0.000000
319.948000	-0.000000
320.122000	0.000000
320.295000	-0.000000
320.469000	-0.000000
320.643000	-0.000000
320.817000	-0.000000
320.990000	-0.000000
321.164000	-0.000000
321.338000	-0.000000
321.512000	-0.000000
321.686000	-0.000000
321.859000	-0.000000
322.033000	-0.000000
322.207000	-0.000000
322.381000	-0.000000
322.555000	0.000000
322.728000	-0.000000
322.902000	-0.000000
323.076000	-0.000000
323.250000	-0.000000
323.423000	-0.000000
323.597000	-0.000000
323.771000	-0.000000
323.945000	-0.000000
324.119000	-0.000000
324.292000	0.000000
324.466000	-0.000000
324.640000	0.000000
324.814000	0.000000
324.988000	-0.000000
325.161000	-0.000000
325.335000	-0.000000
325.509000	-0.000000
325.683000	-0.000000
325.856000	0.000000
326.030000	0.000000
326.204000	-0.000000
326.378000	0.000000
326.552000	0.000000
326.725000	-0.000000
326.899000	-0.000000
327.073000	-0.000000
327.247000	-0.000000
327.421000	0.000000
327.594000	0.000000
327.768000	-0.000000
327.942000	-0.000000
328.116000	0.000000
328.289000	-0.000000
328.463000	-0.000000
328.637000	0.000000
328.811000	-0.000000
328.985000	-0.000000
329.158000	-0.000000
329.332000	-0.000000
329.506000	0.000000
329.680000	-0.000000
329.854000	-0.000000
330.027000	-0.000000
330.201000	-0.000000
330.375000	0.000000
330.549000	0.000000
330.723000	-0.000000
330.896000	-0.000000
331.070000	-0.000000
331.244000	-0.000000
331.418000	-0.000000
331.591000	0.000000
331.765000	-0.000000
331.939000	-0.000000
332.113000	-0.000000
332.287000	-0.000000
332.460000	0.000000
332.634000	0.000000
332.808000	-0.000000
332.982000	-0.000000
333.156000	-0.000000
333.329000	0.000000
333.503000	-0.000000
333.677000	-0.000000
333.851000	-0.000000
334.024000	-0.000000
334.198000	0.000000
334.372000	-0.000000
334.546000	-0.000000
334.720000	-0.000000
334.893000	-0.000000
335.067000	-0.000000
335.241000	-0.000000
335.415000	-0.000000
335.589000	-0.000000
335.762000	-0.000000
335.936000	-0.000000
336.110000	-0.000000
336.284000	-0.000000
336.458000	-0.000000
336.631000	-0.000000
336.805000	-0.000000
336.979000	-0.000000
337.153000	-0.000000
337.326000	-0.000000
337.500000	0.000000
337.674000	-0.000000
337.848000	-0.000000
338.022000	-0.000000
338.195000	-0.000000
338.369000	-0.000000
338.543000	-0.000000
338.717000	-0.000000
338.891000	-0.000000
339.064000	-0.000000
339.238000	-0.000000
339.412000	-0.000000
339.586000	-0.000000
339.759000	-0.000000
339.933000	-0.000000
340.107000	0.000000
340.281000	0.000000
340.455000	-0.000000
340.628000	-0.000000
340.802000	-0.000000
340.976000	-0.000000
341.150000	-0.000000
341.324000	-0.000000
341.497000	-0.000000
341.671000	-0.000000
341.845000	-0.000000
342.019000	-0.000000
342.192000	0.000000
342.366000	-0.000000
342.540000	-0.000000
342.714000	-0.000000
342.888000	-0.000000
343.061000	0.000000
343.235000	0.000000
343.409000	-0.000000
343.583000	-0.000000
343.757000	-0.000000
343.930000	-0.000000
344.104000	-0.000000
344.278000	0.000000
344.452000	0.000000
344.626000	-0.000000
344.799000	-0.000000
344.973000	-0.000000
345.147000	-0.000000
345.321000	-0.000000
345.494000	-0.000000
345.668000	0.000000
345.842000	0.000000
346.016000	-0.000000
346.190000	0.000000
346.363000	0.000000
346.537000	-0.000000
346.711000	-0.000000
346.885000	-0.000000
347.059000	-0.000000
347.232000	0.000000
347.406000	0.000000
347.580000	-0.000000
347.754000	-0.000000
347.927000	-0.000000
348.101000	0.000000
348.275000	-0.000000
348.449000	-0.000000
348.623000	-0.000000
348.796000	0.000000
348.970000	0.000000
349.144000	-0.000000
349.318000	-0.000000
349.492000	-0.000000
349.665000	-0.000000
349.839000	-0.000000
350.013000	-0.000000
350.187000	-0.000000
350.361000	-0.000000
350.534000	-0.000000
350.708000	0.000000
350.882000	-0.000000
351.056000	0.000000
351.229000	-0.000000
351.403000	-0.000000
351.577000	-0.000000
351.751000	-0.000000
351.925000	-0.000000
352.098000	-0.000000
352.272000	-0.000000
352.446000	-0.000000
352.620000	-0.000000
352.794000	-0.000000
352.967000	-0.000000
353.141000	0.000000
353.315000	0.000000
353.489000	-0.000000
353.662000	-0.000000
353.836000	-0.000000
354.010000	-0.000000
354.184000	0.000000
354.358000	-0.000000
354.531000	-0.000000
354.705000	-0.000000
354.879000	-0.000000
355.053000	-0.000000
355.227000	-0.000000
355.400000	-0.000000
355.574000	0.000000
355.748000	0.000000
355.922000	-0.000000
356.095000	-0.000000
356.269000	-0.000000
356.443000	-0.000000
356.617000	-0.000000
356.791000	-0.000000
356.964000	-0.000000
357.138000	-0.000000
357.312000	-0.000000
357.486000	-0.000000
357.660000	-0.000000
357.833000	-0.000000
358.007000	-0.000000
358.181000	-0.000000
358.355000	-0.000000
358.529000	-0.000000
358.702000	-0.000000
358.876000	-0.000000
359.050000	-0.000000
359.224000	-0.000000
359.397000	0.000000
359.571000	0.000000
359.745000	0.000000
359.919000	-0.000000
360.093000	-0.166385
360.266000	-0.003775
360.440000	0.085016
360.614000	0.109636
360.788000	-0.074032
360.962000	-0.182179
361.135000	0.097345
361.309000	-0.089675
361.483000	-0.305780
361.657000	-0.192938
361.830000	-0.146454
362.004000	-0.028325
362.178000	-0.340288
362.352000	-0.213682
362.526000	-0.004111
362.699000	-0.036978
362.873000	-0.339132
363.047000	-0.329273
363.221000	-0.500761
363.395000	-0.419632
363.568000	-0.355040
363.742000	-0.323335
363.916000	-0.141810
364.090000	-0.307581
364.263000	-0.276642
364.437000	-0.422265
364.611000	-0.283780
364.785000	-0.181988
364.959000	-0.177784
365.132000	-0.253669
365.306000	-0.401340
365.480000	-0.170532
365.656000	-0.231331
365.831000	-0.366990
366.007000	-0.253420
366.183000	0.004524
366.358000	-0.298671
366.534000	-0.293375
366.710000	-0.301250
366.886000	-0.369085
367.061000	-0.312902
367.237000	-0.121551
367.413000	-0.374259
367.588000	-0.493053
367.764000	-0.324499
367.940000	-0.222741
368.115000	-0.342601
368.291000	-0.398003
368.467000	-0.348654
368.643000	0.196465
368.818000	-0.078500
368.994000	-0.192631
369.170000	-0.349308
369.345000	-0.406660
369.521000	-0.458980
369.697000	-0.232721
369.872000	-0.229786
370.048000	-0.381573
370.224000	-0.285433
370.399000	-0.414501
370.575000	-0.215519
370.751000	-0.576506
370.927000	-0.499207
371.102000	-0.387151
371.278000	-0.261568
371.454000	-0.145049
371.629000	0.174791
371.805000	0.014159
371.981000	-0.023878
372.156000	0.156490
372.332000	0.078911
372.508000	-0.023615
372.683000	0.014085
372.859000	-0.108753
373.035000	-0.234179
373.211000	0.263753
373.386000	0.167447
373.562000	-0.395621
373.738000	-0.445583
373.913000	-0.545358
374.089000	-0.499292
374.265000	0.014324
374.440000	0.139690
374.616000	0.081710
374.792000	-0.201066
374.968000	0.126433
375.143000	-0.108419
375.319000	-0.291380
375.495000	-0.296846
375.670000	-0.267738
375.846000	0.014212
376.022000	-0.167537
376.197000	-0.090200
376.373000	-0.471506
376.549000	-0.432670
376.724000	-0.480403
376.900000	-0.273980
377.076000	-0.200353
377.252000	0.114189
377.427000	0.243610
377.603000	-0.032571
377.779000	-0.311862
377.954000	-0.352960
378.130000	-0.324683
378.306000	-0.327835
378.481000	-0.225323
378.657000	-0.297376
378.833000	-0.433895
379.009000	-0.180630
379.184000	-0.050716
379.360000	-0.059412
379.536000	-0.188931
379.711000	-0.173332
379.887000	-0.216943
380.063000	-0.178106
380.238000	-0.308129
380.414000	-0.068591
380.590000	-0.346279
380.765000	-0.262358
380.941000	-0.004551
381.117000	-0.031656
381.293000	-0.230100
381.468000	-0.379228
381.644000	-0.239987
381.820000	0.004532
381.995000	0.004576
382.171000	0.234500
382.347000	0.280141
382.522000	-0.178101
382.698000	-0.004544
382.874000	0.040832
383.050000	-0.315123
383.225000	0.050156
383.401000	0.123515
383.577000	-0.161249
383.752000	-0.248504
383.928000	-0.130735
384.104000	-0.069316
384.279000	-0.383855
384.455000	-0.256165
384.631000	-0.211532
384.806000	-0.452572
384.982000	-0.373993
385.158000	-0.295415
385.334000	-0.138735
385.509000	-0.202229
385.685000	-0.324096
385.861000	-0.232825
386.036000	-0.328667
386.212000	-0.594596
386.388000	-0.468755
386.563000	-0.209425
386.739000	-0.040527
386.915000	-0.490008
387.090000	-0.176743
387.266000	-0.112903
387.442000	-0.112797
387.618000	-0.255143
387.793000	-0.401807
387.969000	-0.455749
388.145000	-0.400450
388.320000	-0.340913
388.496000	-0.519079
388.672000	-0.726075
388.847000	-0.236097
389.023000	-0.192783
389.199000	-0.617422
389.375000	-0.288761
389.550000	-0.330659
389.726000	-0.296137
389.902000	-0.531673
390.077000	-0.257843
390.253000	-0.306756
390.429000	-0.594753
390.604000	-0.270893
390.780000	-0.075120
390.956000	-0.232386
391.131000	-0.363230
391.307000	-0.083207
391.483000	-0.188240
391.659000	-0.461161
391.834000	-0.275509
392.010000	-0.345011
392.186000	-0.397834
392.361000	-0.293543
392.537000	-0.273363
392.713000	0.202440
392.888000	0.271760
393.064000	-0.047620
393.240000	-0.211590
393.416000	-0.433453
393.591000	-0.427939
393.767000	-0.550715
393.943000	-0.449601
394.118000	-0.004258
394.294000	0.140426
394.470000	-0.046688
394.645000	-0.021154
394.821000	0.327669
394.997000	-0.088807
395.172000	-0.273430
395.348000	-0.248679
395.524000	-0.447891
395.700000	-0.352199
395.875000	-0.229666
396.051000	-0.254387
396.227000	-0.197465
396.402000	-0.266092
396.578000	-0.147451
396.754000	-0.347773
396.929000	-0.204394
397.105000	0.062476
397.281000	-0.170714
397.457000	-0.311373
397.632000	-0.184855
397.808000	-0.458880
397.984000	-0.559724
398.159000	-0.544094
398.335000	-0.277663
398.511000	0.161327
398.686000	0.037190
398.862000	-0.258573
399.038000	-0.478970
399.213000	-0.354481
399.389000	-0.529449
399.565000	-0.175987
399.741000	0.053146
399.916000	-0.169233
400.092000	0.258771
400.268000	-0.093695
400.443000	-0.284435
400.619000	0.028802
400.795000	-0.045427
400.970000	-0.313778
401.146000	-0.298642
401.322000	0.102966
401.497000	0.465063
401.673000	0.103420
401.849000	-0.309233
402.025000	-0.102642
402.200000	-0.176063
402.376000	-0.282395
402.552000	0.176713
402.727000	-0.069536
402.903000	-0.428585
403.079000	-0.208310
403.254000	0.143081
403.430000	0.044668
403.606000	-0.126091
403.782000	-0.304676
403.957000	-0.395167
404.133000	-0.339007
404.309000	-0.273572
404.484000	-0.191224
404.660000	-0.110159
404.841000	-0.126556
405.023000	0.231427
405.204000	0.158813
405.385000	-0.241356
405.566000	-0.427601
405.748000	-0.292155
405.929000	-0.037219
406.110000	-0.126716
406.292000	-0.254948
406.473000	-0.215010
406.654000	-0.396636
406.835000	-0.134477
407.017000	-0.190804
407.198000	-0.236848
407.379000	-0.252209
407.560000	-0.100396
407.742000	-0.157833
407.923000	-0.166847
408.104000	-0.368561
408.286000	-0.149551
408.467000	-0.165309
408.648000	-0.432748
408.829000	-0.431226
409.011000	-0.238076
409.192000	-0.409142
409.373000	-0.214409
409.555000	-0.093062
409.736000	-0.180856
409.917000	-0.286412
410.098000	-0.164298
410.280000	-0.075587
410.461000	-0.162819
410.642000	-0.171077
410.823000	0.139198
411.005000	0.107518
411.186000	-0.219164
411.367000	-0.442695
411.549000	-0.362668
411.730000	-0.171322
411.911000	-0.123303
412.092000	-0.241905
412.274000	-0.200725
412.455000	-0.177477
412.636000	-0.059213
412.818000	-0.145478
412.999000	-0.230410
413.180000	-0.168940
413.361000	-0.319420
413.543000	-0.466765
413.724000	-0.457745
413.905000	-0.504710
414.087000	-0.372463
414.268000	-0.314093
414.449000	-0.415688
414.630000	-0.495305
414.812000	-0.470947
414.993000	-0.219946
415.174000	-0.088792
415.355000	-0.244716
415.537000	-0.498868
415.718000	-0.205172
415.899000	-0.281753
416.081000	-0.465095
416.262000	-0.157270
416.443000	-0.317579
416.624000	-0.240496
416.806000	-0.095619
416.987000	0.026902
417.168000	-0.072581
417.350000	-0.332268
417.531000	-0.330270
417.712000	-0.428938
417.893000	-0.072096
418.075000	0.079386
418.256000	-0.140277
418.437000	-0.148455
418.618000	-0.216191
418.800000	-0.155261
418.981000	-0.388110
419.162000	-0.190934
419.344000	-0.026379
419.525000	-0.140183
419.706000	-0.314813
419.887000	-0.079492
420.069000	0.139910
420.250000	-0.018902
420.431000	-0.131990
420.613000	-0.155350
420.794000	-0.406193
420.975000	-0.131493
421.156000	-0.274787
421.338000	-0.229430
421.519000	-0.379798
421.700000	-0.478984
421.882000	-0.380856
422.063000	-0.139180
422.244000	0.415428
422.425000	0.161546
422.607000	-0.269530
422.788000	-0.306066
422.969000	-0.356484
423.150000	-0.274248
423.332000	-0.415805
423.513000	-0.169107
423.694000	-0.079331
423.876000	-0.109220
424.057000	-0.048969
424.238000	0.003781
424.419000	-0.003792
424.601000	-0.155451
424.782000	-0.276499
424.963000	0.011269
425.145000	-0.048964
425.326000	-0.161264
425.507000	-0.056172
425.688000	-0.161845
425.870000	-0.290970
426.051000	-0.303991
426.232000	-0.371514
426.413000	-0.275556
426.595000	-0.311663
426.776000	-0.394091
426.957000	-0.245013
427.139000	-0.071316
427.320000	-0.184734
427.501000	-0.109759
427.682000	-0.101690
427.864000	-0.026349
428.045000	0.169881
428.226000	-0.018943
428.408000	-0.352009
428.589000	-0.116837
428.770000	-0.078968
428.951000	-0.274043
429.133000	-0.467853
429.314000	-0.295268
429.495000	-0.368791
429.677000	-0.340191
429.858000	-0.108530
430.039000	-0.093670
430.220000	0.086192
430.402000	0.130751
430.583000	-0.363215
430.764000	-0.399064
430.945000	-0.220473
431.127000	-0.077914
431.308000	-0.151419
431.489000	-0.003714
431.671000	0.011186
431.852000	0.025927
432.033000	-0.166693
432.214000	-0.092426
432.396000	-0.180676
432.577000	-0.277155
432.758000	-0.470562
432.940000	-0.388632
433.121000	-0.107223
433.302000	-0.033166
433.483000	-0.040456
433.665000	-0.231825
433.846000	-0.217063
434.027000	-0.157208
434.208000	-0.178909
434.390000	-0.245533
434.571000	0.040328
434.752000	0.491288
434.934000	0.155628
435.115000	0.097964
435.296000	0.293797
435.477000	0.097645
435.659000	-0.239755
435.840000	-0.075377
436.026000	-0.125256
436.211000	-0.189466
436.397000	-0.430915
436.582000	-0.281354
436.768000	-0.145899
436.953000	-0.238097
437.139000	-0.202119
437.325000	-0.010591
437.510000	0.045888
437.696000	0.179546
437.881000	0.059754
438.067000	-0.150277
438.252000	-0.031477
438.438000	-0.164263
438.624000	-0.290095
438.809000	-0.128792
438.995000	0.010430
439.180000	0.114380
439.366000	-0.197360
439.551000	-0.273169
439.737000	-0.100074
439.923000	-0.051830
440.108000	-0.175990
440.294000	0.003440
440.479000	0.044564
440.665000	0.037463
440.850000	-0.104992
441.036000	-0.078075
441.222000	-0.071588
441.407000	-0.132495
441.593000	-0.145455
441.778000	0.037124
441.964000	0.105068
442.149000	-0.259983
442.335000	-0.238520
442.521000	-0.218122
442.706000	-0.063500
442.892000	-0.103382
443.077000	-0.217496
443.263000	-0.083304
443.448000	0.016586
443.634000	-0.142740
443.820000	-0.003298
444.005000	-0.108776
444.191000	-0.366645
444.376000	-0.200542
444.562000	0.107826
444.747000	0.068975
444.933000	-0.042577
445.119000	-0.016336
445.304000	-0.140232
445.490000	-0.016313
445.675000	-0.029349
445.861000	-0.277924
446.046000	-0.146815
446.232000	-0.094484
446.418000	-0.074852
446.603000	0.016270
446.789000	-0.042257
446.974000	-0.074989
447.160000	-0.315119
447.345000	-0.326392
447.531000	-0.345479
447.717000	-0.068219
447.902000	0.075028
448.088000	0.068103
448.273000	-0.022584
448.459000	0.028955
448.644000	-0.131978
448.830000	-0.294021
449.016000	-0.306689
449.201000	-0.261123
449.387000	-0.242324
449.572000	-0.067648
449.758000	-0.177056
449.943000	-0.228890
450.129000	-0.202290
450.315000	-0.169861
450.500000	-0.170008
450.686000	-0.138184
450.871000	-0.247684
451.057000	-0.170192
451.243000	-0.227730
451.428000	-0.253730
451.614000	-0.099329
451.799000	-0.073652
451.985000	0.003201
452.170000	0.028780
452.356000	-0.226882
452.542000	-0.214356
452.727000	-0.035082
452.913000	-0.124587
453.098000	-0.003194
453.284000	0.130913
453.469000	0.022377
453.655000	0.213813
453.841000	0.047793
454.026000	-0.237921
454.212000	-0.224586
454.397000	-0.104526
454.583000	-0.329092
454.768000	-0.403562
454.954000	-0.123182
455.140000	-0.097747
455.325000	-0.273697
455.511000	-0.293993
455.696000	-0.312990
455.882000	-0.154567
456.067000	0.053651
456.253000	-0.148339
456.439000	-0.318724
456.624000	-0.317676
456.810000	-0.266616
456.995000	-0.191594
457.181000	-0.303862
457.366000	-0.115316
457.552000	-0.040350
457.738000	-0.009301
457.923000	-0.015529
458.109000	0.289722
458.294000	0.258310
458.480000	0.021812
458.665000	-0.090095
458.851000	-0.220190
459.037000	-0.298821
459.222000	-0.187932
459.408000	-0.113994
459.593000	-0.125708
459.779000	0.058069
459.964000	0.211252
460.150000	0.297504
460.336000	0.168517
460.521000	-0.009128
460.707000	-0.075892
460.892000	-0.299949
461.078000	0.075922
461.263000	0.172328
461.449000	-0.209352
461.635000	-0.154573
461.820000	-0.124016
462.006000	-0.099392
462.191000	-0.129035
462.377000	-0.278256
462.562000	0.087045
462.748000	0.320351
462.934000	-0.098917
463.119000	-0.307316
463.305000	-0.056448
463.490000	-0.192174
463.676000	-0.139311
463.861000	-0.104196
464.047000	-0.228505
464.233000	-0.085495
464.418000	-0.020614
464.604000	-0.149862
464.789000	-0.079397
464.975000	0.032244
465.160000	-0.055788
465.346000	-0.102710
465.532000	-0.126370
465.717000	-0.149637
465.903000	0.125964
466.088000	-0.026332
466.274000	-0.136810
466.459000	-0.201082
466.645000	0.160504
466.831000	0.060899
467.016000	0.072380
467.202000	-0.090153
467.387000	-0.118899
467.573000	-0.222398
467.758000	0.025885
467.944000	-0.094868
468.130000	-0.193605
468.315000	0.054933
468.501000	0.135402
468.686000	-0.002874
468.872000	0.025874
469.057000	0.014370
469.243000	-0.083466
469.429000	-0.089155
469.614000	-0.134847
469.800000	-0.238142
469.985000	-0.060065
470.171000	0.025646
470.356000	-0.088665
470.542000	0.020098
470.728000	0.065808
470.913000	0.008541
471.099000	0.156478
471.284000	0.042979
471.470000	-0.083214
471.655000	-0.129145
471.841000	-0.168787
472.027000	-0.230485
472.212000	0.065502
472.398000	0.202866
472.583000	-0.008581
472.769000	-0.014328
472.954000	-0.094420
473.140000	-0.219370
473.326000	-0.156894
473.511000	0.156576
473.697000	0.128258
473.882000	-0.048653
474.068000	-0.146237
474.253000	-0.231263
474.439000	-0.105806
474.625000	-0.025690
474.810000	0.065698
474.996000	0.128540
475.181000	-0.184982
475.367000	-0.128197
475.552000	0.169038
475.738000	-0.082619
475.924000	-0.151333
476.109000	-0.099897
476.295000	-0.128507
476.480000	-0.134356
476.666000	-0.099901
476.851000	-0.082731
477.037000	-0.123312
477.223000	-0.242798
477.408000	-0.380012
477.594000	-0.379654
477.779000	-0.088672
477.965000	-0.140208
478.151000	-0.391931
478.336000	-0.168943
478.522000	-0.134261
478.707000	-0.202798
478.893000	-0.197493
479.078000	-0.341447
479.264000	-0.295614
479.450000	-0.152173
479.635000	-0.020071
479.821000	-0.157978
480.006000	-0.117676
480.192000	-0.020072
480.377000	0.031610
480.563000	-0.083255
480.749000	-0.336107
480.934000	-0.192266
481.120000	-0.065760
481.305000	-0.037117
481.491000	-0.048736
481.676000	0.014366
481.862000	-0.037439
482.048000	-0.232012
482.233000	-0.185962
482.419000	-0.169178
482.604000	-0.157870
482.790000	-0.169355
482.975000	-0.123543
483.161000	-0.071612
483.347000	0.002860
483.532000	-0.008581
483.718000	-0.192285
483.903000	-0.135076
484.089000	-0.123282
484.274000	-0.352089
484.460000	-0.129072
484.646000	-0.054501
484.831000	-0.215292
485.017000	-0.157386
485.202000	-0.105677
485.388000	0.111315
485.573000	0.031335
485.759000	-0.168494
485.945000	0.037133
486.130000	-0.048522
486.316000	-0.025698
486.501000	0.031326
486.687000	-0.088157
486.872000	-0.145165
487.058000	0.076903
487.244000	0.008550
487.429000	-0.207448
487.615000	-0.019896
487.800000	0.025576
487.986000	-0.104746
488.171000	-0.036888
488.357000	-0.098978
488.543000	-0.064806
488.728000	0.036641
488.914000	-0.098714
489.099000	-0.205764
489.285000	-0.149284
489.470000	-0.098337
489.656000	-0.042176
489.842000	-0.008403
490.027000	0.080981
490.213000	-0.092305
490.398000	-0.372943
490.584000	0.019560
490.769000	0.064269
490.955000	-0.086474
491.141000	-0.058450
491.326000	-0.036057
491.512000	0.180199
491.697000	0.013833
491.883000	-0.157762
492.068000	-0.224216
492.254000	-0.174701
492.440000	-0.063742
492.625000	-0.091184
492.811000	-0.195787
492.996000	-0.090875
493.182000	-0.057645
493.367000	-0.316574
493.553000	-0.388254
493.739000	-0.200709
493.924000	-0.046794
494.110000	-0.123474
494.295000	-0.188752
494.481000	-0.062995
494.666000	-0.035631
494.852000	0.008209
495.038000	-0.188429
495.223000	-0.183240
495.409000	-0.160982
495.594000	-0.166715
495.780000	-0.149925
495.965000	-0.226479
496.151000	0.002725
496.337000	0.089854
496.522000	-0.192573
496.708000	-0.111608
496.893000	0.024498
497.079000	-0.062448
497.264000	-0.067748
497.450000	-0.100307
497.636000	-0.127532
497.821000	-0.251695
498.007000	0.078488
498.192000	0.051614
498.378000	-0.122030
498.563000	-0.165471
498.749000	-0.105901
498.935000	-0.035247
499.120000	0.062209
499.306000	-0.176059
499.491000	-0.175583
499.677000	-0.110718
499.862000	-0.029818
500.048000	0.122195
500.234000	-0.062298
500.419000	-0.149244
500.605000	-0.035307
500.790000	-0.056972
500.976000	-0.187493
501.161000	-0.252641
501.347000	-0.192868
501.533000	-0.144064
501.718000	-0.198311
501.904000	-0.122531
502.089000	-0.035451
502.275000	0.019039
502.460000	-0.143730
502.646000	-0.122176
502.832000	0.024448
503.017000	-0.035385
503.203000	-0.248045
503.388000	-0.303287
503.574000	-0.182586
503.759000	-0.029969
503.945000	-0.008187
504.131000	-0.079143
504.316000	-0.100914
504.502000	-0.095495
504.687000	-0.221594
504.873000	-0.418800
505.058000	-0.298323
505.244000	-0.265416
505.430000	-0.200123
505.615000	-0.068622
505.801000	-0.052247
505.986000	-0.117673
506.172000	-0.062980
506.358000	-0.096057
506.543000	-0.161837
506.729000	0.008234
506.914000	-0.013753
507.100000	0.124204
507.285000	-0.096766
507.471000	-0.317591
507.657000	-0.091124
507.842000	-0.129604
508.028000	-0.251104
508.213000	-0.201938
508.399000	-0.268885
508.584000	-0.130414
508.770000	-0.157882
508.956000	-0.163550
509.141000	-0.019387
509.327000	0.036079
509.512000	-0.096751
509.698000	-0.130120
509.883000	-0.019434
510.069000	-0.091862
510.255000	-0.091903
510.440000	-0.047402
510.626000	-0.130986
510.811000	-0.248395
510.997000	-0.097704
511.182000	0.186811
511.368000	0.103277
511.554000	-0.360284
511.739000	-0.198167
511.925000	0.041893
512.110000	-0.080916
512.296000	0.064336
512.481000	0.103371
512.667000	-0.041952
512.853000	-0.148257
513.038000	-0.137260
513.224000	-0.243766
513.409000	-0.277360
513.595000	-0.188011
513.780000	-0.277666
513.966000	-0.271400
514.152000	-0.237854
514.337000	-0.327531
514.523000	-0.142783
514.708000	-0.070063
514.894000	-0.103980
515.079000	-0.153961
515.265000	-0.154490
515.451000	-0.171415
515.636000	-0.322922
515.822000	-0.182749
516.007000	-0.199649
516.193000	-0.098322
516.378000	0.025326
516.564000	-0.115206
516.750000	-0.092759
516.935000	0.053434
517.121000	0.070294
517.306000	0.092873
517.492000	0.025367
517.677000	-0.216784
517.863000	-0.205561
518.049000	-0.104221
518.234000	-0.154806
518.420000	0.059181
518.605000	0.295804
518.791000	0.126710
518.976000	-0.076328
519.162000	-0.172128
519.348000	-0.042335
519.533000	-0.070457
519.719000	0.189015
519.904000	0.098851
520.090000	0.053553
520.275000	0.104357
520.461000	0.127172
520.647000	-0.064987
520.832000	-0.325815
521.018000	-0.144117
521.203000	0.076047
521.389000	-0.256122
521.574000	-0.262020
521.760000	-0.019748
521.946000	-0.036786
522.131000	-0.144440
522.317000	-0.065039
522.502000	-0.189381
522.688000	-0.025450
522.873000	-0.048119
523.059000	-0.121798
523.245000	-0.036788
523.430000	-0.286178
523.616000	-0.297429
523.801000	-0.286477
523.987000	-0.275625
524.172000	-0.042618
524.358000	0.019897
524.544000	-0.122023
524.729000	-0.025472
524.915000	0.065251
525.100000	-0.172989
525.286000	-0.099403
525.471000	-0.048418
525.657000	-0.037064
525.843000	-0.271168
526.028000	-0.071410
526.214000	-0.214150
526.399000	-0.300677
526.585000	-0.306466
526.770000	-0.312158
526.956000	-0.203840
527.142000	-0.289917
527.327000	-0.129320
527.513000	-0.192782
527.698000	-0.129625
527.884000	-0.159008
528.069000	-0.297179
528.255000	-0.205120
528.441000	-0.188010
528.626000	-0.142166
528.812000	0.130456
528.997000	-0.049383
529.183000	-0.223580
529.368000	-0.148773
529.554000	-0.143317
529.740000	-0.049862
529.925000	-0.243498
530.111000	-0.190902
530.296000	-0.108828
530.482000	-0.002949
530.667000	-0.008849
530.853000	0.008877
531.039000	-0.139384
531.224000	-0.014908
531.410000	0.056632
531.595000	0.008950
531.781000	-0.026855
531.967000	-0.135024
532.152000	-0.003010
532.338000	-0.087461
532.523000	-0.305184
532.709000	-0.379099
532.894000	-0.210293
533.080000	-0.143397
533.266000	-0.204570
533.451000	-0.235977
533.637000	-0.261341
533.822000	-0.077171
534.008000	-0.286825
534.193000	-0.250742
534.379000	-0.114948
534.565000	-0.140365
534.750000	-0.172193
534.936000	0.128850
535.121000	-0.003151
535.307000	-0.059969
535.492000	-0.142260
535.678000	-0.327564
535.864000	-0.137427
536.049000	0.118933
536.235000	-0.048270
536.420000	0.003233
536.606000	-0.191276
536.791000	-0.348949
536.977000	-0.290974
537.163000	-0.055795
537.348000	-0.042917
537.534000	0.009970
537.719000	-0.129936
537.905000	-0.311054
538.090000	-0.070516
538.276000	0.104462
538.462000	-0.050711
538.647000	-0.030550
538.833000	-0.201366
539.018000	-0.065150
539.204000	-0.120096
539.389000	-0.210744
539.575000	0.114104
539.761000	0.135524
539.946000	-0.080301
540.132000	-0.010515
540.317000	-0.277687
540.503000	-0.081020
540.688000	-0.095709
540.874000	0.053334
541.060000	0.273689
541.245000	0.110703
541.431000	-0.060939
541.616000	0.176128
541.802000	-0.061158
541.987000	-0.032470
542.173000	0.133999
542.359000	0.061640
542.544000	0.104997
542.730000	-0.112685
542.915000	-0.142107
543.101000	0.134898
543.286000	0.010960
543.472000	-0.202196
543.658000	-0.114047
543.843000	0.018440
544.029000	0.203492
544.214000	0.129661
544.400000	-0.159477
544.585000	-0.078055
544.771000	-0.137976
544.957000	0.115852
545.142000	0.317919
545.328000	0.281255
545.513000	0.281779
545.699000	0.169797
545.884000	0.169913
546.070000	0.147325
546.261000	0.079618
546.451000	-0.148321
546.642000	-0.354299
546.833000	-0.057244
547.023000	-0.270891
547.214000	-0.249002
547.405000	-0.088092
547.595000	0.172577
547.786000	0.134743
547.977000	-0.104228
548.167000	-0.289766
548.358000	-0.174627
548.549000	0.151900
548.740000	0.081792
548.930000	-0.323388
549.121000	-0.183650
549.312000	-0.176507
549.502000	-0.279162
549.693000	-0.216078
549.884000	-0.090387
550.074000	0.067043
550.265000	-0.146264
550.456000	-0.099067
550.646000	0.003972
550.837000	0.083443
551.028000	-0.107427
551.218000	-0.083533
551.409000	-0.203752
551.600000	-0.163940
551.790000	0.100358
551.981000	-0.212748
552.172000	-0.092497
552.362000	0.164814
552.553000	0.189893
552.744000	0.100940
552.934000	0.012123
553.125000	-0.085014
553.316000	-0.149882
553.506000	0.142073
553.697000	-0.175197
553.888000	-0.020336
554.079000	0.134322
554.269000	0.118159
554.460000	-0.241000
554.651000	-0.257604
554.841000	-0.438009
555.032000	-0.307486
555.223000	-0.258650
555.413000	-0.134884
555.604000	-0.069780
555.795000	-0.242815
555.985000	-0.103099
556.176000	-0.325200
556.367000	-0.563831
556.557000	-0.317954
556.748000	-0.144807
556.939000	-0.251988
557.129000	-0.243521
557.320000	-0.103251
557.511000	-0.267951
557.701000	-0.201675
557.892000	-0.111573
558.083000	0.227031
558.273000	0.111472
558.464000	-0.243602
558.655000	-0.235142
558.845000	-0.201545
559.036000	-0.193456
559.227000	-0.284220
559.418000	-0.152688
559.608000	-0.070126
559.799000	-0.358435
559.990000	-0.331942
560.180000	-0.151826
560.371000	-0.390417
560.562000	-0.324167
560.752000	-0.201249
560.943000	-0.472538
561.134000	-0.626994
561.324000	-0.315164
561.515000	-0.110307
561.706000	-0.159510
561.896000	-0.240786
562.087000	-0.297586
562.278000	-0.468618
562.468000	-0.591453
562.659000	-0.410852
562.850000	0.020352
563.040000	0.256438
563.231000	-0.175166
563.422000	-0.288277
563.612000	-0.329243
563.803000	-0.231268
563.994000	-0.327067
564.185000	-0.431327
564.375000	-0.173538
564.566000	-0.068525
564.757000	-0.246567
564.947000	-0.222050
565.138000	-0.124732
565.329000	-0.148573
565.519000	-0.413382
565.710000	-0.196856
565.901000	-0.132668
566.091000	-0.108467
566.282000	-0.356717
566.473000	-0.411553
566.663000	-0.147668
566.854000	-0.401494
567.045000	-0.249786
567.235000	-0.138745
567.426000	-0.051515
567.617000	-0.067123
567.807000	-0.240957
567.998000	-0.272003
568.189000	-0.303466
568.379000	-0.192625
568.570000	-0.066736
568.761000	-0.199786
568.951000	-0.426316
569.142000	-0.426888
569.333000	-0.285893
569.524000	-0.456495
569.714000	-0.495467
569.905000	-0.681560
570.096000	-0.245315
570.286000	-0.136103
570.477000	0.034903
570.668000	-0.027121
570.858000	0.027120
571.049000	-0.142844
571.240000	-0.328321
571.430000	-0.042433
571.621000	-0.149911
571.812000	-0.172269
572.002000	-0.065195
572.193000	-0.057431
572.384000	-0.088023
572.574000	-0.180018
572.765000	-0.194984
572.956000	-0.247730
573.146000	-0.133594
573.337000	-0.118091
573.528000	0.064647
573.718000	0.018964
573.909000	0.011362
574.100000	-0.026417
574.290000	-0.267091
574.481000	-0.334055
574.672000	-0.221706
574.863000	-0.101054
575.053000	-0.257760
575.244000	-0.160252
575.435000	-0.249454
575.625000	-0.166805
575.816000	-0.144385
576.007000	-0.003702
576.197000	-0.129781
576.388000	-0.225310
576.579000	-0.107080
576.769000	-0.033193
576.960000	-0.276398
577.155000	-0.606395
577.350000	-0.209224
577.545000	-0.054957
577.740000	-0.208216
577.935000	0.040099
578.130000	-0.047427
578.326000	-0.280055
578.521000	-0.018177
578.716000	0.047042
578.911000	-0.119284
579.106000	-0.133240
579.301000	-0.017950
579.496000	-0.218306
579.691000	-0.497027
579.886000	-0.274613
580.081000	-0.081901
580.276000	-0.067492
580.471000	-0.408433
580.666000	-0.365179
580.861000	-0.315432
581.057000	-0.322730
581.252000	-0.109967
581.447000	-0.315004
581.642000	-0.308442
581.837000	-0.272622
582.032000	-0.144749
582.227000	0.010530
582.422000	0.101599
582.617000	-0.115088
582.812000	-0.240020
583.007000	-0.330283
583.202000	-0.419903
583.397000	-0.017291
583.592000	0.024165
583.788000	-0.251198
583.983000	-0.072194
584.178000	-0.058350
584.373000	-0.331938
584.568000	-0.324414
584.763000	-0.379420
584.958000	-0.461424
585.153000	-0.297384
585.348000	-0.153735
585.543000	0.085496
585.738000	-0.071784
585.933000	-0.359011
586.128000	-0.194823
586.324000	-0.099380
586.519000	-0.044517
586.714000	0.037698
586.909000	0.003433
587.104000	0.079227
587.299000	-0.003435
587.494000	-0.092613
587.689000	-0.250892
587.884000	-0.155125
588.079000	-0.224085
588.274000	-0.162329
588.469000	-0.093066
588.664000	0.100091
588.859000	0.044933
589.055000	-0.065747
589.250000	-0.169641
589.445000	-0.294630
589.640000	-0.190797
589.835000	0.031296
590.030000	0.219007
590.225000	0.073016
590.420000	-0.219351
590.615000	-0.191668
590.810000	-0.128796
591.005000	-0.136314
591.200000	-0.339177
591.395000	-0.248226
591.591000	-0.261760
591.786000	-0.087180
591.981000	-0.213349
592.176000	-0.311913
592.371000	-0.213866
592.566000	-0.290787
592.761000	-0.108592
592.956000	-0.115793
593.151000	-0.017553
593.346000	-0.130253
593.541000	-0.059784
593.736000	-0.017638
593.931000	-0.123518
594.126000	-0.130770
594.322000	0.003534
594.517000	-0.060069
594.712000	-0.279265
594.907000	-0.386702
595.102000	-0.195381
595.297000	0.024851
595.492000	0.003558
595.687000	-0.103378
595.882000	-0.196161
596.077000	-0.110778
596.272000	-0.003573
596.467000	0.003574
596.662000	-0.089436
596.857000	-0.025142
597.053000	-0.097139
597.248000	-0.032366
597.443000	0.010803
597.638000	-0.119118
597.833000	-0.285434
598.028000	-0.111864
598.223000	-0.025309
598.418000	-0.068818
598.613000	-0.170212
598.808000	-0.018122
599.003000	0.054424
599.198000	-0.112617
599.393000	-0.257852
599.589000	-0.142023
599.784000	-0.382635
599.979000	-0.295611
600.174000	-0.083997
600.369000	-0.274190
600.564000	-0.194012
600.759000	-0.003665
600.954000	0.084150
601.149000	0.011010
601.344000	-0.371039
601.539000	-0.165508
601.734000	-0.179984
601.929000	-0.305639
602.124000	-0.261669
602.320000	-0.062762
602.515000	0.136621
602.710000	0.070301
602.905000	-0.218274
603.100000	-0.262246
603.295000	-0.181319
603.490000	-0.174417
603.685000	-0.263525
603.880000	-0.122633
604.075000	-0.353927
604.270000	-0.227740
604.465000	-0.130571
604.660000	-0.526441
604.856000	-0.481282
605.051000	-0.071023
605.246000	-0.168074
605.441000	-0.392459
605.636000	-0.527168
605.831000	-0.415767
606.026000	-0.393129
606.221000	-0.378671
606.416000	-0.236502
606.611000	-0.124006
606.806000	-0.093859
607.001000	0.109016
607.196000	-0.086541
607.391000	-0.282593
607.587000	-0.026429
607.782000	-0.056708
607.977000	-0.199896
608.172000	0.094585
608.367000	0.011350
608.562000	-0.094772
608.757000	-0.026528
608.952000	-0.072172
609.147000	0.254183
609.342000	-0.041796
609.537000	-0.247431
609.732000	-0.163944
609.927000	-0.209281
610.122000	-0.011435
610.318000	0.141168
610.513000	0.225222
610.708000	0.141395
610.903000	0.172159
611.098000	0.195530
611.293000	0.164904
611.488000	0.103558
611.683000	0.065318
611.878000	0.019217
612.073000	0.103801
612.268000	0.073125
612.463000	0.104147
612.658000	0.073290
612.854000	-0.073444
613.049000	-0.065742
613.244000	0.088996
613.439000	0.042580
613.634000	-0.275519
613.829000	-0.042698
614.024000	-0.198434
614.219000	-0.346237
614.414000	-0.003893
614.609000	-0.003899
614.804000	-0.237881
614.999000	-0.300002
615.194000	-0.097656
615.389000	-0.129058
615.585000	-0.427065
615.780000	-0.294098
615.975000	-0.184669
616.170000	-0.161211
616.365000	0.059040
616.560000	0.303361
616.755000	0.201538
616.950000	-0.019767
617.145000	-0.003957
617.340000	-0.170317
617.535000	-0.495099
617.730000	-0.194343
617.925000	-0.313838
618.120000	-0.345728
618.316000	0.171250
618.511000	-0.083711
618.706000	-0.316025
618.901000	-0.179921
619.096000	-0.108364
619.291000	-0.212529
619.486000	-0.116658
619.681000	-0.438816
619.876000	-0.366194
620.071000	-0.181244
620.266000	0.084786
620.461000	0.117295
620.656000	0.012157
620.852000	0.012141
621.047000	-0.133881
621.242000	-0.369673
621.437000	-0.020360
621.632000	0.142826
621.827000	-0.036760
622.022000	-0.396493
622.217000	-0.168042
622.412000	0.061546
622.607000	0.012321
622.802000	-0.143820
622.997000	-0.292767
623.192000	-0.317480
623.387000	-0.127844
623.583000	-0.136361
623.778000	0.269333
623.973000	0.128536
624.168000	-0.078967
624.363000	-0.045647
624.558000	0.037411
624.753000	-0.246041
624.948000	-0.079382
625.143000	-0.104526
625.338000	-0.297353
625.533000	-0.314202
625.728000	-0.255827
625.923000	-0.004197
626.119000	-0.164047
626.314000	-0.231571
626.509000	-0.046456
626.704000	-0.182082
626.899000	-0.156810
627.094000	-0.182492
627.289000	-0.327540
627.484000	-0.362421
627.679000	-0.123760
627.874000	-0.200836
628.069000	-0.081308
628.264000	-0.115438
628.459000	-0.098567
628.654000	0.012868
628.850000	-0.245353
629.045000	-0.064638
629.240000	-0.004314
629.435000	-0.151170
629.630000	-0.073564
629.825000	-0.108179
630.020000	-0.004344
630.215000	-0.143281
630.410000	-0.056668
630.605000	-0.091615
630.800000	-0.074153
630.995000	-0.039346
631.190000	0.319823
631.385000	0.241108
631.581000	-0.021956
631.776000	-0.065911
631.971000	-0.251272
632.166000	-0.101469
632.361000	-0.198712
632.556000	-0.092862
632.751000	0.048799
632.946000	-0.084317
633.141000	-0.218111
633.336000	-0.334366
633.531000	-0.254902
633.726000	-0.165259
633.921000	-0.192579
634.117000	-0.345615
634.312000	-0.507711
634.507000	-0.508260
634.702000	-0.337945
634.897000	-0.248180
635.092000	-0.058816
635.287000	-0.040801
635.482000	-0.104542
635.677000	-0.068202
635.872000	-0.140965
636.067000	0.022789
636.262000	0.077784
636.457000	-0.323546
636.652000	-0.324030
636.848000	-0.443657
637.043000	-0.362827
637.238000	-0.336148
637.433000	-0.354835
637.628000	-0.225796
637.823000	0.069223
638.018000	0.032366
638.213000	-0.078779
638.408000	-0.273664
638.603000	-0.255477
638.798000	-0.218634
638.993000	-0.247018
639.188000	-0.359000
639.383000	-0.331306
639.579000	0.023307
639.774000	-0.051418
639.969000	-0.144967
640.164000	-0.201542
640.359000	-0.333138
640.554000	-0.032887
640.749000	0.032978
640.944000	0.014164
641.139000	-0.117793
641.334000	-0.306811
641.529000	-0.723624
641.724000	-0.421449
641.919000	-0.194560
642.115000	0.042811
642.310000	-0.213750
642.505000	-0.232667
642.700000	-0.128437
642.895000	-0.205170
643.090000	-0.004770
643.285000	-0.014312
643.480000	-0.109972
643.675000	0.071782
643.870000	0.273298
644.065000	0.148925
644.260000	-0.273758
644.455000	-0.187658
644.650000	-0.332833
644.846000	-0.130242
645.041000	-0.303770
645.236000	-0.488181
645.431000	-0.595372
645.626000	-0.711114
645.821000	-0.527083
646.016000	-0.392831
646.211000	0.199215
646.406000	0.258008
646.601000	0.063223
646.796000	-0.141005
646.991000	-0.413355
647.186000	-0.219320
647.381000	0.034138
647.577000	-0.200145
647.772000	0.004882
647.967000	0.044023
648.162000	-0.093011
648.357000	-0.142155
648.552000	0.132299
648.747000	0.112765
648.942000	-0.014718
649.137000	-0.093498
649.332000	-0.339988
649.527000	-0.113282
649.722000	0.113243
649.917000	-0.014814
650.113000	-0.271266
650.308000	-0.261773
650.503000	-0.330743
650.698000	-0.183177
650.893000	-0.183307
651.088000	-0.094192
651.283000	-0.064588
651.478000	-0.462056
651.673000	-0.134010
651.868000	-0.054706
652.063000	0.004983
652.258000	0.054857
652.453000	0.233765
652.648000	-0.184281
652.844000	-0.054826
653.039000	0.034948
653.234000	-0.454469
653.429000	-0.495305
653.624000	-0.164979
653.819000	0.205424
654.014000	0.075170
654.209000	-0.236151
654.404000	-0.205790
654.599000	-0.387469
654.794000	-0.236100
654.989000	0.035268
655.184000	0.035309
655.380000	-0.327606
655.575000	-0.428456
655.770000	-0.247403
655.965000	-0.116157
656.160000	-0.378972
656.355000	-0.106091
656.550000	-0.238170
656.745000	-0.218048
656.940000	-0.157326
657.135000	-0.279059
657.330000	-0.116745
657.525000	-0.218418
657.720000	-0.401983
657.915000	-0.238933
658.111000	-0.167825
658.306000	-0.055986
658.501000	-0.117331
658.696000	-0.239668
658.891000	-0.015305
659.086000	-0.127491
659.281000	-0.056188
659.476000	-0.322258
659.671000	-0.608652
659.866000	-0.260966
660.061000	-0.056325
660.256000	0.076842
660.451000	0.117928
660.646000	-0.395323
660.842000	-0.292980
661.037000	-0.426781
661.232000	-0.345004
661.427000	-0.282987
661.622000	-0.427840
661.817000	-0.355578
662.012000	-0.118823
662.207000	-0.336036
662.402000	-0.430172
662.597000	-0.399349
662.792000	-0.471524
662.987000	-0.315817
663.182000	-0.181590
663.378000	-0.430972
663.573000	-0.702699
663.768000	-0.503855
663.963000	-0.202803
664.158000	-0.254571
664.353000	0.276478
664.548000	0.484972
664.743000	-0.015662
664.938000	-0.548111
665.133000	-0.433948
665.328000	0.068069
665.523000	0.057709
665.718000	-0.278087
665.913000	-0.162899
666.109000	-0.078998
666.304000	-0.068443
666.499000	-0.152584
666.694000	0.015829
666.889000	0.406244
667.084000	-0.153515
667.279000	-0.502593
667.474000	-0.206444
667.669000	-0.132304
667.864000	-0.111267
668.059000	-0.143275
668.254000	-0.100951
668.449000	-0.218088
668.644000	-0.037269
668.840000	0.026586
669.035000	-0.165066
669.230000	-0.357967
669.425000	-0.133660
669.620000	-0.304722
669.815000	-0.316556
670.010000	-0.412751
670.205000	-0.177040
670.400000	-0.058908
670.595000	-0.091317
670.790000	-0.220531
670.985000	-0.199225
671.180000	0.113199
671.376000	-0.307529
671.571000	-0.524498
671.766000	-0.428158
671.961000	-0.471695
672.156000	-0.580853
672.351000	-0.374656
672.546000	-0.310150
672.741000	-0.298614
672.936000	-0.125039
673.131000	0.452450
673.326000	0.060130
673.521000	-0.454103
673.716000	-0.585397
673.911000	-0.684363
674.107000	-0.159071
674.302000	0.192115
674.497000	0.126391
674.692000	-0.324452
674.887000	-0.424881
675.082000	-0.370260
675.277000	0.016602
675.472000	-0.094202
675.667000	-0.349636
675.862000	-0.394235
676.057000	-0.461175
676.252000	-0.317380
676.447000	-0.217687
676.643000	-0.228663
676.838000	-0.039114
677.033000	-0.251803
677.228000	0.274871
677.423000	0.005613
677.618000	-0.579706
677.813000	-0.511868
678.008000	-0.062073
678.203000	0.005649
678.398000	-0.118845
678.593000	-0.062273
678.788000	-0.232862
678.983000	-0.641007
679.178000	-0.312151
679.374000	-0.255768
679.569000	-0.222143
679.764000	-0.245653
679.959000	-0.463852
680.154000	-0.360846
680.349000	-0.649475
680.544000	-0.464929
680.739000	-0.396260
680.934000	-0.500135
681.129000	-0.397769
681.324000	-0.432891
681.519000	-0.411096
681.714000	-0.689263
681.909000	-0.503302
682.105000	-0.481513
682.300000	-0.297018
682.495000	0.133880
682.690000	-0.052507
682.885000	-0.181003
683.080000	-0.333736
683.275000	-0.404199
683.470000	0.146627
683.665000	0.429092
683.860000	0.641803
684.055000	0.276899
684.250000	-0.395114
684.445000	-0.512243
684.641000	0.206695
684.836000	-0.088731
685.031000	-0.314647
685.226000	-0.196177
685.421000	-0.053654
685.616000	-0.375573
685.811000	-0.233056
686.006000	-0.113530
686.201000	-0.364976
686.396000	-0.678695
686.591000	-0.318965
686.786000	0.114528
686.981000	-0.150708
687.176000	-0.078559
687.372000	-0.114946
687.567000	0.066578
687.762000	-0.066761
687.957000	0.078896
688.152000	-0.334504
688.347000	-0.225436
688.542000	-0.629124
688.737000	-0.848636
688.932000	-0.923466
689.127000	-0.630792
689.322000	-0.153541
689.517000	-0.374561
689.712000	-0.659341
689.908000	-0.511969
690.103000	-0.339915
690.298000	-0.315246
690.493000	-0.204517
690.688000	-0.490206
690.883000	-0.367362
691.078000	0.031143
691.273000	0.080980
691.468000	-0.343276
691.663000	-0.231810
691.858000	0.006266
692.053000	-0.093989
692.248000	-0.031362
692.443000	-0.106625
692.639000	-0.094277
692.834000	-0.081910
693.029000	0.182789
693.224000	0.348315
693.419000	-0.196505
693.614000	-0.463614
693.809000	-0.565643
694.004000	-0.299274
694.199000	-0.350123
694.394000	-0.364086
694.589000	-0.594664
694.784000	-0.646474
694.979000	-0.288042
695.174000	-0.224600
695.370000	0.185783
695.565000	-0.224767
695.760000	-0.572856
695.955000	-0.032261
696.150000	0.006454
696.345000	-0.563692
696.540000	-0.123321
696.740000	-0.265927
696.940000	-0.084383
697.140000	-0.163110
697.340000	-0.607823
697.539000	0.032696
697.739000	0.019625
697.939000	-0.006546
698.139000	-0.229360
698.339000	-0.532797
698.539000	-0.519344
698.739000	-0.573472
698.939000	-0.549497
699.138000	-0.497354
699.338000	0.218089
699.538000	0.417939
699.738000	0.086494
699.938000	-0.299655
700.138000	-0.900488
700.338000	-0.675644
700.538000	-0.382252
700.737000	-0.221231
700.937000	-0.608253
701.137000	-0.582410
701.337000	0.235520
701.537000	0.195574
701.737000	-0.114503
701.937000	-0.330784
702.137000	-0.384810
702.337000	-0.642425
702.536000	-0.589527
702.736000	-0.427413
702.936000	-0.455221
703.136000	0.143103
703.336000	0.115819
703.536000	-0.157131
703.736000	-0.637080
703.936000	-0.307626
704.135000	-0.416796
704.335000	-0.212407
704.535000	-0.501550
704.735000	-0.419533
704.935000	0.102945
705.135000	-0.158617
705.335000	-0.601993
705.535000	-0.186948
705.735000	-0.076151
705.934000	-0.089951
706.134000	-0.380688
706.334000	-0.367715
706.534000	-0.521099
706.734000	-0.479792
706.934000	-0.521484
707.134000	-0.368611
707.334000	-0.090606
707.533000	-0.020948
707.733000	-0.355855
707.933000	-0.691468
708.133000	-0.104641
708.333000	0.231407
708.533000	-0.358292
708.733000	-0.147509
708.933000	0.021091
709.132000	-0.133839
709.332000	-0.218738
709.532000	-0.332367
709.732000	-0.388373
709.932000	-0.828152
710.132000	-0.785190
710.332000	-0.798972
710.532000	-0.290161
710.732000	-0.120640
710.931000	-0.546834
711.131000	-0.606008
711.331000	-0.306805
711.531000	-0.393091
711.731000	-0.580373
711.931000	-0.423442
712.131000	-0.523292
712.331000	-0.394387
712.530000	-0.350936
712.730000	-0.581646
712.930000	-0.437883
713.130000	-0.525860
713.330000	-0.757310
713.530000	-0.528448
713.730000	0.340390
713.930000	0.238921
714.129000	-0.513505
714.329000	-0.848915
714.529000	-0.384259
714.729000	-0.225218
714.929000	-0.472246
715.129000	-0.676795
715.329000	-0.677422
715.529000	-0.475407
715.729000	-0.021901
715.928000	-0.256149
716.128000	-0.227016
716.328000	-0.198310
716.528000	-0.595609
716.728000	-0.257424
716.928000	-0.316295
717.128000	-0.125326
717.328000	-0.228499
717.527000	-0.361614
717.727000	-0.627901
717.927000	-0.511347
718.127000	-0.541300
718.327000	-1.032562
718.527000	-0.942947
718.727000	-0.483057
718.927000	-0.662615
719.127000	-0.650330
719.326000	-0.305234
719.526000	-0.201377
719.726000	-0.396126
719.926000	-0.757700
720.126000	-0.697798
720.326000	-0.127535
720.526000	-0.382677
720.726000	-0.534356
720.925000	-0.173212
721.125000	-0.491325
721.325000	-0.158543
721.525000	-0.204335
721.725000	-0.431422
721.925000	-0.356736
722.125000	-0.538943
722.325000	0.159388
722.524000	-0.159873
722.724000	-0.937561
722.924000	-0.830795
723.124000	-0.404467
723.324000	0.114589
723.524000	0.022939
723.724000	-0.757660
723.924000	-0.468515
724.124000	-0.284279
724.323000	-0.115398
724.523000	-0.269027
724.723000	0.130951
724.923000	-0.146401
725.123000	-0.208262
725.323000	-0.131362
725.523000	-0.240000
725.723000	-0.425360
725.922000	-0.255504
726.122000	-0.209284
726.322000	-0.396380
726.522000	-0.614602
726.722000	0.085479
726.922000	-0.489227
727.122000	-0.335079
727.322000	0.163852
727.521000	-0.070395
727.721000	-0.634485
727.921000	-0.728518
728.121000	-0.743998
728.321000	-0.855212
728.521000	-0.589955
728.721000	-0.370334
728.921000	-0.102397
729.121000	0.686399
729.320000	0.276443
729.520000	-0.402854
729.720000	-0.656707
729.920000	-0.596236
730.120000	-0.404411
730.320000	-0.278217
730.520000	-0.660043
730.720000	-0.582349
730.919000	-0.167494
731.119000	0.199762
731.319000	-0.488216
731.519000	-0.616188
731.719000	-0.408435
731.919000	-0.793267
732.119000	-1.115626
732.319000	-0.925897
732.519000	-0.169167
732.718000	-0.459770
732.918000	-0.605481
733.118000	-0.250890
733.318000	-0.024350
733.518000	-0.592552
733.718000	-1.162368
733.918000	-0.870251
734.118000	-0.674819
734.317000	-0.318375
734.517000	-0.366847
734.717000	-0.663506
734.917000	-0.287348
735.117000	0.123281
735.317000	-0.041083
735.517000	0.238931
735.717000	0.785018
735.916000	-0.239673
736.116000	-0.569761
736.316000	-0.274176
736.516000	-0.274090
736.716000	-0.307469
736.916000	-0.859418
737.116000	-0.679144
737.316000	-0.108981
737.516000	0.092397
737.715000	0.159696
737.915000	-0.445671
738.115000	-0.717024
738.315000	-0.329231
738.515000	-0.565492
738.715000	-0.602772
738.915000	0.042506
739.115000	-0.604579
739.314000	-0.842244
739.514000	-0.128071
739.714000	-0.042798
739.914000	-0.317632
740.114000	-0.541846
740.314000	0.008607
740.514000	0.112064
740.714000	-0.804404
740.913000	-1.411925
741.113000	-0.928297
741.313000	-0.268946
741.513000	-0.530707
741.713000	-0.549579
741.913000	-0.113941
742.113000	-0.131271
742.313000	-0.815615
742.513000	-0.342351
742.712000	-0.431527
742.912000	-0.695910
743.112000	-0.715940
743.312000	-0.947320
743.512000	-0.505786
743.712000	-0.115725
743.912000	-1.168033
744.112000	-1.115249
744.311000	-1.046695
744.511000	-0.690096
744.711000	0.134769
744.911000	-0.692807
745.111000	-0.909875
745.311000	0.009026
745.511000	-0.135577
745.711000	-0.551866
745.911000	-0.461995
746.110000	-0.860990
746.310000	-0.902537
746.510000	-0.645877
746.710000	-0.009139
746.910000	0.137201
747.110000	-0.687108
747.310000	-0.688310
747.510000	-0.709356
747.709000	-0.451774
747.909000	-0.027731
748.109000	0.287518
748.309000	-0.269518
748.509000	-1.107687
748.709000	-0.850194
748.909000	-0.513695
749.109000	-0.628506
749.308000	-0.028171
749.508000	-0.122521
749.708000	-0.631664
749.908000	-0.348907
750.108000	-0.614767
750.308000	-0.787749
750.508000	0.256911
750.708000	-0.542550
750.908000	-0.829892
751.107000	0.028705
751.307000	0.544753
751.507000	-0.297524
751.707000	-0.297146
751.907000	-0.201787
752.107000	0.009641
752.307000	-0.532063
752.507000	-0.067894
752.706000	-0.358627
752.906000	0.573079
753.106000	-0.282660
753.306000	-1.085225
753.506000	0.127445
753.706000	-0.422390
753.906000	-0.068772
754.106000	-0.108213
754.305000	-0.246258
754.505000	-0.543187
754.705000	-0.327693
754.905000	-0.029834
755.105000	-0.049798
755.305000	-1.186836
755.505000	-1.010216
755.705000	0.030044
755.905000	-0.452014
756.104000	-1.256678
756.304000	-1.320536
756.504000	-1.707105
756.704000	-0.355379
756.904000	0.213106
757.104000	-0.111469
757.304000	-0.355015
757.504000	0.193901
757.703000	-0.030610
757.903000	0.153420
758.103000	0.215228
758.303000	0.318611
758.503000	-0.422501
758.703000	-0.774671
758.903000	-0.816351
759.103000	-0.155432
759.303000	-0.239473
759.502000	-0.637130
759.702000	-0.198374
759.902000	-0.682114
760.102000	-0.831017
760.302000	-0.538286
760.502000	-0.031569
760.702000	-0.158073
760.902000	-0.686437
761.101000	-0.879048
761.301000	-1.007903
761.501000	-0.668614
761.701000	-0.988985
761.901000	-0.823101
762.101000	-0.674887
762.301000	-0.482068
762.501000	-1.168637
762.700000	-1.066310
762.900000	-0.678804
763.100000	-0.334395
763.300000	-0.075817
763.500000	-0.271043
763.703000	-0.551081
763.905000	-0.835187
764.108000	-0.315670
764.311000	-0.337485
764.513000	-0.163497
764.716000	-0.251710
764.919000	-0.690390
765.121000	-0.953765
765.324000	-0.670742
765.527000	-0.895410
765.729000	-0.630084
765.932000	0.276805
766.135000	0.011069
766.337000	-0.476209
766.540000	-0.677771
766.743000	-0.011194
766.945000	-0.837857
767.148000	-1.354803
767.351000	-1.265052
767.553000	-0.460719
767.756000	-0.596197
767.958000	-0.888581
768.161000	-0.911867
768.364000	-1.231600
768.566000	-1.007819
768.769000	-0.147701
768.972000	-0.306720
769.174000	-0.922964
769.377000	-1.382696
769.580000	-1.156611
769.782000	-0.354691
769.985000	-1.136340
770.188000	-2.036468
770.390000	-0.982803
770.593000	0.542755
770.796000	-0.127122
770.998000	-0.427843
771.201000	-1.169124
771.404000	-0.869387
771.606000	-1.221973
771.809000	-0.709676
772.012000	-0.268098
772.214000	-1.551529
772.417000	-1.225023
772.620000	0.034892
772.822000	-0.457117
773.025000	-1.090246
773.228000	-0.786913
773.430000	-0.882341
773.633000	-0.577556
773.836000	-0.389497
774.038000	-0.272494
774.241000	-0.532996
774.444000	-0.938579
774.646000	0.178068
774.849000	-0.202265
775.052000	-0.487733
775.254000	-0.417184
775.457000	-0.774065
775.659000	-0.704296
775.862000	-0.728343
776.065000	-0.490348
776.267000	0.083862
776.470000	0.637791
776.673000	-0.180632
776.875000	-0.060387
777.078000	-0.012058
777.281000	-0.738347
777.483000	-0.400706
777.686000	-0.012165
777.889000	-0.377531
778.091000	-0.232186
778.294000	-1.086062
778.497000	-0.965272
778.699000	-0.794846
778.902000	-1.018424
779.105000	-0.699447
779.307000	0.110597
779.510000	-0.504956
779.713000	-0.012364
779.915000	-0.583023
780.118000	0.459425
780.321000	0.907546
780.523000	-0.261681
780.726000	-0.760439
780.929000	-0.909706
781.131000	-1.185695
781.334000	-1.340427
781.537000	-0.992430
781.739000	-0.289199
781.942000	-1.044476
782.145000	-1.378754
782.347000	-1.582138
782.550000	-1.025884
782.753000	-0.749704
782.955000	-1.032053
783.158000	-0.700363
783.361000	-0.293602
783.563000	-0.753277
783.766000	-1.139246
783.968000	0.961513
784.171000	0.888651
784.374000	-0.579607
784.576000	-0.811209
784.779000	-0.218553
784.982000	0.374974
785.184000	-0.403009
785.387000	0.065101
785.590000	0.741751
785.792000	0.744564
785.995000	0.300898
786.198000	0.275181
786.400000	-0.013159
786.603000	-0.593665
786.806000	-0.670742
787.008000	-0.223558
787.211000	-0.145178
787.414000	-1.205124
787.616000	-0.704538
787.819000	-0.812795
788.022000	-1.694496
788.224000	-1.083430
788.427000	-1.539074
788.630000	-0.872964
788.832000	-0.684199
789.035000	-0.897418
789.238000	-1.224382
789.440000	-1.420990
789.643000	-0.418661
789.846000	-0.826164
790.048000	-0.339412
790.251000	-0.203696
790.454000	-1.395915
790.656000	0.176833
790.859000	0.095438
791.062000	-0.805827
791.264000	-0.286583
791.467000	-1.247115
791.669000	-2.017513
791.872000	-1.034486
792.075000	-1.308836
792.277000	-0.812988
792.480000	-0.568028
792.683000	-1.312568
792.885000	-1.369158
793.088000	-1.068805
793.291000	-1.321955
793.493000	-1.631059
793.696000	-0.739145
793.899000	-0.293676
794.101000	-0.630766
794.304000	-0.660289
794.507000	-0.830103
794.709000	-0.437366
794.912000	-0.750764
795.115000	-1.461839
795.317000	-1.064153
795.520000	-0.470275
795.723000	-0.672485
795.925000	-0.816760
796.128000	-1.502626
796.331000	-1.363988
796.533000	-1.597504
796.736000	-1.171602
796.939000	-0.942425
797.141000	-0.450650
797.344000	-0.363774
797.547000	-0.684192
797.749000	-0.830957
797.952000	-1.128219
798.155000	-1.242716
798.357000	-2.103277
798.560000	-1.671412
798.763000	-0.783130
798.965000	-0.930008
799.168000	-0.873501
799.371000	-0.696652
799.573000	-1.977953
799.776000	-2.457528
799.978000	-1.330178
800.181000	-0.793645
800.384000	0.944848
800.586000	-0.045098
800.789000	-1.487608
800.992000	-1.306407
801.194000	-1.309292
801.397000	-1.554088
801.600000	-1.377727
801.802000	-0.075812
802.005000	-0.441110
802.208000	-2.272871
802.410000	-1.204046
802.613000	-0.535793
802.816000	-0.812289
803.018000	-1.582803
803.221000	-1.524175
803.424000	0.323982
803.626000	-0.015452
803.829000	-0.759545
804.032000	-0.450715
804.234000	0.512724
804.437000	-0.546143
804.640000	-0.763958
804.842000	-0.765706
805.045000	-1.146421
805.248000	-1.337371
805.450000	-1.273193
805.653000	-0.964902
805.856000	-1.532678
806.058000	-0.237739
806.261000	-0.873768
806.464000	-0.556590
806.666000	-0.143350
806.869000	-0.689283
807.072000	-2.035571
807.274000	-2.357680
807.477000	-1.238347
807.679000	-0.981845
807.882000	-1.693944
808.085000	-1.315567
808.287000	-0.666563
808.490000	-1.742904
808.693000	-1.646331
808.895000	-0.375329
809.098000	0.016327
809.301000	-0.573340
809.503000	-1.069393
809.706000	0.347381
809.909000	1.075051
810.111000	0.513436
810.314000	-0.547809
810.517000	-0.976231
810.719000	-1.514197
810.922000	-1.353510
811.125000	-0.650289
811.327000	-0.452774
811.530000	-0.589256
811.735000	-0.453883
811.940000	-1.196215
812.146000	-1.742656
812.351000	-1.032138
812.556000	-0.831757
812.761000	-1.481480
812.967000	-0.256530
813.172000	0.153756
813.377000	-0.805433
813.582000	-0.430240
813.788000	-0.225269
813.993000	-1.538360
814.198000	-0.916999
814.403000	-1.227751
814.609000	0.052203
814.814000	-0.471948
815.019000	0.785141
815.224000	-0.017439
815.429000	-0.825060
815.635000	-0.651555
815.840000	-0.405460
816.045000	-0.407308
816.250000	0.266064
816.456000	-1.048308
816.661000	-2.231179
816.866000	-1.914088
817.071000	-2.091656
817.277000	-3.220693
817.482000	-1.532022
817.687000	-0.774530
817.892000	-0.344172
818.097000	0.454261
818.303000	0.417915
818.508000	0.852335
818.713000	2.274650
818.918000	0.491677
819.124000	0.456427
819.329000	-0.715050
819.534000	-0.790738
819.739000	-1.379309
819.945000	-1.016265
820.150000	-0.873380
820.355000	-0.688891
820.560000	0.501351
820.766000	-0.390939
820.971000	-1.666392
821.176000	-2.346123
821.381000	-2.601363
821.586000	-1.412026
821.792000	0.699036
821.997000	-0.208015
822.202000	-0.889667
822.407000	-1.499933
822.613000	-2.302190
822.818000	-1.163638
823.023000	0.057298
823.228000	-0.211449
823.434000	0.518600
823.639000	0.673702
823.844000	-0.714075
824.049000	0.173822
824.255000	-0.058128
824.460000	-0.564530
824.665000	-1.929870
824.870000	-0.371634
825.075000	0.372104
825.281000	0.333938
825.486000	0.731117
825.691000	-1.246758
825.896000	-2.200967
826.102000	-0.297613
826.307000	-0.338116
826.512000	-0.459162
826.717000	-0.180226
826.923000	-0.421728
827.128000	-0.462906
827.333000	-0.911539
827.538000	-0.304984
827.744000	-0.428016
827.949000	-1.729160
828.154000	-0.959997
828.359000	-0.102076
828.564000	-0.430871
828.770000	-1.091933
828.975000	0.516231
829.180000	0.477340
829.385000	-2.178330
829.591000	-1.812493
829.796000	-0.900306
830.001000	-0.566388
830.206000	-1.073222
830.412000	-0.988039
830.617000	-1.116863
830.822000	-0.529450
831.027000	-1.373507
831.232000	-1.679466
831.438000	-1.605692
831.643000	-1.263036
831.848000	-0.965694
832.053000	-0.969381
832.259000	-1.229402
832.464000	-2.790143
832.669000	-2.583155
832.874000	-2.102175
833.080000	-2.242075
833.285000	-0.327046
833.490000	-0.545463
833.695000	-1.822865
833.901000	-1.566655
834.106000	-1.613243
834.311000	-0.910831
834.516000	-0.600735
834.721000	-1.499123
834.927000	-0.471816
835.132000	-0.877948
835.337000	1.149796
835.542000	-0.294828
835.748000	-2.557765
835.953000	0.204420
836.158000	0.204922
836.363000	-0.388628
836.569000	-0.852394
836.774000	-1.730863
836.979000	-1.640542
837.184000	-2.432043
837.390000	-1.972390
837.595000	-0.907403
837.800000	-1.096048
838.005000	-1.008909
838.210000	-1.150186
838.416000	-1.720182
838.621000	-2.197360
838.826000	-2.054338
839.031000	-1.115513
839.237000	-1.506437
839.442000	-2.802143
839.647000	-3.563212
839.852000	-1.897367
840.058000	-1.470349
840.263000	-1.768242
840.468000	-2.642908
840.673000	-1.527706
840.878000	-1.674780
841.084000	-1.538261
841.289000	0.465087
841.494000	2.489541
841.699000	2.003169
841.905000	1.810075
842.110000	0.972251
842.315000	-2.123520
842.520000	-0.623938
842.726000	-1.726184
842.931000	-2.674665
843.136000	-1.132995
843.341000	-1.851678
843.547000	-1.392243
843.752000	-1.393838
843.957000	-2.273954
844.162000	-1.565950
844.367000	-1.157727
844.573000	-0.387570
844.778000	-0.231928
844.983000	-0.335829
845.188000	-0.285620
845.394000	-1.650600
845.599000	-1.280649
845.804000	-1.075219
846.009000	-1.029838
846.215000	-2.042693
846.420000	-0.718202
846.625000	0.080060
846.830000	0.664768
847.036000	-1.416137
847.241000	-2.173464
847.446000	-0.402445
847.651000	-1.158530
847.856000	-1.930248
848.062000	-2.808525
848.267000	-0.954635
848.472000	-2.052742
848.677000	-3.430792
848.883000	-0.903824
849.088000	0.857645
849.293000	-0.249975
849.498000	-1.359242
849.704000	0.250356
849.909000	-0.920352
850.114000	-3.151608
850.319000	-1.984644
850.524000	-1.489642
850.730000	-0.537052
850.935000	-0.823003
851.140000	-0.654448
851.345000	-0.597455
851.551000	0.998754
851.756000	0.545098
851.961000	-0.546548
852.166000	-0.892199
852.372000	-0.605960
852.577000	-1.017313
852.782000	-0.322152
852.987000	-0.262829
853.193000	-1.787814
853.398000	-1.495176
853.603000	-1.968639
853.808000	-2.263653
854.013000	-1.627180
854.219000	-0.622416
854.424000	0.743846
854.629000	0.208737
854.834000	-1.350837
855.040000	-0.574007
855.245000	-0.331209
855.450000	-3.632089
855.655000	-4.614561
855.861000	-3.490493
856.066000	-2.784472
856.271000	-2.421181
856.476000	-0.399794
856.682000	-1.450974
856.887000	-3.917267
857.092000	-3.245468
857.297000	-1.334445
857.502000	-0.528610
857.708000	-0.654261
857.913000	0.031209
858.118000	-0.724432
858.323000	-1.168815
858.529000	-1.671659
858.734000	-1.929219
858.939000	-0.983313
859.144000	-1.050295
859.350000	-2.323707
859.555000	-2.778009
859.760000	-0.931052
859.965000	0.096288
860.171000	-2.675479
860.376000	-1.003447
860.581000	-3.732426
860.786000	-6.876954
860.991000	-5.204758
861.197000	-3.958438
861.402000	-1.870066
861.607000	-1.345994
861.812000	-3.132188
862.018000	-3.144204
862.223000	-1.691120
862.428000	-0.433611
862.633000	1.101203
862.839000	-0.302212
863.044000	-2.471765
863.249000	-3.275489
863.454000	-1.723874
863.659000	-1.932532
863.865000	-1.056252
864.070000	-2.288855
864.275000	-2.703314
864.480000	-2.371925
864.686000	-4.174830
864.891000	-3.694867
865.096000	-2.116088
865.301000	-1.355439
865.507000	0.174797
865.712000	-0.594269
865.917000	-1.090633
866.122000	-0.246942
866.328000	-2.731762
866.533000	-3.580719
866.738000	-1.171430
866.943000	-0.106718
867.148000	1.395134
867.354000	-1.478191
867.559000	-2.488408
867.764000	-1.630806
867.969000	-0.910598
868.175000	-2.940380
868.380000	-3.314977
868.585000	-2.443876
868.790000	0.329415
868.996000	-0.994777
869.201000	-3.139908
869.406000	-4.043838
869.611000	-1.226014
869.817000	-1.892642
870.022000	0.931279
870.227000	-0.336083
870.432000	-2.364166
870.637000	-1.540344
870.843000	-1.322568
871.048000	-1.928101
871.253000	-0.794383
871.458000	-1.558811
871.664000	-3.252226
871.869000	-4.272118
872.074000	-2.277606
872.279000	-1.427641
872.485000	-2.135845
872.690000	-2.457121
872.895000	-1.840666
873.100000	-3.332799
873.306000	-3.504474
873.511000	-2.735882
873.716000	0.198687
873.921000	-1.387178
874.126000	-1.389386
874.332000	-0.681494
874.537000	-0.604293
874.742000	-1.003904
874.947000	-1.411427
875.153000	0.040705
875.358000	-1.183206
875.563000	-3.301754
875.768000	-4.789215
875.974000	-4.891099
876.179000	0.041182
876.384000	-0.455201
876.589000	-2.547172
876.794000	-3.386160
877.000000	-4.142053
877.205000	-4.471090
877.410000	-1.133774
877.615000	-2.724840
877.821000	-6.724493
878.026000	-4.781393
878.231000	-4.864915
878.436000	-5.381579
878.642000	-4.309425
878.847000	-2.266415
879.052000	-2.604797
879.257000	-4.522648
879.463000	-4.615157
879.668000	-3.581069
879.873000	-1.516099
880.078000	-3.430436
880.283000	-5.623410
880.489000	-5.274557
880.694000	-3.371120
880.899000	-3.131884
881.104000	-0.930093
881.310000	1.638695
881.515000	0.575096
881.720000	1.374681
881.925000	2.541894
882.131000	4.861120
882.336000	0.314584
882.541000	-3.759399
882.746000	-4.051047
882.952000	-3.682622
883.157000	-3.327083
883.362000	-1.962799
883.567000	-4.079544
883.772000	-5.320264
883.978000	-3.844046
884.183000	-1.810343
884.388000	-1.898733
884.593000	-3.474694
884.799000	2.559507
885.004000	0.802295
885.209000	-1.274780
885.414000	-0.423470
885.620000	-4.691869
885.825000	-3.102656
886.030000	-2.810751
886.235000	-4.841177
886.440000	-4.301511
886.646000	-6.449456
886.851000	-5.507172
887.056000	-1.222304
887.261000	-0.146794
887.467000	-3.390004
887.672000	-1.632354
887.877000	-2.535596
888.082000	-4.845625
888.288000	-6.918394
888.493000	-8.855124
888.698000	-6.996827
888.903000	-2.170044
889.109000	-2.165550
889.314000	0.251951
889.519000	-1.455762
889.724000	1.055688
889.929000	-0.352307
890.135000	-2.270924
890.340000	-2.592921
890.545000	-2.388466
890.750000	-3.208630
890.956000	-3.525912
891.161000	-1.581817
891.366000	-3.019064
891.571000	-1.897755
891.777000	-2.515588
891.982000	-0.773840
892.187000	-1.709744
892.392000	0.361810
892.598000	0.259911
892.803000	-1.311044
893.008000	-3.719676
893.213000	-4.336868
893.418000	-4.156957
893.624000	-2.274000
893.829000	-5.449380
894.034000	-4.294570
894.239000	-0.053280
894.445000	-2.073115
894.650000	-1.656167
894.855000	-2.407111
895.060000	-1.441856
895.266000	-3.600802
895.471000	-5.108628
895.676000	-0.701516
895.881000	-0.925264
896.087000	-2.885203
896.292000	-3.780643
896.497000	-0.165183
896.702000	-1.371007
896.907000	-5.108016
897.113000	0.165383
897.318000	1.487698
897.523000	1.049658
897.728000	-0.942783
897.934000	-2.708677
898.139000	-4.379093
898.344000	0.503572
898.549000	0.731525
898.755000	-3.211996
898.960000	-4.705999
899.165000	-4.367769
899.370000	-1.196240
899.575000	1.427730
899.781000	-4.295352
899.986000	-3.722832
900.191000	-2.478528
900.396000	-4.558861
900.602000	-4.818444
900.807000	-1.929306
901.012000	0.647291
901.217000	-0.412935
901.423000	-6.290365
901.628000	-7.255188
901.833000	-1.126302
902.038000	0.776618
902.244000	-3.157521
902.449000	-3.535674
902.654000	-1.756190
902.859000	-1.389580
903.064000	0.182118
903.270000	1.644960
903.475000	-4.938662
903.680000	-8.466341
903.885000	-6.691996
904.091000	-6.109327
904.296000	-9.107486
904.501000	-6.282355
904.706000	-6.302570
904.912000	-2.586089
905.117000	-2.216888
905.322000	-3.895084
905.527000	-4.766829
905.733000	-4.388364
905.938000	-4.671817
906.143000	-5.893755
906.348000	-5.898484
906.553000	-3.198890
906.759000	-0.456699
906.964000	-0.458966
907.169000	-3.098984
907.374000	-5.328870
907.580000	-6.018637
907.785000	-5.718681
907.990000	27.630262
908.195000	19.780901
908.401000	-0.748040
908.606000	-7.863391
908.811000	-10.997808
909.016000	-1.705473
909.221000	0.479044
909.427000	-2.546509
909.632000	-4.929448
909.837000	-5.383277
910.042000	-7.502327
910.248000	-8.666989
910.453000	-5.310196
910.658000	-4.209199
910.863000	-3.064523
911.069000	-4.935410
911.274000	-0.648477
911.479000	-0.362482
911.684000	-8.184835
911.890000	-6.055472
912.095000	-3.871515
912.300000	-7.430404
912.506000	-6.403816
912.711000	-8.719345
912.917000	-3.207406
913.123000	0.074657
913.328000	-1.427257
913.534000	-1.288733
913.740000	7.710299
913.946000	4.833454
914.151000	-4.588744
914.357000	-5.380582
914.563000	-0.844678
914.768000	-5.649610
914.974000	-7.586466
915.180000	-8.607922
915.385000	-8.959564
915.591000	-12.398793
915.797000	-2.487881
916.002000	3.958481
916.208000	-1.045484
916.414000	-4.796999
916.620000	-6.436837
916.825000	-3.841506
917.031000	-5.153175
917.237000	-10.100592
917.442000	-5.561358
917.648000	-5.605005
917.854000	-7.273335
918.059000	0.084176
918.265000	1.765492
918.471000	-2.112420
918.676000	-5.721755
918.882000	-7.134924
919.088000	-9.042633
919.294000	-14.145782
919.499000	-8.301471
919.705000	-3.075089
919.911000	-5.183495
920.116000	-5.412849
920.322000	-11.495490
920.528000	-5.644114
920.733000	-4.996183
920.939000	-8.482930
921.145000	-10.283875
921.350000	-9.493996
921.556000	-5.297172
921.762000	-4.542277
921.968000	-5.113023
922.173000	-7.393371
922.379000	-14.636677
922.585000	-7.322257
922.790000	-6.573131
922.996000	-7.008346
923.202000	-9.036347
923.407000	-6.746353
923.613000	-4.601521
923.819000	-0.884621
924.024000	0.488423
924.230000	-0.884709
924.436000	-7.814907
924.642000	7.110883
924.847000	7.184665
925.053000	-4.751070
925.259000	-11.843237
925.464000	-4.381053
925.670000	-4.581109
925.876000	-6.485935
926.081000	-8.797788
926.287000	-6.327333
926.493000	-0.105556
926.698000	-5.392354
926.904000	-7.250798
927.110000	-7.928565
927.316000	-6.475768
927.521000	0.107242
927.727000	-5.333879
927.933000	-4.482401
928.138000	-3.403963
928.344000	-11.885551
928.550000	-9.010775
928.755000	-6.188689
928.961000	-5.053427
929.167000	-5.536166
929.372000	-0.794019
929.578000	-3.777696
929.784000	-8.187262
929.990000	-10.773502
930.195000	-8.014397
930.401000	-7.371956
930.607000	-3.870809
930.812000	0.829106
931.018000	-7.255026
931.224000	-15.548135
931.429000	-12.228205
931.635000	-13.651465
931.841000	-11.589181
932.046000	-7.464308
932.252000	-6.766830
932.458000	0.869017
932.664000	-1.380970
932.869000	-7.917462
933.075000	-10.248918
933.281000	-7.314847
933.486000	-1.430265
933.692000	-9.534544
933.898000	-13.095911
934.103000	-5.663866
934.309000	-7.934626
934.515000	-2.050442
934.720000	-2.057487
934.926000	1.798110
935.132000	-3.737543
935.338000	-7.696003
935.543000	-15.754758
935.749000	-11.604550
935.955000	-17.702804
936.160000	-16.451973
936.366000	0.146531
936.572000	-3.735470
936.777000	-6.556513
936.983000	-2.598197
937.189000	-1.694369
937.394000	-11.084189
937.600000	-2.352602
937.806000	10.584828
938.012000	-5.616698
938.217000	0.808362
938.423000	2.116732
938.629000	-10.585198
938.834000	-14.597366
939.040000	-15.583587
939.246000	-6.517973
939.451000	-11.338706
939.657000	-11.792623
939.863000	-15.079188
940.068000	-2.975094
940.274000	-5.462268
940.480000	-6.249119
940.686000	-5.272423
940.891000	-3.785850
941.097000	21.810751
941.303000	0.551850
941.508000	-6.105860
941.714000	-9.115588
941.920000	-19.035499
942.125000	-5.493430
942.331000	-0.190311
942.537000	15.023160
942.742000	7.107649
942.948000	-9.414195
943.154000	-10.170285
943.360000	-29.856156
943.565000	-15.088601
943.771000	3.362942
943.977000	6.876393
944.182000	-8.825934
944.388000	-21.865141
944.594000	-8.982785
944.799000	9.073907
945.005000	-0.991331
945.211000	1.789690
945.416000	-4.240371
945.622000	-15.992362
945.828000	-13.709480
946.034000	-3.951327
946.239000	-1.463879
946.445000	-12.148031
946.651000	-22.337512
946.856000	-14.998150
947.062000	-0.206184
947.268000	-4.775490
947.473000	-23.557517
947.679000	-22.861977
947.885000	-8.205369
948.090000	-8.255766
948.296000	9.687013
948.502000	-1.909504
948.708000	-12.627154
948.913000	-21.872721
949.119000	-11.040591
949.325000	-16.246465
949.530000	-24.060525
949.736000	-29.594079
949.942000	-17.859058
950.147000	-19.289450
950.353000	-14.827782
950.559000	-4.945811
950.764000	11.937303
950.970000	3.277826
951.176000	-15.695076
951.382000	-13.606640
951.587000	-1.590869
951.793000	6.634311
951.999000	11.952394
952.204000	-4.326708
952.410000	-23.697691
952.616000	-12.764311
952.821000	-4.733161
953.027000	-4.289827
953.233000	-7.584662
953.438000	-16.899073
953.644000	-1.156983
953.850000	-10.882904
954.056000	-17.082090
954.261000	-8.240941
954.467000	4.012122
954.673000	-0.706540
954.878000	-14.415683
955.084000	4.495678
955.290000	-3.563530
955.495000	-17.393202
955.701000	-21.624065
955.907000	-2.661778
956.112000	-7.018133
956.318000	8.394841
956.524000	11.888173
956.730000	1.232159
956.935000	-11.122982
957.141000	-13.993383
957.347000	0.249113
957.552000	-9.207530
957.758000	-34.614208
957.964000	-34.462764
958.169000	-1.769407
958.375000	0.760666
958.581000	-12.484906
958.786000	-26.758280
958.992000	-29.897635
959.198000	-10.679783
959.404000	2.336020
959.609000	-10.020317
959.815000	-21.222668
960.021000	-4.493235
960.226000	-8.266085
960.432000	-29.928533
960.638000	-18.818641
960.843000	-3.513673
961.049000	-2.483114
961.255000	4.648736
961.460000	-16.250008
961.666000	-43.583382
961.872000	-34.506710
962.078000	-18.430870
962.283000	-23.804051
962.489000	-31.456537
962.695000	-20.830108
962.900000	-16.702778
963.106000	-12.304923
963.312000	-13.624324
963.517000	-23.058765
963.723000	-23.922735
963.929000	-5.584946
964.134000	12.028138
964.340000	-15.722494
964.546000	-22.181076
964.752000	-37.008400
964.957000	-42.182991
965.163000	-17.435591
965.369000	-15.805037
965.574000	-5.948983
965.780000	-15.981651
966.000000	-17.876398
966.220000	-9.780407
966.440000	-14.272491
966.661000	-1.595423
966.881000	-15.683200
967.101000	-33.837373
967.321000	-43.922694
967.541000	-11.998110
967.761000	-21.977827
967.981000	-14.095521
968.202000	-11.072725
968.422000	-1.684423
968.642000	6.381115
968.862000	3.085806
969.082000	-12.088440
969.302000	-4.636173
969.522000	-15.072422
969.743000	-0.341332
969.963000	-19.884935
970.183000	-31.669892
970.403000	-27.584754
970.623000	-23.474334
970.843000	2.522828
971.063000	9.881090
971.284000	-13.623015
971.504000	-35.873911
971.724000	-16.082788
971.944000	-26.372819
972.164000	-28.128433
972.384000	-21.453994
972.604000	-38.558945
972.825000	-49.926233
973.045000	-33.129017
973.265000	15.924616
973.485000	4.351551
973.705000	-9.945339
973.925000	-3.634485
974.145000	-37.099509
974.365000	-10.340021
974.586000	-17.889064
974.806000	-43.837059
975.026000	-3.759188
975.246000	-18.281715
975.466000	-21.534449
975.686000	-7.067148
975.906000	-29.544964
976.127000	-63.231946
976.347000	-58.567484
976.567000	-20.411214
976.787000	-4.791837
977.007000	-24.719657
977.227000	-10.857654
977.447000	-22.633996
977.668000	-36.821606
977.888000	-24.352096
978.108000	-35.487071
978.328000	-30.487181
978.548000	6.005670
978.768000	14.588166
978.988000	2.458094
979.209000	-2.446932
979.429000	-3.445418
979.649000	-6.255165
979.869000	-32.530569
980.089000	-45.514783
980.309000	-50.108161
980.529000	-52.629236
980.750000	-23.131510
980.970000	-64.641269
981.190000	-37.345549
981.410000	-35.225511
981.630000	-46.772809
981.850000	-39.525111
982.070000	-14.952794
982.291000	-37.157892
982.511000	-53.090139
982.731000	-26.472464
982.951000	-19.817163
983.171000	-30.779762
983.391000	-35.528829
983.611000	5.143026
983.832000	-13.429129
984.052000	-32.555413
984.272000	-21.035397
984.492000	-36.154580
984.712000	-25.626563
984.932000	-48.564312
985.152000	-58.854703
985.373000	-49.123382
985.593000	-10.494378
985.813000	-10.885517
986.033000	-41.012140
986.253000	7.160559
986.473000	0.618997
986.693000	-28.680911
986.914000	-30.017835
987.134000	20.677692
987.354000	-16.964762
987.574000	196.727229
987.794000	123.957395
988.014000	-57.219215
988.234000	-46.372204
988.455000	-16.573080
988.675000	-10.862640
988.895000	-33.724615
989.115000	-34.139664
989.335000	-24.344814
989.555000	-19.882642
989.775000	-51.827827
989.995000	-22.970124
990.216000	-24.463205
990.436000	-17.348525
990.656000	35.899295
990.876000	-13.585875
991.096000	-3.980667
991.316000	26.027833
991.536000	-25.727150
991.757000	-7.526759
991.977000	-44.580950
992.197000	-17.696759
992.417000	-33.880359
992.637000	-99.210054
992.857000	-121.901903
993.077000	-74.531965
993.298000	-18.836112
993.518000	-19.919571
993.738000	-102.053067
993.958000	-77.840081
994.178000	-42.312944
994.398000	-19.104181
994.618000	-73.807559
994.839000	-140.130252
995.059000	-8.883325
995.279000	67.051087
995.499000	13.100092
995.719000	12.621664
995.939000	-20.432365
996.159000	-9.351765
996.380000	-25.176544
996.600000	-59.547378
996.820000	-36.438812
997.040000	24.357450
997.260000	-21.113077
997.480000	-65.041464
997.700000	-159.409614
997.921000	-76.080541
998.141000	43.815658
998.361000	-9.713482
998.581000	-99.597734
998.801000	-116.961562
999.021000	-62.158719
999.241000	-39.266549
999.462000	-81.182398
999.682000	-149.092486
999.902000	-108.099697
1000.122000	-86.980586
1000.342000	-131.215016
1000.562000	-49.412914
1000.782000	-65.319643
1001.003000	-1037.954520
