Wavelength	Irradiance
(nm)	(mW/cm2/nm)

294.396000	0.000000
294.577000	0.000000
294.757000	0.000000
294.938000	-0.000000
295.118000	-0.000000
295.299000	0.000000
295.479000	-0.000000
295.660000	-0.000000
295.840000	-0.000000
296.021000	-0.000000
296.202000	-0.000000
296.382000	-0.000000
296.563000	-0.000000
296.743000	-0.000000
296.924000	0.000000
297.104000	-0.000000
297.285000	-0.000000
297.465000	-0.000000
297.646000	-0.000000
297.826000	-0.000000
298.007000	0.000000
298.187000	-0.000000
298.368000	-0.000000
298.548000	0.000000
298.729000	0.000000
298.909000	-0.000000
299.090000	-0.000000
299.270000	-0.000000
299.451000	-0.000000
299.631000	-0.000000
299.812000	-0.000000
299.992000	0.000000
300.173000	0.000000
300.353000	-0.000000
300.534000	-0.000000
300.714000	0.000000
300.895000	-0.000000
301.075000	-0.000000
301.256000	0.000000
301.436000	-0.000000
301.617000	-0.000000
301.797000	-0.000000
301.978000	-0.000000
302.159000	0.000000
302.339000	-0.000000
302.520000	-0.000000
302.700000	-0.000000
302.881000	0.000000
303.061000	0.000000
303.242000	0.000000
303.422000	0.000000
303.603000	-0.000000
303.783000	-0.000000
303.964000	-0.000000
304.144000	-0.000000
304.325000	-0.000000
304.505000	-0.000000
304.686000	-0.000000
304.866000	0.000000
305.047000	-0.000000
305.227000	-0.000000
305.408000	-0.000000
305.588000	-0.000000
305.769000	-0.000000
305.949000	-0.000000
306.130000	-0.000000
306.310000	-0.000000
306.491000	-0.000000
306.671000	-0.000000
306.852000	-0.000000
307.032000	-0.000000
307.213000	-0.000000
307.393000	-0.000000
307.574000	0.000000
307.755000	0.000000
307.935000	0.000000
308.116000	-0.000000
308.296000	-0.000000
308.477000	-0.000000
308.657000	0.000000
308.838000	0.000000
309.018000	-0.000000
309.199000	-0.000000
309.379000	-0.000000
309.560000	-0.000000
309.740000	-0.000000
309.921000	-0.000000
310.101000	-0.000000
310.282000	-0.000000
310.462000	-0.000000
310.643000	-0.000000
310.823000	-0.000000
311.004000	-0.000000
311.184000	-0.000000
311.365000	0.000000
311.545000	0.000000
311.726000	-0.000000
311.906000	-0.000000
312.087000	0.000000
312.267000	-0.000000
312.448000	-0.000000
312.628000	-0.000000
312.809000	-0.000000
312.989000	-0.000000
313.170000	-0.000000
313.344000	-0.000000
313.518000	-0.000000
313.691000	-0.000000
313.865000	-0.000000
314.039000	-0.000000
314.213000	-0.000000
314.387000	-0.000000
314.560000	-0.000000
314.734000	-0.000000
314.908000	-0.000000
315.082000	-0.000000
315.255000	0.000000
315.429000	0.000000
315.603000	-0.000000
315.777000	-0.000000
315.951000	0.000000
316.124000	-0.000000
316.298000	-0.000000
316.472000	-0.000000
316.646000	-0.000000
316.820000	-0.000000
316.993000	-0.000000
317.167000	-0.000000
317.341000	-0.000000
317.515000	-0.000000
317.688000	-0.000000
317.862000	-0.000000
318.036000	-0.000000
318.210000	-0.000000
318.384000	-0.000000
318.557000	-0.000000
318.731000	-0.000000
318.905000	0.000000
319.079000	-0.000000
319.253000	-0.000000
319.426000	0.000000
319.600000	0.000000
319.774000	-0.000000
319.948000	-0.000000
320.122000	0.000000
320.295000	0.000000
320.469000	-0.000000
320.643000	-0.000000
320.817000	-0.000000
320.990000	-0.000000
321.164000	-0.000000
321.338000	-0.000000
321.512000	-0.000000
321.686000	-0.000000
321.859000	-0.000000
322.033000	-0.000000
322.207000	-0.000000
322.381000	-0.000000
322.555000	-0.000000
322.728000	-0.000000
322.902000	-0.000000
323.076000	-0.000000
323.250000	-0.000000
323.423000	-0.000000
323.597000	-0.000000
323.771000	-0.000000
323.945000	-0.000000
324.119000	-0.000000
324.292000	0.000000
324.466000	-0.000000
324.640000	0.000000
324.814000	0.000000
324.988000	-0.000000
325.161000	-0.000000
325.335000	-0.000000
325.509000	-0.000000
325.683000	-0.000000
325.856000	-0.000000
326.030000	-0.000000
326.204000	-0.000000
326.378000	-0.000000
326.552000	-0.000000
326.725000	-0.000000
326.899000	-0.000000
327.073000	-0.000000
327.247000	-0.000000
327.421000	-0.000000
327.594000	-0.000000
327.768000	-0.000000
327.942000	-0.000000
328.116000	0.000000
328.289000	0.000000
328.463000	0.000000
328.637000	0.000000
328.811000	-0.000000
328.985000	-0.000000
329.158000	-0.000000
329.332000	-0.000000
329.506000	0.000000
329.680000	0.000000
329.854000	-0.000000
330.027000	-0.000000
330.201000	-0.000000
330.375000	0.000000
330.549000	0.000000
330.723000	-0.000000
330.896000	-0.000000
331.070000	-0.000000
331.244000	-0.000000
331.418000	-0.000000
331.591000	0.000000
331.765000	-0.000000
331.939000	-0.000000
332.113000	-0.000000
332.287000	-0.000000
332.460000	0.000000
332.634000	0.000000
332.808000	-0.000000
332.982000	-0.000000
333.156000	-0.000000
333.329000	-0.000000
333.503000	-0.000000
333.677000	-0.000000
333.851000	-0.000000
334.024000	-0.000000
334.198000	-0.000000
334.372000	-0.000000
334.546000	-0.000000
334.720000	-0.000000
334.893000	-0.000000
335.067000	-0.000000
335.241000	-0.000000
335.415000	-0.000000
335.589000	-0.000000
335.762000	-0.000000
335.936000	-0.000000
336.110000	-0.000000
336.284000	-0.000000
336.458000	-0.000000
336.631000	-0.000000
336.805000	-0.000000
336.979000	-0.000000
337.153000	-0.000000
337.326000	-0.000000
337.500000	-0.000000
337.674000	-0.000000
337.848000	-0.000000
338.022000	-0.000000
338.195000	-0.000000
338.369000	-0.000000
338.543000	-0.000000
338.717000	-0.000000
338.891000	-0.000000
339.064000	-0.000000
339.238000	-0.000000
339.412000	-0.000000
339.586000	-0.000000
339.759000	-0.000000
339.933000	-0.000000
340.107000	-0.000000
340.281000	-0.000000
340.455000	-0.000000
340.628000	-0.000000
340.802000	-0.000000
340.976000	-0.000000
341.150000	-0.000000
341.324000	-0.000000
341.497000	-0.000000
341.671000	-0.000000
341.845000	-0.000000
342.019000	-0.000000
342.192000	-0.000000
342.366000	-0.000000
342.540000	-0.000000
342.714000	-0.000000
342.888000	-0.000000
343.061000	-0.000000
343.235000	-0.000000
343.409000	-0.000000
343.583000	-0.000000
343.757000	-0.000000
343.930000	-0.000000
344.104000	-0.000000
344.278000	0.000000
344.452000	0.000000
344.626000	-0.000000
344.799000	-0.000000
344.973000	-0.000000
345.147000	-0.000000
345.321000	-0.000000
345.494000	-0.000000
345.668000	0.000000
345.842000	0.000000
346.016000	-0.000000
346.190000	0.000000
346.363000	-0.000000
346.537000	-0.000000
346.711000	-0.000000
346.885000	-0.000000
347.059000	-0.000000
347.232000	0.000000
347.406000	0.000000
347.580000	-0.000000
347.754000	-0.000000
347.927000	-0.000000
348.101000	0.000000
348.275000	-0.000000
348.449000	-0.000000
348.623000	-0.000000
348.796000	0.000000
348.970000	0.000000
349.144000	-0.000000
349.318000	-0.000000
349.492000	-0.000000
349.665000	-0.000000
349.839000	-0.000000
350.013000	-0.000000
350.187000	-0.000000
350.361000	-0.000000
350.534000	0.000000
350.708000	0.000000
350.882000	-0.000000
351.056000	-0.000000
351.229000	-0.000000
351.403000	-0.000000
351.577000	-0.000000
351.751000	-0.000000
351.925000	-0.000000
352.098000	-0.000000
352.272000	-0.000000
352.446000	-0.000000
352.620000	-0.000000
352.794000	-0.000000
352.967000	-0.000000
353.141000	0.000000
353.315000	-0.000000
353.489000	-0.000000
353.662000	-0.000000
353.836000	-0.000000
354.010000	-0.000000
354.184000	-0.000000
354.358000	-0.000000
354.531000	-0.000000
354.705000	-0.000000
354.879000	-0.000000
355.053000	-0.000000
355.227000	0.000000
355.400000	-0.000000
355.574000	0.000000
355.748000	0.000000
355.922000	-0.000000
356.095000	-0.000000
356.269000	-0.000000
356.443000	-0.000000
356.617000	-0.000000
356.791000	-0.000000
356.964000	-0.000000
357.138000	-0.000000
357.312000	-0.000000
357.486000	-0.000000
357.660000	-0.000000
357.833000	-0.000000
358.007000	-0.000000
358.181000	-0.000000
358.355000	-0.000000
358.529000	-0.000000
358.702000	-0.000000
358.876000	-0.000000
359.050000	-0.000000
359.224000	-0.000000
359.397000	-0.000000
359.571000	-0.000000
359.745000	-0.000000
359.919000	-0.000000
360.093000	-0.117801
360.266000	-0.030521
360.440000	0.046411
360.614000	0.066976
360.788000	0.048923
360.962000	-0.258012
361.135000	-0.158727
361.309000	-0.299763
361.483000	-0.482911
361.657000	-0.411092
361.830000	-0.195394
362.004000	0.002088
362.178000	-0.473056
362.352000	-0.358518
362.526000	-0.132215
362.699000	-0.103883
362.873000	-0.384420
363.047000	-0.499678
363.221000	-0.475529
363.395000	-0.233681
363.568000	-0.227744
363.742000	-0.250623
363.916000	-0.234305
364.090000	-0.347973
364.263000	-0.136891
364.437000	-0.319720
364.611000	-0.102877
364.785000	-0.074056
364.959000	-0.333384
365.132000	-0.175263
365.306000	-0.301155
365.480000	-0.087994
365.656000	-0.237983
365.831000	-0.208070
366.007000	-0.053098
366.183000	-0.036573
366.358000	-0.282147
366.534000	-0.323723
366.710000	-0.461695
366.886000	-0.287631
367.061000	-0.223856
367.237000	-0.098340
367.413000	-0.152788
367.588000	-0.401833
367.764000	-0.367113
367.940000	-0.490231
368.115000	-0.304065
368.291000	-0.265171
368.467000	-0.246883
368.643000	-0.036935
368.818000	-0.283542
368.994000	-0.433956
369.170000	-0.430180
369.345000	-0.343441
369.521000	-0.331242
369.697000	-0.201774
369.872000	-0.263757
370.048000	-0.508030
370.224000	-0.416097
370.399000	-0.579367
370.575000	-0.508260
370.751000	-0.530214
370.927000	-0.556030
371.102000	-0.581224
371.278000	-0.406543
371.454000	-0.222926
371.629000	0.213699
371.805000	0.132316
371.981000	0.166742
372.156000	0.263453
372.332000	0.114170
372.508000	0.034932
372.683000	-0.191386
372.859000	-0.436734
373.035000	-0.408543
373.211000	0.101454
373.386000	-0.030447
373.562000	-0.489445
373.738000	-0.667173
373.913000	-0.723495
374.089000	-0.463743
374.265000	0.035313
374.440000	0.027341
374.616000	-0.047123
374.792000	-0.319293
374.968000	0.091013
375.143000	-0.111078
375.319000	-0.506925
375.495000	-0.394683
375.670000	-0.207633
375.846000	-0.193109
376.022000	-0.417426
376.197000	-0.324169
376.373000	-0.551635
376.549000	-0.437713
376.724000	-0.572109
376.900000	-0.596644
377.076000	-0.422344
377.252000	-0.044780
377.427000	0.120959
377.603000	-0.285709
377.779000	-0.261796
377.954000	-0.486461
378.130000	-0.406650
378.306000	-0.315294
378.481000	-0.369365
378.657000	-0.501257
378.833000	-0.468991
379.009000	-0.316260
379.184000	-0.164155
379.360000	-0.107692
379.536000	-0.171992
379.711000	-0.327945
379.887000	-0.442212
380.063000	-0.288275
380.238000	-0.408956
380.414000	-0.107752
380.590000	-0.347036
380.765000	-0.409296
380.941000	-0.162047
381.117000	-0.106564
381.293000	-0.222719
381.468000	-0.389061
381.644000	-0.246888
381.820000	-0.208128
381.995000	-0.092096
382.171000	0.207997
382.347000	0.152452
382.522000	-0.178302
382.698000	0.057051
382.874000	0.041358
383.050000	-0.382550
383.225000	-0.029018
383.401000	0.112518
383.577000	-0.267047
383.752000	-0.300753
383.928000	-0.261308
384.104000	-0.299648
384.279000	-0.283979
384.455000	-0.136819
384.631000	-0.222172
384.806000	-0.383047
384.982000	-0.214681
385.158000	-0.388512
385.334000	-0.236316
385.509000	-0.214111
385.685000	-0.555089
385.861000	-0.350990
386.036000	-0.570728
386.212000	-0.628233
386.388000	-0.320200
386.563000	-0.388568
386.739000	-0.400423
386.915000	-0.588395
387.090000	-0.247095
387.266000	-0.036508
387.442000	-0.028714
387.618000	-0.082380
387.793000	-0.448055
387.969000	-0.657380
388.145000	-0.400108
388.320000	-0.317554
388.496000	-0.394518
388.672000	-0.671927
388.847000	-0.104969
389.023000	-0.159624
389.199000	-0.509279
389.375000	-0.226939
389.550000	-0.414796
389.726000	-0.317017
389.902000	-0.526770
390.077000	-0.200698
390.253000	-0.196519
390.429000	-0.320737
390.604000	-0.165751
390.780000	-0.187728
390.956000	-0.389900
391.131000	-0.441845
391.307000	-0.088130
391.483000	-0.216100
391.659000	-0.428327
391.834000	-0.351269
392.010000	-0.576142
392.186000	-0.524109
392.361000	-0.238883
392.537000	-0.453019
392.713000	-0.034820
392.888000	0.069001
393.064000	-0.221148
393.240000	-0.346852
393.416000	-0.470207
393.591000	-0.533082
393.767000	-0.527316
393.943000	-0.439684
394.118000	-0.078367
394.294000	0.207132
394.470000	-0.012411
394.645000	-0.114251
394.821000	0.229096
394.997000	-0.223303
395.172000	-0.236597
395.348000	-0.302309
395.524000	-0.680128
395.700000	-0.450322
395.875000	-0.191767
396.051000	-0.378011
396.227000	-0.438640
396.402000	-0.426440
396.578000	-0.142750
396.754000	-0.235664
396.929000	-0.270485
397.105000	-0.090982
397.281000	-0.112438
397.457000	-0.276350
397.632000	-0.294635
397.808000	-0.545381
397.984000	-0.782303
398.159000	-0.690808
398.335000	-0.411289
398.511000	-0.019210
398.686000	-0.189769
398.862000	-0.442628
399.038000	-0.575272
399.213000	-0.208141
399.389000	-0.583806
399.565000	-0.293547
399.741000	0.016173
399.916000	-0.189558
400.092000	0.044509
400.268000	-0.425308
400.443000	-0.480010
400.619000	0.249819
400.795000	0.165501
400.970000	-0.201160
401.146000	-0.307495
401.322000	-0.075799
401.497000	0.384381
401.673000	0.151556
401.849000	-0.196441
402.025000	-0.033190
402.200000	-0.096482
402.376000	-0.406174
402.552000	0.079874
402.727000	-0.103421
402.903000	-0.461256
403.079000	-0.292958
403.254000	-0.110393
403.430000	-0.193470
403.606000	-0.263749
403.782000	-0.235470
403.957000	-0.348252
404.133000	-0.440480
404.309000	-0.292861
404.484000	-0.151856
404.660000	-0.089122
404.841000	-0.208548
405.023000	-0.095673
405.204000	-0.102960
405.385000	-0.363769
405.566000	-0.467201
405.748000	-0.380065
405.929000	-0.118785
406.110000	-0.110382
406.292000	-0.206726
406.473000	-0.256081
406.654000	-0.405812
406.835000	-0.124061
407.017000	-0.235315
407.198000	-0.198166
407.379000	-0.163191
407.560000	-0.239681
407.742000	-0.443405
407.923000	-0.312876
408.104000	-0.360153
408.286000	-0.338568
408.467000	-0.205966
408.648000	-0.366598
408.829000	-0.455423
409.011000	-0.331062
409.192000	-0.527445
409.373000	-0.241449
409.555000	-0.109263
409.736000	-0.129268
409.917000	-0.324025
410.098000	-0.377020
410.280000	-0.319550
410.461000	-0.305321
410.642000	-0.278513
410.823000	0.070458
411.005000	0.036301
411.186000	-0.210414
411.367000	-0.354650
411.549000	-0.484636
411.730000	-0.272060
411.911000	-0.059520
412.092000	-0.257149
412.274000	-0.336446
412.455000	-0.235389
412.636000	-0.154127
412.818000	-0.315821
412.999000	-0.468177
413.180000	-0.281792
413.361000	-0.201448
413.543000	-0.369035
413.724000	-0.442111
413.905000	-0.354643
414.087000	-0.409332
414.268000	-0.524899
414.449000	-0.499152
414.630000	-0.527925
414.812000	-0.640660
414.993000	-0.243577
415.174000	-0.137451
415.355000	-0.465676
415.537000	-0.596647
415.718000	-0.231047
415.899000	-0.349853
416.081000	-0.474028
416.262000	-0.308112
416.443000	-0.544261
416.624000	-0.411684
416.806000	-0.366426
416.987000	-0.262421
417.168000	-0.267420
417.350000	-0.523547
417.531000	-0.520400
417.712000	-0.507300
417.893000	-0.376582
418.075000	-0.043564
418.256000	-0.239319
418.437000	-0.201000
418.618000	-0.252465
418.800000	-0.108774
418.981000	-0.276741
419.162000	-0.313596
419.344000	-0.114724
419.525000	-0.219610
419.706000	-0.324235
419.887000	-0.271498
420.069000	0.014959
420.250000	-0.024058
420.431000	-0.088863
420.613000	-0.232661
420.794000	-0.553045
420.975000	-0.198382
421.156000	-0.386523
421.338000	-0.373271
421.519000	-0.269709
421.700000	-0.322405
421.882000	-0.400178
422.063000	-0.192158
422.244000	0.330232
422.425000	0.111790
422.607000	-0.461633
422.788000	-0.349006
422.969000	-0.411135
423.150000	-0.521461
423.332000	-0.500629
423.513000	-0.256607
423.694000	-0.335926
423.876000	-0.289562
424.057000	-0.166508
424.238000	-0.147624
424.419000	-0.128487
424.601000	-0.350197
424.782000	-0.330299
424.963000	-0.036826
425.145000	-0.127624
425.326000	-0.133526
425.507000	-0.120447
425.688000	-0.127534
425.870000	-0.232035
426.051000	-0.482197
426.232000	-0.495067
426.413000	-0.381113
426.595000	-0.379117
426.776000	-0.320842
426.957000	-0.257392
427.139000	-0.224024
427.320000	-0.218529
427.501000	-0.212871
427.682000	-0.172963
427.864000	-0.146968
428.045000	0.079867
428.226000	0.054087
428.408000	-0.382153
428.589000	-0.322185
428.770000	-0.308518
428.951000	-0.295081
429.133000	-0.564583
429.314000	-0.428789
429.495000	-0.356886
429.677000	-0.319570
429.858000	-0.268420
430.039000	-0.172068
430.220000	-0.075414
430.402000	-0.126582
430.583000	-0.461784
430.764000	-0.370138
430.945000	-0.171610
431.127000	-0.132097
431.308000	-0.296648
431.489000	0.001916
431.671000	0.072473
431.852000	-0.131873
432.033000	-0.259315
432.214000	-0.290601
432.396000	-0.162992
432.577000	-0.271405
432.758000	-0.469687
432.940000	-0.475552
433.121000	-0.386016
433.302000	-0.429106
433.483000	-0.270111
433.665000	-0.036076
433.846000	-0.042397
434.027000	-0.060997
434.208000	-0.236759
434.390000	-0.414123
434.571000	-0.111615
434.752000	0.346143
434.934000	-0.010583
435.115000	-0.129182
435.296000	0.020588
435.477000	-0.141202
435.659000	-0.342828
435.840000	-0.245097
436.026000	-0.238216
436.211000	-0.324036
436.397000	-0.604578
436.582000	-0.469840
436.768000	-0.334799
436.953000	-0.328232
437.139000	-0.266527
437.325000	-0.046756
437.510000	-0.131749
437.696000	0.147143
437.881000	0.032042
438.067000	-0.328807
438.252000	-0.220772
438.438000	-0.322809
438.624000	-0.412998
438.809000	-0.219726
438.995000	-0.063987
439.180000	-0.206869
439.366000	-0.272163
439.551000	-0.301537
439.737000	-0.277184
439.923000	-0.230001
440.108000	-0.366212
440.294000	-0.252665
440.479000	-0.045401
440.665000	-0.074396
440.850000	-0.173014
441.036000	-0.144215
441.222000	-0.121372
441.407000	-0.325476
441.593000	-0.347348
441.778000	-0.108550
441.964000	0.065874
442.149000	-0.259591
442.335000	-0.344960
442.521000	-0.234914
442.706000	-0.090251
442.892000	-0.239194
443.077000	-0.297548
443.263000	-0.164490
443.448000	-0.112399
443.634000	-0.226671
443.820000	0.001702
444.005000	-0.162716
444.191000	-0.373265
444.376000	-0.331926
444.562000	0.007306
444.747000	0.035591
444.933000	-0.139141
445.119000	-0.245583
445.304000	-0.390968
445.490000	-0.166663
445.675000	-0.048798
445.861000	-0.212020
446.046000	-0.262061
446.232000	-0.116000
446.418000	-0.166250
446.603000	-0.211007
446.789000	-0.087778
446.974000	-0.076828
447.160000	-0.367111
447.345000	-0.348509
447.531000	-0.348204
447.717000	-0.188298
447.902000	-0.132976
448.088000	-0.098729
448.273000	-0.175912
448.459000	-0.180950
448.644000	-0.352683
448.830000	-0.365116
449.016000	-0.453655
449.201000	-0.308847
449.387000	-0.148380
449.572000	-0.170098
449.758000	-0.247506
449.943000	-0.319944
450.129000	-0.324191
450.315000	-0.218844
450.500000	-0.312828
450.686000	-0.224964
450.871000	-0.236245
451.057000	-0.175086
451.243000	-0.180400
451.428000	-0.246934
451.614000	-0.306972
451.799000	-0.345345
451.985000	-0.124974
452.170000	-0.080853
452.356000	-0.344617
452.542000	-0.306510
452.727000	-0.228748
452.913000	-0.262093
453.098000	-0.003846
453.284000	0.095011
453.469000	-0.091824
453.655000	0.078492
453.841000	-0.064120
454.026000	-0.211159
454.212000	-0.172470
454.397000	-0.205390
454.583000	-0.339073
454.768000	-0.424674
454.954000	-0.183080
455.140000	-0.144805
455.325000	-0.312216
455.511000	-0.400729
455.696000	-0.373578
455.882000	-0.182844
456.067000	0.066767
456.253000	-0.134086
456.439000	-0.378316
456.624000	-0.355432
456.810000	-0.343664
456.995000	-0.376542
457.181000	-0.445593
457.366000	-0.218178
457.552000	-0.227960
457.738000	-0.174379
457.923000	-0.174686
458.109000	0.001607
458.294000	-0.089394
458.480000	-0.089504
458.665000	-0.126643
458.851000	-0.249106
459.037000	-0.475292
459.222000	-0.284560
459.408000	-0.173284
459.593000	-0.082796
459.779000	0.006834
459.964000	0.138496
460.150000	0.238973
460.336000	0.138600
460.521000	-0.050765
460.707000	-0.097640
460.892000	-0.279843
461.078000	-0.170806
461.263000	-0.066041
461.449000	-0.186305
461.635000	-0.160040
461.820000	-0.190936
462.006000	-0.102055
462.191000	-0.137810
462.377000	-0.384424
462.562000	0.048013
462.748000	0.331117
462.934000	-0.111878
463.119000	-0.326901
463.305000	-0.110887
463.490000	-0.191713
463.676000	-0.243183
463.861000	-0.193042
464.047000	-0.141388
464.233000	-0.125247
464.418000	-0.120046
464.604000	-0.145054
464.789000	0.077386
464.975000	0.046889
465.160000	-0.114642
465.346000	-0.129719
465.532000	-0.215840
465.717000	-0.311375
465.903000	-0.169799
466.088000	-0.134363
466.274000	-0.293892
466.459000	-0.319294
466.645000	0.147069
466.831000	0.051375
467.016000	0.086149
467.202000	-0.013506
467.387000	-0.153130
467.573000	-0.336323
467.758000	-0.003463
467.944000	-0.117187
468.130000	-0.237077
468.315000	-0.058182
468.501000	-0.043110
468.686000	-0.171525
468.872000	-0.067743
469.057000	-0.013347
469.243000	-0.171778
469.429000	-0.240904
469.614000	-0.245262
469.800000	-0.319294
469.985000	-0.195309
470.171000	-0.145567
470.356000	-0.214981
470.542000	-0.121977
470.728000	-0.028051
470.913000	-0.111158
471.099000	0.006362
471.284000	-0.121729
471.470000	-0.255164
471.655000	-0.141669
471.841000	-0.067412
472.027000	-0.199196
472.212000	0.025962
472.398000	0.129252
472.583000	-0.062481
472.769000	-0.106958
472.954000	-0.087106
473.140000	-0.268042
473.326000	-0.292919
473.511000	-0.062186
473.697000	-0.106380
473.882000	-0.200347
474.068000	-0.264843
474.253000	-0.352102
474.439000	-0.229697
474.625000	-0.126176
474.810000	-0.116440
474.996000	-0.106614
475.181000	-0.238383
475.367000	-0.052430
475.552000	0.134532
475.738000	-0.243538
475.924000	-0.303020
476.109000	-0.170349
476.295000	-0.224470
476.480000	-0.082112
476.666000	-0.145809
476.851000	-0.101571
477.037000	-0.047845
477.223000	-0.214702
477.408000	-0.313050
477.594000	-0.435500
477.779000	-0.229758
477.965000	-0.131407
478.151000	-0.323283
478.336000	-0.190602
478.522000	-0.150840
478.707000	-0.263821
478.893000	-0.180675
479.078000	-0.368659
479.264000	-0.388500
479.450000	-0.245441
479.635000	-0.097155
479.821000	-0.275181
480.006000	-0.186112
480.192000	-0.131684
480.377000	-0.176455
480.563000	-0.146655
480.749000	-0.378980
480.934000	-0.447675
481.120000	-0.328009
481.305000	-0.145854
481.491000	-0.205618
481.676000	-0.166545
481.862000	-0.122349
482.048000	-0.313830
482.233000	-0.308537
482.419000	-0.269779
482.604000	-0.289803
482.790000	-0.235501
482.975000	-0.127002
483.161000	-0.077353
483.347000	-0.111662
483.532000	-0.101844
483.718000	-0.388485
483.903000	-0.364315
484.089000	-0.274673
484.274000	-0.461333
484.460000	-0.259990
484.646000	-0.146534
484.831000	-0.299698
485.017000	-0.215086
485.202000	-0.185203
485.388000	-0.008346
485.573000	-0.067125
485.759000	-0.253952
485.945000	-0.086961
486.130000	-0.175263
486.316000	-0.145863
486.501000	-0.101393
486.687000	-0.306686
486.872000	-0.390191
487.058000	-0.214087
487.244000	-0.160297
487.429000	-0.340681
487.615000	-0.198971
487.800000	-0.115843
487.986000	-0.222527
488.171000	-0.130311
488.357000	-0.188239
488.543000	-0.269941
488.728000	-0.158527
488.914000	-0.134374
489.099000	-0.221560
489.285000	-0.211712
489.470000	-0.119365
489.656000	-0.191996
489.842000	-0.152719
490.027000	-0.060999
490.213000	-0.239109
490.398000	-0.538732
490.584000	-0.190806
490.769000	-0.099488
490.955000	-0.012954
491.141000	-0.060799
491.326000	-0.165539
491.512000	-0.017643
491.697000	-0.065193
491.883000	-0.236599
492.068000	-0.227106
492.254000	-0.251359
492.440000	-0.184474
492.625000	-0.212442
492.811000	-0.316358
492.996000	-0.188039
493.182000	-0.135504
493.367000	-0.358428
493.553000	-0.405888
493.739000	-0.258678
493.924000	-0.169020
494.110000	-0.192082
494.295000	-0.295011
494.481000	-0.187023
494.666000	-0.177727
494.852000	-0.055069
495.038000	-0.195868
495.223000	-0.243201
495.409000	-0.120611
495.594000	-0.266536
495.780000	-0.256465
495.965000	-0.252030
496.151000	-0.054846
496.337000	0.020138
496.522000	-0.241188
496.708000	-0.242064
496.893000	-0.017323
497.079000	-0.157379
497.264000	-0.259623
497.450000	-0.227083
497.636000	-0.166617
497.821000	-0.301179
498.007000	-0.049810
498.192000	0.024764
498.378000	-0.208492
498.563000	-0.203893
498.749000	-0.185419
498.935000	-0.213120
499.120000	-0.040474
499.306000	-0.226883
499.491000	-0.268085
499.677000	-0.096147
499.862000	-0.021913
500.048000	-0.007940
500.234000	-0.184953
500.419000	-0.161954
500.605000	-0.031299
500.790000	-0.115256
500.976000	-0.293044
501.161000	-0.377070
501.347000	-0.134095
501.533000	-0.021974
501.718000	-0.185500
501.904000	-0.167198
502.089000	-0.078330
502.275000	-0.031344
502.460000	-0.278467
502.646000	-0.138694
502.832000	-0.087373
503.017000	-0.167139
503.203000	-0.308023
503.388000	-0.299363
503.574000	-0.050154
503.759000	-0.120431
503.945000	-0.115942
504.131000	-0.111248
504.316000	-0.172165
504.502000	-0.139380
504.687000	-0.219744
504.873000	-0.290488
505.058000	-0.262207
505.244000	-0.248025
505.430000	-0.206055
505.615000	-0.173268
505.801000	-0.126284
505.986000	-0.219813
506.172000	-0.168139
506.358000	-0.220448
506.543000	-0.220329
506.729000	0.025020
506.914000	-0.074279
507.100000	-0.050797
507.285000	-0.165011
507.471000	-0.217077
507.657000	-0.017573
507.842000	-0.126636
508.028000	-0.283344
508.213000	-0.284052
508.399000	-0.265569
508.584000	-0.189472
508.770000	-0.141496
508.956000	-0.151143
509.141000	-0.117662
509.327000	-0.051076
509.512000	-0.155476
509.698000	-0.103332
509.883000	-0.060644
510.069000	-0.175719
510.255000	-0.156636
510.440000	-0.147238
510.626000	-0.267000
510.811000	-0.276985
510.997000	-0.113795
511.182000	0.231635
511.368000	-0.003361
511.554000	-0.281982
511.739000	-0.171384
511.925000	0.044674
512.110000	-0.094544
512.296000	-0.027424
512.481000	0.102354
512.667000	0.011064
512.853000	-0.277615
513.038000	-0.109371
513.224000	-0.123856
513.409000	-0.302138
513.595000	-0.157828
513.780000	-0.244581
513.966000	-0.128492
514.152000	-0.128508
514.337000	-0.287455
514.523000	-0.253773
514.708000	-0.273314
514.894000	-0.201563
515.079000	-0.316331
515.265000	-0.230454
515.451000	-0.167717
515.636000	-0.336636
515.822000	-0.158131
516.007000	-0.230704
516.193000	-0.080691
516.378000	-0.008228
516.564000	-0.158041
516.750000	-0.119418
516.935000	0.035311
517.121000	0.049813
517.306000	-0.017910
517.492000	-0.143984
517.677000	-0.201930
517.863000	-0.221341
518.049000	-0.221410
518.234000	-0.289020
518.420000	-0.085796
518.605000	0.064446
518.791000	0.015982
518.976000	-0.129825
519.162000	-0.289751
519.348000	-0.071361
519.533000	-0.071257
519.719000	0.054831
519.904000	-0.017974
520.090000	-0.090657
520.275000	0.132438
520.461000	0.157004
520.647000	-0.095740
520.832000	-0.232445
521.018000	-0.197819
521.203000	-0.211705
521.389000	-0.351940
521.574000	-0.211768
521.760000	-0.090739
521.946000	-0.081281
522.131000	-0.105707
522.317000	-0.188229
522.502000	-0.275659
522.688000	-0.193095
522.873000	-0.081303
523.059000	-0.134952
523.245000	-0.183499
523.430000	-0.251961
523.616000	-0.261635
523.801000	-0.305889
523.987000	-0.218465
524.172000	-0.110931
524.358000	-0.062089
524.544000	-0.101035
524.729000	0.020932
524.915000	0.074659
525.100000	-0.257056
525.286000	-0.149968
525.471000	-0.018125
525.657000	-0.013240
525.843000	-0.293101
526.028000	-0.150830
526.214000	-0.155684
526.399000	-0.200463
526.585000	-0.284252
526.770000	-0.313773
526.956000	-0.260238
527.142000	-0.344123
527.327000	-0.131975
527.513000	-0.285558
527.698000	-0.365151
527.884000	-0.311782
528.069000	-0.311155
528.255000	-0.107830
528.441000	-0.222385
528.626000	-0.108290
528.812000	0.101222
528.997000	-0.088436
529.183000	-0.243220
529.368000	-0.088809
529.554000	-0.144382
529.740000	-0.119564
529.925000	-0.154912
530.111000	-0.160135
530.296000	-0.069309
530.482000	-0.003550
530.667000	-0.145610
530.853000	-0.008653
531.039000	-0.222908
531.224000	-0.213849
531.410000	-0.024096
531.595000	-0.085696
531.781000	-0.044651
531.967000	-0.230694
532.152000	-0.050217
532.338000	-0.180001
532.523000	-0.268695
532.709000	-0.306203
532.894000	-0.239563
533.080000	-0.103380
533.266000	-0.255756
533.451000	-0.341045
533.637000	-0.384460
533.822000	-0.269185
534.008000	-0.263645
534.193000	-0.179432
534.379000	-0.083893
534.565000	-0.261279
534.750000	-0.353791
534.936000	-0.009189
535.121000	-0.155536
535.307000	-0.079803
535.492000	-0.090806
535.678000	-0.359379
535.864000	-0.179754
536.049000	0.062475
536.235000	-0.086898
536.420000	-0.154019
536.606000	-0.249255
536.791000	-0.357311
536.977000	-0.341335
537.163000	-0.043468
537.348000	0.007382
537.534000	0.053161
537.719000	-0.187388
537.905000	-0.406725
538.090000	-0.119555
538.276000	0.164026
538.462000	0.158745
538.647000	-0.044956
538.833000	-0.186089
539.018000	0.019463
539.204000	-0.151678
539.389000	-0.289389
539.575000	0.096940
539.761000	-0.028092
539.946000	-0.430568
540.132000	-0.287560
540.317000	-0.306524
540.503000	-0.076948
540.688000	-0.138402
540.874000	0.020181
541.060000	0.124105
541.245000	-0.090291
541.431000	-0.281766
541.616000	-0.214531
541.802000	-0.202339
541.987000	-0.209123
542.173000	-0.216151
542.359000	-0.347372
542.544000	-0.390458
542.730000	-0.435779
542.915000	-0.355356
543.101000	-0.142350
543.286000	-0.249474
543.472000	-0.371172
543.658000	-0.339802
543.843000	-0.410417
544.029000	-0.138093
544.214000	-0.163758
544.400000	-0.610478
544.585000	-0.471171
544.771000	-0.376504
544.957000	-0.158769
545.142000	-0.068835
545.328000	-0.030316
545.513000	-0.056221
545.699000	-0.114873
545.884000	-0.257829
546.070000	-0.212465
546.261000	-0.167592
546.451000	-0.325104
546.642000	-0.515692
546.833000	-0.286844
547.023000	-0.516464
547.214000	-0.472430
547.405000	-0.116604
547.595000	0.213059
547.786000	0.187393
547.977000	-0.150722
548.167000	-0.356853
548.358000	-0.231610
548.549000	0.196286
548.740000	-0.031486
548.930000	-0.446992
549.121000	-0.407952
549.312000	-0.402766
549.502000	-0.430790
549.693000	-0.288538
549.884000	-0.160197
550.074000	-0.072580
550.265000	-0.446714
550.456000	-0.052482
550.646000	-0.038942
550.837000	-0.278158
551.028000	-0.429089
551.218000	-0.271617
551.409000	-0.430851
551.600000	-0.424341
551.790000	-0.163639
551.981000	-0.405281
552.172000	-0.412954
552.362000	-0.170780
552.553000	-0.088256
552.744000	-0.143755
552.934000	-0.199484
553.125000	-0.283397
553.316000	-0.346285
553.506000	-0.046779
553.697000	-0.215141
553.888000	-0.172790
554.079000	0.135120
554.269000	0.093207
554.460000	-0.278923
554.651000	-0.405804
554.841000	-0.483709
555.032000	-0.202383
555.223000	-0.139113
555.413000	-0.117406
555.604000	-0.223806
555.795000	-0.330574
555.985000	-0.146829
556.176000	-0.358971
556.367000	-0.592492
556.557000	-0.303271
556.748000	-0.246932
556.939000	-0.296288
557.129000	-0.310237
557.320000	-0.097320
557.511000	-0.033325
557.701000	-0.259807
557.892000	-0.395894
558.083000	-0.168267
558.273000	-0.239311
558.464000	-0.452374
558.655000	-0.253310
558.845000	-0.245490
559.036000	-0.104071
559.227000	-0.196252
559.418000	-0.161123
559.608000	0.051795
559.799000	-0.210463
559.990000	-0.336220
560.180000	-0.294313
560.371000	-0.584574
560.562000	-0.569566
560.752000	-0.287516
560.943000	-0.428998
561.134000	-0.547673
561.324000	-0.258369
561.515000	-0.054108
561.706000	-0.258178
561.896000	-0.369929
562.087000	-0.257327
562.278000	-0.439458
562.468000	-0.629323
562.659000	-0.494666
562.850000	-0.095916
563.040000	-0.123921
563.231000	-0.649517
563.422000	-0.326135
563.612000	-0.284547
563.803000	-0.235179
563.994000	-0.470185
564.185000	-0.601133
564.375000	-0.247812
564.566000	-0.205913
564.757000	-0.234295
564.947000	-0.393731
565.138000	-0.371636
565.329000	-0.260381
565.519000	-0.398308
565.710000	-0.453990
565.901000	-0.392071
566.091000	-0.108483
566.282000	-0.170278
566.473000	-0.073536
566.663000	-0.169554
566.854000	-0.524423
567.045000	-0.345752
567.235000	-0.257051
567.426000	-0.147904
567.617000	-0.222075
567.807000	-0.242553
567.998000	-0.221718
568.189000	-0.343681
568.379000	-0.214340
568.570000	-0.187034
568.761000	-0.220329
568.951000	-0.186343
569.142000	-0.260692
569.333000	-0.415617
569.524000	-0.548278
569.714000	-0.481126
569.905000	-0.641071
570.096000	-0.192218
570.286000	-0.098321
570.477000	0.008671
570.668000	0.028655
570.858000	-0.111284
571.049000	-0.303463
571.240000	-0.356765
571.430000	-0.256774
571.621000	-0.242640
571.812000	-0.096792
572.002000	-0.116753
572.193000	-0.340467
572.384000	-0.175756
572.574000	-0.110018
572.765000	-0.261064
572.956000	-0.371687
573.146000	-0.168726
573.337000	-0.233911
573.528000	-0.148474
573.718000	0.021528
573.909000	0.008469
574.100000	-0.088928
574.290000	-0.237462
574.481000	-0.243387
574.672000	-0.321226
574.863000	-0.152569
575.053000	-0.235809
575.244000	-0.248070
575.435000	-0.305466
575.625000	-0.335996
575.816000	-0.278270
576.007000	-0.354686
576.197000	-0.374378
576.388000	-0.366568
576.579000	-0.125113
576.769000	-0.036158
576.960000	-0.416454
577.155000	-0.604939
577.350000	-0.345345
577.545000	-0.262781
577.740000	-0.349963
577.935000	0.108472
578.130000	-0.085966
578.326000	-0.417260
578.521000	-0.085664
578.716000	-0.035477
578.911000	-0.333864
579.106000	-0.134406
579.301000	-0.084597
579.496000	-0.318240
579.691000	-0.514777
579.886000	-0.390750
580.081000	-0.206406
580.276000	-0.120363
580.471000	-0.291387
580.666000	-0.376255
580.861000	-0.418794
581.057000	-0.443466
581.252000	-0.223920
581.447000	-0.424313
581.642000	-0.406733
581.837000	-0.302660
582.032000	-0.289654
582.227000	-0.052523
582.422000	-0.010244
582.617000	-0.220146
582.812000	-0.303344
583.007000	-0.309159
583.202000	-0.487657
583.397000	-0.176656
583.592000	0.108658
583.788000	-0.193539
583.983000	-0.211095
584.178000	-0.074976
584.373000	-0.274872
584.568000	-0.286044
584.763000	-0.298081
584.958000	-0.450911
585.153000	-0.339236
585.348000	-0.362555
585.543000	-0.174699
585.738000	-0.204017
585.933000	-0.433425
586.128000	-0.286301
586.324000	-0.257578
586.519000	-0.280951
586.714000	-0.192754
586.909000	-0.057280
587.104000	0.031401
587.299000	-0.169555
587.494000	-0.198824
587.689000	-0.317443
587.884000	-0.247249
588.079000	-0.353999
588.274000	-0.324948
588.469000	-0.353941
588.664000	-0.182249
588.859000	-0.140897
589.055000	-0.158915
589.250000	-0.224494
589.445000	-0.296308
589.640000	-0.260746
589.835000	0.001794
590.030000	-0.016144
590.225000	-0.081931
590.420000	-0.243737
590.615000	-0.429769
590.810000	-0.471200
591.005000	-0.238668
591.200000	-0.353038
591.395000	-0.346971
591.591000	-0.250326
591.786000	-0.172142
591.981000	-0.268903
592.176000	-0.166975
592.371000	-0.112767
592.566000	-0.209101
592.761000	-0.028318
592.956000	-0.028366
593.151000	-0.106878
593.346000	-0.222219
593.541000	-0.149405
593.736000	-0.174134
593.931000	-0.289540
594.126000	-0.156231
594.322000	-0.204855
594.517000	-0.350674
594.712000	-0.417710
594.907000	-0.443622
595.102000	-0.303673
595.297000	-0.095866
595.492000	0.014074
595.687000	-0.218891
595.882000	-0.366230
596.077000	-0.348501
596.272000	-0.182511
596.467000	0.020286
596.662000	-0.133524
596.857000	-0.220545
597.053000	-0.245669
597.248000	-0.152780
597.443000	-0.140596
597.638000	-0.277524
597.833000	-0.563656
598.028000	-0.320883
598.223000	-0.190916
598.418000	-0.347004
598.613000	-0.359416
598.808000	-0.160210
599.003000	-0.110458
599.198000	-0.329293
599.393000	-0.285468
599.589000	-0.079547
599.784000	-0.392999
599.979000	-0.337084
600.174000	-0.004397
600.369000	-0.243349
600.564000	-0.287738
600.759000	-0.023323
600.954000	0.071111
601.149000	-0.200099
601.344000	-0.465687
601.539000	-0.276450
601.734000	-0.250817
601.929000	-0.409792
602.124000	-0.448169
602.320000	-0.220345
602.515000	0.008256
602.710000	-0.036276
602.905000	-0.411702
603.100000	-0.480922
603.295000	-0.322689
603.490000	-0.189572
603.685000	-0.074693
603.880000	-0.138701
604.075000	-0.363331
604.270000	-0.280621
604.465000	-0.312491
604.660000	-0.569617
604.856000	-0.376683
605.051000	-0.113801
605.246000	-0.229342
605.441000	-0.505951
605.636000	-0.428927
605.831000	-0.307308
606.026000	-0.526134
606.221000	-0.513957
606.416000	-0.320907
606.611000	-0.107938
606.806000	-0.153042
607.001000	0.208844
607.196000	-0.108079
607.391000	-0.529482
607.587000	-0.075979
607.782000	-0.141105
607.977000	-0.491079
608.172000	-0.037092
608.367000	0.060518
608.562000	-0.115410
608.757000	-0.369584
608.952000	-0.448846
609.147000	-0.030669
609.342000	-0.109141
609.537000	-0.436712
609.732000	-0.325921
609.927000	-0.371089
610.122000	-0.338944
610.318000	-0.260527
610.513000	-0.175307
610.708000	-0.379259
610.903000	-0.300720
611.098000	-0.169475
611.293000	-0.347618
611.488000	-0.248709
611.683000	-0.308623
611.878000	-0.328549
612.073000	-0.222842
612.268000	-0.289282
612.463000	-0.270026
612.658000	-0.137337
612.854000	-0.097734
613.049000	-0.184248
613.244000	-0.097834
613.439000	-0.171110
613.634000	-0.398470
613.829000	-0.298438
614.024000	-0.446376
614.219000	-0.265646
614.414000	0.022096
614.609000	-0.279627
614.804000	-0.447388
614.999000	-0.460382
615.194000	-0.394391
615.389000	-0.314135
615.585000	-0.361885
615.780000	-0.294741
615.975000	-0.410217
616.170000	-0.295542
616.365000	0.029110
616.560000	-0.031849
616.755000	-0.086322
616.950000	-0.167958
617.145000	-0.120469
617.340000	-0.236400
617.535000	-0.406710
617.730000	-0.209431
617.925000	-0.462589
618.120000	-0.558426
618.316000	0.022605
618.511000	-0.135070
618.706000	-0.383246
618.901000	-0.334910
619.096000	-0.211928
619.291000	-0.349686
619.486000	-0.371551
619.681000	-0.607273
619.876000	-0.586248
620.071000	-0.385864
620.266000	-0.199304
620.461000	-0.164877
620.656000	-0.213973
620.852000	-0.171937
621.047000	-0.263071
621.242000	-0.445086
621.437000	-0.081945
621.632000	0.044219
621.827000	-0.110296
622.022000	-0.468940
622.217000	-0.167075
622.412000	0.009174
622.607000	-0.026137
622.802000	-0.273521
622.997000	-0.373768
623.192000	-0.189350
623.387000	-0.139738
623.583000	-0.459843
623.778000	0.030646
623.973000	-0.083441
624.168000	-0.262352
624.363000	-0.240536
624.558000	-0.112251
624.753000	-0.492765
624.948000	-0.357153
625.143000	-0.098522
625.338000	-0.041060
625.533000	-0.156364
625.728000	-0.235881
625.923000	-0.041143
626.119000	-0.200406
626.314000	-0.504757
626.509000	-0.469987
626.704000	-0.420245
626.899000	-0.289396
627.094000	-0.406593
627.289000	-0.444110
627.484000	-0.371819
627.679000	-0.430873
627.874000	-0.424080
628.069000	0.031650
628.264000	-0.086040
628.459000	-0.137839
628.654000	-0.285520
628.850000	-0.553052
629.045000	-0.309075
629.240000	-0.279707
629.435000	-0.473223
629.630000	-0.288042
629.825000	-0.273148
630.020000	-0.281697
630.215000	-0.595199
630.410000	-0.635045
630.605000	-0.553023
630.800000	-0.440401
630.995000	-0.155651
631.190000	0.100223
631.385000	0.024882
631.581000	-0.058158
631.776000	-0.148889
631.971000	-0.323762
632.166000	-0.187426
632.361000	-0.385078
632.556000	-0.385616
632.751000	-0.234254
632.946000	-0.272495
633.141000	-0.380510
633.336000	-0.342766
633.531000	-0.151528
633.726000	-0.212800
633.921000	-0.352034
634.117000	-0.599862
634.312000	-0.747297
634.507000	-0.577906
634.702000	-0.470438
634.897000	-0.432302
635.092000	-0.316717
635.287000	-0.371940
635.482000	-0.333825
635.677000	-0.263549
635.872000	-0.208829
636.067000	-0.044684
636.262000	-0.147168
636.457000	-0.475768
636.652000	-0.460779
636.848000	-0.493255
637.043000	-0.321510
637.238000	-0.361953
637.433000	-0.473194
637.628000	-0.568286
637.823000	-0.259558
638.018000	-0.029425
638.213000	-0.340344
638.408000	-0.372573
638.603000	-0.445013
638.798000	-0.373650
638.993000	-0.246105
639.188000	-0.390536
639.383000	-0.294554
639.579000	0.042493
639.774000	-0.254866
639.969000	-0.504315
640.164000	-0.569962
640.359000	-0.594788
640.554000	-0.256162
640.749000	-0.183940
640.944000	-0.192460
641.139000	-0.167755
641.334000	-0.460329
641.529000	-0.827315
641.724000	-0.396655
641.919000	-0.470950
642.115000	-0.152997
642.310000	-0.152779
642.505000	-0.275231
642.700000	-0.120274
642.895000	-0.292983
643.090000	-0.333912
643.285000	-0.104207
643.480000	-0.030429
643.675000	-0.022224
643.870000	0.233387
644.065000	0.118160
644.260000	-0.253606
644.455000	-0.113384
644.650000	-0.362566
644.846000	-0.254715
645.041000	-0.536583
645.236000	-0.720788
645.431000	-0.630242
645.626000	-0.946042
645.821000	-0.629618
646.016000	-0.372869
646.211000	0.010865
646.406000	-0.064473
646.601000	-0.122963
646.796000	-0.265109
646.991000	-0.616454
647.186000	-0.492075
647.381000	-0.207191
647.577000	-0.182200
647.772000	-0.047862
647.967000	-0.014302
648.162000	-0.207973
648.357000	-0.368447
648.552000	-0.098607
648.747000	-0.191425
648.942000	-0.107166
649.137000	-0.166741
649.332000	-0.302560
649.527000	-0.268547
649.722000	-0.251517
649.917000	-0.031426
650.113000	-0.489482
650.308000	-0.626101
650.503000	-0.396516
650.698000	-0.210326
650.893000	-0.218997
651.088000	-0.236195
651.283000	-0.031618
651.478000	-0.407623
651.673000	-0.185251
651.868000	-0.254054
652.063000	-0.083139
652.258000	0.028306
652.453000	0.276320
652.648000	-0.160195
652.844000	-0.194602
653.039000	-0.126232
653.234000	-0.667440
653.429000	-0.797711
653.624000	-0.556350
653.819000	-0.161153
654.014000	-0.083609
654.209000	-0.429514
654.404000	-0.334103
654.599000	-0.516713
654.794000	-0.429420
654.989000	-0.110056
655.184000	-0.318408
655.380000	-0.647571
655.575000	-0.673654
655.770000	-0.501086
655.965000	-0.353540
656.160000	-0.371109
656.355000	-0.153801
656.550000	-0.110693
656.745000	-0.128212
656.940000	-0.233066
657.135000	-0.267917
657.330000	-0.372792
657.525000	-0.512846
657.720000	-0.242431
657.915000	-0.154768
658.111000	-0.224805
658.306000	0.168957
658.501000	0.028955
658.696000	-0.418369
658.891000	-0.181640
659.086000	-0.497336
659.281000	-0.410291
659.476000	-0.586837
659.671000	-0.850702
659.866000	-0.490227
660.061000	-0.173500
660.256000	-0.208824
660.451000	-0.103182
660.646000	-0.332914
660.842000	-0.465910
661.037000	-0.634124
661.232000	-0.519895
661.427000	-0.333636
661.622000	-0.529305
661.817000	-0.440525
662.012000	-0.139509
662.207000	-0.504178
662.402000	-0.567848
662.597000	-0.166814
662.792000	-0.745961
662.987000	-0.727540
663.182000	-0.175800
663.378000	-0.229526
663.573000	-0.641924
663.768000	-0.649527
663.963000	-0.614461
664.158000	-0.613899
664.353000	0.128307
664.548000	0.101354
664.743000	-0.491179
664.938000	-0.616829
665.133000	-0.446935
665.328000	-0.249466
665.523000	-0.168742
665.718000	-0.204861
665.913000	-0.123824
666.109000	-0.223744
666.304000	-0.232727
666.499000	-0.332128
666.694000	0.020874
666.889000	0.329406
667.084000	-0.252209
667.279000	-0.406751
667.474000	-0.488922
667.669000	-0.288549
667.864000	-0.152191
668.059000	-0.280204
668.254000	-0.216588
668.449000	-0.335771
668.644000	-0.180401
668.840000	0.030180
669.035000	-0.308641
669.230000	-0.824307
669.425000	-0.438640
669.620000	-0.622510
669.815000	-0.670906
670.010000	-0.439789
670.205000	-0.089507
670.400000	-0.144615
670.595000	-0.191250
670.790000	-0.404293
670.985000	-0.395456
671.180000	-0.247549
671.376000	-0.600404
671.571000	-0.704038
671.766000	-0.472621
671.961000	-0.510103
672.156000	-0.548086
672.351000	-0.426804
672.546000	-0.652317
672.741000	-0.426769
672.936000	-0.333820
673.131000	0.377856
673.326000	0.096843
673.521000	-0.495924
673.716000	-0.712346
673.911000	-0.901191
674.107000	-0.261337
674.302000	-0.034932
674.497000	-0.138942
674.692000	-0.328213
674.887000	-0.481186
675.082000	-0.624491
675.277000	-0.301737
675.472000	-0.406974
675.667000	-0.550782
675.862000	-0.579714
676.057000	-0.494090
676.252000	-0.428096
676.447000	-0.457946
676.643000	-0.073864
676.838000	0.233544
677.033000	-0.256973
677.228000	-0.199725
677.423000	-0.180537
677.618000	-0.393997
677.813000	-0.519540
678.008000	-0.307679
678.203000	-0.278856
678.398000	-0.503245
678.593000	-0.269722
678.788000	-0.231522
678.983000	-0.543460
679.178000	-0.436353
679.374000	-0.358780
679.569000	-0.183206
679.764000	-0.498185
679.959000	-0.735772
680.154000	-0.726069
680.349000	-0.797785
680.544000	-0.737481
680.739000	-0.639092
680.934000	-0.679287
681.129000	-0.750597
681.324000	-0.672101
681.519000	-0.405330
681.714000	-0.495134
681.909000	-0.663687
682.105000	-0.775318
682.300000	-0.257439
682.495000	-0.207247
682.690000	-0.247858
682.885000	-0.278184
683.080000	-0.631429
683.275000	-0.551140
683.470000	0.043378
683.665000	0.154685
683.860000	0.539798
684.055000	0.195573
684.250000	-0.493975
684.445000	-0.483062
684.641000	0.013205
684.836000	-0.230960
685.031000	-0.313484
685.226000	-0.446832
685.421000	-0.027685
685.616000	-0.201999
685.811000	-0.490278
686.006000	-0.151078
686.201000	-0.182153
686.396000	-0.606405
686.591000	-0.576568
686.786000	-0.162774
686.981000	-0.245739
687.176000	-0.111215
687.372000	-0.257019
687.567000	-0.080160
687.762000	0.024010
687.957000	-0.184763
688.152000	-0.321148
688.347000	-0.227410
688.542000	-0.700734
688.737000	-1.141471
688.932000	-1.153929
689.127000	-0.512987
689.322000	-0.123595
689.517000	-0.482655
689.712000	-0.706936
689.908000	-0.516681
690.103000	-0.528314
690.298000	-0.368924
690.493000	-0.444508
690.688000	-0.669186
690.883000	-0.500136
691.078000	-0.018212
691.273000	0.206787
691.468000	-0.222218
691.663000	-0.427808
691.858000	-0.190769
692.053000	-0.179983
692.248000	-0.266475
692.443000	-0.298827
692.639000	-0.094051
692.834000	0.187485
693.029000	0.458587
693.224000	0.188445
693.419000	-0.552776
693.614000	-0.564746
693.809000	-0.619817
694.004000	-0.719555
694.199000	-0.533230
694.394000	-0.282352
694.589000	-0.678582
694.784000	-0.492114
694.979000	-0.349005
695.174000	-0.460264
695.370000	0.245720
695.565000	0.014359
695.760000	-0.450587
695.955000	-0.029964
696.150000	-0.018872
696.345000	-0.420139
696.540000	-0.253418
696.740000	-0.543296
696.940000	-0.409736
697.140000	-0.254739
697.340000	-0.423803
697.539000	-0.064110
697.739000	-0.536716
697.939000	-0.604646
698.139000	-0.560189
698.339000	-0.969585
698.539000	-0.889879
698.739000	-0.744881
698.939000	-0.497619
699.138000	-0.760780
699.338000	-0.064792
699.538000	0.106117
699.738000	-0.534428
699.938000	-0.718133
700.138000	-0.765241
700.338000	-0.525825
700.538000	-0.388717
700.737000	-0.526959
700.937000	-0.881793
701.137000	-0.744976
701.337000	-0.100695
701.537000	-0.089316
701.737000	-0.401999
701.937000	-0.286797
702.137000	-0.379706
702.337000	-0.682756
702.536000	-0.579254
702.736000	-0.509937
702.936000	-0.931396
703.136000	-0.535641
703.336000	-0.289438
703.536000	-0.372497
703.736000	-0.868375
703.936000	-0.760753
704.135000	-0.736867
704.335000	-0.385375
704.535000	-0.740948
704.735000	-0.978296
704.935000	-0.397807
705.135000	-0.542085
705.335000	-0.781927
705.535000	-0.210795
705.735000	-0.210758
705.934000	-0.258255
706.134000	-0.532160
706.334000	-0.664690
706.534000	-0.856854
706.734000	-0.654214
706.934000	-0.666137
707.134000	-0.785935
707.334000	-0.691704
707.533000	-0.512830
707.733000	-0.608470
707.933000	-0.741226
708.133000	-0.236377
708.333000	-0.201423
708.533000	-0.443467
708.733000	-0.080947
708.933000	-0.250313
709.132000	-0.384075
709.332000	-0.433270
709.532000	-0.555859
709.732000	-0.227120
709.932000	-0.763344
710.132000	-1.067038
710.332000	-1.212485
710.532000	-0.580633
710.732000	-0.313693
710.931000	-0.521581
711.131000	-0.450043
711.331000	-0.266306
711.531000	-0.340517
711.731000	-0.292078
711.931000	-0.341940
712.131000	-0.366189
712.331000	-0.415641
712.530000	-0.636870
712.730000	-0.687951
712.930000	-0.724761
713.130000	-0.541449
713.330000	-0.467686
713.530000	-0.519211
713.730000	0.090935
713.930000	-0.158151
714.129000	-0.556061
714.329000	-0.919760
714.529000	-0.495071
714.729000	-0.008747
714.929000	-0.308660
715.129000	-0.584547
715.329000	-0.509917
715.529000	-0.436526
715.729000	0.041436
715.928000	-0.008812
716.128000	-0.134774
716.328000	-0.109908
716.528000	-0.375631
716.728000	-0.438974
716.928000	-0.755312
717.128000	-0.376598
717.328000	-0.338502
717.527000	-0.503927
717.727000	-0.707711
717.927000	-0.608014
718.127000	-0.404299
718.327000	-0.813896
718.527000	-0.800718
718.727000	-0.264596
718.927000	-0.623632
719.127000	-0.998996
719.326000	-0.610795
719.526000	-0.034637
719.726000	-0.368950
719.926000	-0.847754
720.126000	-0.886608
720.326000	-0.383236
720.526000	-0.525273
720.726000	-0.565695
720.925000	-0.190412
721.125000	-0.659161
721.325000	-0.710304
721.525000	-0.607889
721.725000	-0.673048
721.925000	-0.583559
722.125000	-0.622775
722.325000	-0.178849
722.524000	-0.284147
722.724000	-0.861367
722.924000	-1.018631
723.124000	-0.849258
723.324000	-0.350827
723.524000	-0.206479
723.724000	-0.838508
723.924000	-0.933989
724.124000	-0.418920
724.323000	-0.101889
724.523000	-0.181124
724.723000	0.215962
724.923000	-0.221327
725.123000	-0.287896
725.323000	-0.075757
725.523000	-0.488702
725.723000	-0.794140
725.922000	-0.595278
726.122000	-0.395965
726.322000	-0.503978
726.522000	-0.584758
726.722000	0.110936
726.922000	-0.169630
727.122000	-0.170220
727.322000	-0.022814
727.521000	-0.278481
727.721000	-0.467514
727.921000	-0.588799
728.121000	-0.642533
728.321000	-0.967598
728.521000	-0.821249
728.721000	-0.592250
728.921000	-0.144962
729.121000	0.397607
729.320000	0.004076
729.520000	-0.525796
729.720000	-0.975756
729.920000	-0.542845
730.120000	-0.596023
730.320000	-0.556466
730.520000	-0.597729
730.720000	-0.338911
730.919000	-0.434877
731.119000	-0.284493
731.319000	-0.987029
731.519000	-1.055715
731.719000	-0.670826
731.919000	-0.712530
732.119000	-1.376345
732.319000	-1.394514
732.519000	-0.522356
732.718000	-0.772769
732.918000	-0.898405
733.118000	-0.566558
733.318000	-0.330861
733.518000	-0.470503
733.718000	-1.086318
733.918000	-1.017007
734.118000	-0.750952
734.317000	-0.613599
734.517000	-0.907205
734.717000	-0.742505
734.917000	0.046600
735.117000	-0.080576
735.317000	-0.518666
735.517000	-0.009920
735.717000	0.203245
735.916000	-0.663845
736.116000	-1.004134
736.316000	-0.581618
736.516000	-0.224289
736.716000	-0.538852
736.916000	-1.244270
737.116000	-0.933060
737.316000	0.105258
737.516000	0.018782
737.715000	-0.284797
737.915000	-0.689898
738.115000	-0.822671
738.315000	-0.663561
738.515000	-0.968292
738.715000	-0.754943
738.915000	-0.390406
739.115000	-0.771851
739.314000	-0.815054
739.514000	-0.039651
739.714000	0.107475
739.914000	-0.084164
740.114000	-0.365394
740.314000	-0.173210
740.514000	0.404775
740.714000	-0.605500
740.913000	-1.306628
741.113000	-0.935619
741.313000	-0.443189
741.513000	-0.788613
741.713000	-0.535657
741.913000	-0.251758
742.113000	-0.612632
742.313000	-1.473756
742.513000	-0.991976
742.712000	-0.646797
742.912000	-0.904542
743.112000	-0.983613
743.312000	-1.061388
743.512000	-0.712750
743.712000	-0.408811
743.912000	-1.053584
744.112000	-1.529979
744.311000	-1.334079
744.511000	-0.781548
744.711000	-0.567146
744.911000	-0.800093
745.111000	-0.754602
745.311000	-0.243738
745.511000	-0.461721
745.711000	-0.742251
745.911000	-0.260203
746.110000	-0.961808
746.310000	-1.328134
746.510000	-0.996688
746.710000	-0.529709
746.910000	-0.168336
747.110000	-0.657095
747.310000	-1.021305
747.510000	-0.771669
747.709000	-0.486847
747.909000	-0.631185
748.109000	-0.457839
748.309000	-0.618627
748.509000	-1.019854
748.709000	-1.184329
748.909000	-0.734154
749.109000	-0.721224
749.308000	-0.511990
749.508000	-0.757026
749.708000	-0.741065
749.908000	-0.384401
750.108000	-0.320473
750.308000	-1.121489
750.508000	-0.436978
750.708000	-1.108363
750.908000	-1.570156
751.107000	-0.587538
751.307000	-0.093698
751.507000	-0.358219
751.707000	-0.044514
751.907000	-0.292534
752.107000	-0.592023
752.307000	-1.159742
752.507000	-0.912540
752.706000	-0.678521
752.906000	0.255613
753.106000	-0.732615
753.306000	-1.424324
753.506000	-0.399628
753.706000	-0.772129
753.906000	-0.417386
754.106000	0.055838
754.305000	-0.045745
754.505000	-0.470538
754.705000	-0.524348
754.905000	-0.781700
755.105000	-0.560163
755.305000	-1.264269
755.505000	-0.889430
755.705000	0.039618
755.905000	-0.305802
756.104000	-1.153369
756.304000	-1.347189
756.504000	-1.732196
756.704000	-0.798120
756.904000	-0.378760
757.104000	-0.691962
757.304000	-0.483266
757.504000	-0.082500
757.703000	-0.714279
757.903000	-0.575263
758.103000	-0.241506
758.303000	-0.418963
758.503000	-0.561864
758.703000	-0.794131
758.903000	-1.309923
759.103000	-0.885797
759.303000	-0.800507
759.502000	-0.820999
759.702000	-0.407649
759.902000	-0.662428
760.102000	-0.718293
760.302000	-0.738866
760.502000	-0.555663
760.702000	-0.665215
760.902000	-0.993581
761.101000	-1.087520
761.301000	-1.344903
761.501000	-0.761201
761.701000	-0.762731
761.901000	-0.619613
762.101000	-0.344557
762.301000	-0.805204
762.501000	-1.211565
762.700000	-1.383877
762.900000	-1.143450
763.100000	-0.551040
763.300000	-0.422886
763.500000	-0.870851
763.703000	-0.644916
763.905000	-1.095114
764.108000	-0.181608
764.311000	-0.237808
764.513000	-0.650542
764.716000	-0.314353
764.919000	-0.710598
765.121000	-1.483971
765.324000	-1.639734
765.527000	-1.268210
765.729000	-0.830870
765.932000	0.119978
766.135000	-0.241789
766.337000	-0.870510
766.540000	-0.968924
766.743000	-0.629573
766.945000	-1.031838
767.148000	-1.419341
767.351000	-1.534676
767.553000	-0.632017
767.756000	-0.652037
767.958000	-1.000204
768.161000	-1.291519
768.364000	-1.548923
768.566000	-1.513359
768.769000	-0.736731
768.972000	-0.736628
769.174000	-1.268039
769.377000	-1.861314
769.580000	-1.806191
769.782000	-0.800960
769.985000	-1.751157
770.188000	-2.487528
770.390000	-1.326483
770.593000	0.244309
770.796000	0.085472
770.998000	-0.411701
771.201000	-1.049248
771.404000	-0.731722
771.606000	-1.074917
771.809000	-1.034545
772.012000	-0.755851
772.214000	-1.719560
772.417000	-1.759880
772.620000	-0.234059
772.822000	-0.820513
773.025000	-1.082790
773.228000	-0.963604
773.430000	-1.025915
773.633000	-0.926494
773.836000	-0.582641
774.038000	-0.442198
774.241000	-0.645802
774.444000	-1.260832
774.646000	-0.177640
774.849000	-0.485008
775.052000	-0.607692
775.254000	0.272672
775.457000	-0.608344
775.659000	-0.897249
775.862000	-1.143905
776.065000	-1.248642
776.267000	-0.385333
776.470000	0.006209
776.673000	-0.760147
776.875000	-0.014541
777.078000	-0.367102
777.281000	-1.367806
777.483000	-0.682948
777.686000	-0.182042
777.889000	-0.098450
778.091000	-0.287960
778.294000	-1.714807
778.497000	-1.212626
778.699000	-0.877069
778.902000	-1.006693
779.105000	-1.027868
779.307000	0.429066
779.510000	-0.523233
779.713000	-0.461470
779.915000	-0.825709
780.118000	0.518977
780.321000	0.540997
780.523000	-0.722291
780.726000	-0.872685
780.929000	-1.343922
781.131000	-1.152795
781.334000	-1.932770
781.537000	-2.089429
781.739000	-0.620697
781.942000	-1.465336
782.145000	-1.995070
782.347000	-1.800397
782.550000	-1.387653
782.753000	-1.457781
782.955000	-1.308337
783.158000	-1.198054
783.361000	-1.288837
783.563000	-1.311009
783.766000	-1.006171
783.968000	0.976846
784.171000	0.959176
784.374000	-0.635816
784.576000	-1.145015
784.779000	-0.877863
784.982000	-0.171247
785.184000	-0.865351
785.387000	-0.709910
785.590000	0.320072
785.792000	0.478559
785.995000	-0.398284
786.198000	-0.917321
786.400000	-0.649588
786.603000	-0.537781
786.806000	-1.079027
787.008000	-0.897969
787.211000	-0.833108
787.414000	-1.519304
787.616000	-1.273540
787.819000	-1.093195
788.022000	-1.622500
788.224000	-1.051382
788.427000	-1.719534
788.630000	-0.732269
788.832000	-0.685326
789.035000	-1.144999
789.238000	-1.728720
789.440000	-1.552587
789.643000	-0.202092
789.846000	-0.435619
790.048000	-0.039698
790.251000	0.497508
790.454000	-0.016317
790.656000	-0.039774
790.859000	-1.165495
791.062000	-1.402466
791.264000	-0.884915
791.467000	-1.949391
791.669000	-2.046664
791.872000	-0.728333
792.075000	-0.893370
792.277000	-0.869814
792.480000	-0.874542
792.683000	-1.014739
792.885000	-1.158446
793.088000	-1.425315
793.291000	-2.242647
793.493000	-1.935022
793.696000	-0.952298
793.899000	-0.690335
794.101000	-0.884811
794.304000	-1.225104
794.507000	-0.452533
794.709000	-0.356722
794.912000	-1.162183
795.115000	-2.018814
795.317000	-1.432549
795.520000	-0.948587
795.723000	-0.780140
795.925000	-1.693186
796.128000	-2.158687
796.331000	-1.202664
796.533000	-2.121427
796.736000	-1.485245
796.939000	-0.915225
797.141000	-1.092666
797.344000	-0.468018
797.547000	-0.242874
797.749000	-0.167999
797.952000	-1.378537
798.155000	-2.381395
798.357000	-1.813878
798.560000	-1.238975
798.763000	-1.059796
798.965000	-1.465044
799.168000	-1.036416
799.371000	-0.502242
799.573000	-1.092247
799.776000	-2.041744
799.978000	-2.023126
800.181000	-1.563391
800.384000	0.239901
800.586000	-0.199095
800.789000	-1.517120
800.992000	-1.903510
801.194000	-2.192447
801.397000	-1.860741
801.600000	-1.372337
801.802000	-0.279049
802.005000	-0.593887
802.208000	-2.064865
802.410000	-1.302869
802.613000	-0.782012
802.816000	-0.888369
803.018000	-1.234340
803.221000	-0.733513
803.424000	0.114103
803.626000	-0.310949
803.829000	-1.165111
804.032000	-0.232569
804.234000	0.996798
804.437000	-0.152982
804.640000	-1.064615
804.842000	-1.228318
805.045000	-1.180405
805.248000	-1.047303
805.450000	-1.073317
805.653000	-0.916879
805.856000	-1.051765
806.058000	-0.128126
806.261000	-1.166782
806.464000	-1.003835
806.666000	-0.210947
806.869000	-1.067010
807.072000	-2.638292
807.274000	-2.833130
807.477000	-1.900364
807.679000	-1.237510
807.882000	-1.462342
808.085000	-1.136975
808.287000	-0.355132
808.490000	-1.028216
808.693000	-1.169123
808.895000	-0.552941
809.098000	-0.581290
809.301000	-0.780463
809.503000	-1.745973
809.706000	-0.475152
809.909000	0.008534
810.111000	-0.903052
810.314000	-0.876560
810.517000	-1.101387
810.719000	-1.908953
810.922000	-1.370955
811.125000	-0.249511
811.327000	-0.049034
811.530000	-0.541510
811.735000	-1.234629
811.940000	-1.730030
812.146000	-1.038893
812.351000	-0.194990
812.556000	-0.750347
812.761000	-1.631399
812.967000	-0.755976
813.172000	-0.343798
813.377000	-0.669092
813.582000	-0.257524
813.788000	-0.855400
813.993000	-2.577600
814.198000	-1.836144
814.403000	-1.775639
814.609000	-0.410039
814.814000	-0.652406
815.019000	0.039013
815.224000	-0.140974
815.429000	-1.410045
815.635000	-1.323608
815.840000	-1.112795
816.045000	-0.843730
816.250000	-0.112882
816.456000	-1.916165
816.661000	-3.245099
816.866000	-2.175334
817.071000	-1.435985
817.277000	-2.311774
817.482000	-1.881756
817.687000	-1.013085
817.892000	-0.987664
818.097000	-0.615687
818.303000	-0.115635
818.508000	0.040549
818.713000	1.668246
818.918000	0.416578
819.124000	0.103627
819.329000	-1.315032
819.534000	-1.635246
819.739000	-1.983336
819.945000	-1.897348
820.150000	-1.556549
820.355000	-1.239334
820.560000	-0.948556
820.766000	-0.918967
820.971000	-0.956472
821.176000	-2.443797
821.381000	-3.466812
821.586000	-2.548500
821.792000	-0.217721
821.997000	-0.705815
822.202000	-1.846040
822.407000	-1.982266
822.613000	-1.659175
822.818000	-0.613562
823.023000	-0.351504
823.228000	-0.915844
823.434000	-0.683860
823.639000	-0.254929
823.844000	-0.521159
824.049000	-0.455106
824.255000	-0.889828
824.460000	-1.597113
824.665000	-1.867568
824.870000	-0.057193
825.075000	-0.158320
825.281000	-0.800745
825.486000	0.044183
825.691000	-2.066135
825.896000	-3.877748
826.102000	-1.730202
826.307000	-1.050228
826.512000	-1.225842
826.717000	-1.780714
826.923000	-1.474925
827.128000	-1.131985
827.333000	-1.940646
827.538000	-1.178541
827.744000	-0.199822
827.949000	-0.864255
828.154000	-1.289338
828.359000	-0.094808
828.564000	-0.942253
828.770000	-1.442258
828.975000	-0.415545
829.180000	-0.631832
829.385000	-2.273015
829.591000	-1.816743
829.796000	-1.321649
830.001000	-1.576741
830.206000	-1.436939
830.412000	-1.363157
830.617000	-1.330205
830.822000	-0.280482
831.027000	-0.570618
831.232000	-1.268826
831.438000	-1.240964
831.643000	-0.762189
831.848000	-1.797565
832.053000	-1.248648
832.259000	-0.990510
832.464000	-3.448617
832.669000	-3.461080
832.874000	-2.970871
833.080000	-2.010553
833.285000	-0.138755
833.490000	-0.701771
833.695000	-2.481819
833.901000	-1.924205
834.106000	-2.079183
834.311000	-1.287693
834.516000	-0.945246
834.721000	-1.720277
834.927000	-0.761287
835.132000	-1.072537
835.337000	0.748404
835.542000	-0.456394
835.748000	-2.402126
835.953000	-0.261749
836.158000	-0.810670
836.363000	-1.757605
836.569000	-1.057982
836.774000	-2.131592
836.979000	-2.134184
837.184000	-2.219043
837.390000	-2.622212
837.595000	-1.988935
837.800000	-0.308852
838.005000	-0.633595
838.210000	-2.006582
838.416000	-2.541250
838.621000	-1.206989
838.826000	-1.165636
839.031000	-1.089975
839.237000	-2.167452
839.442000	-3.324347
839.647000	-3.895236
839.852000	-3.540246
840.058000	-1.563005
840.263000	-1.737334
840.468000	-3.073629
840.673000	-1.322169
840.878000	-1.490409
841.084000	-2.465221
841.289000	-1.881987
841.494000	1.199811
841.699000	1.076172
841.905000	0.183388
842.110000	0.355894
842.315000	-1.276211
842.520000	-1.446637
842.726000	-2.353715
842.931000	-2.093838
843.136000	-1.459399
843.341000	-2.648254
843.547000	-1.249576
843.752000	-1.033062
843.957000	-2.228066
844.162000	-2.282795
844.367000	-1.402753
844.573000	-1.008820
844.778000	-1.360747
844.983000	-0.608729
845.188000	-0.790493
845.394000	-2.555129
845.599000	-2.234184
845.804000	-1.294563
846.009000	-0.713071
846.215000	-1.492068
846.420000	-1.724855
846.625000	-0.996055
846.830000	-0.123487
847.036000	-1.778562
847.241000	-1.924562
847.446000	0.521461
847.651000	-0.959263
847.856000	-2.511062
848.062000	-2.471611
848.267000	-0.548888
848.472000	-1.209859
848.677000	-3.384791
848.883000	-1.493336
849.088000	-0.176066
849.293000	-1.418861
849.498000	-0.653657
849.704000	-0.081338
849.909000	-1.952374
850.114000	-3.199691
850.319000	-2.437590
850.524000	-1.484133
850.730000	-0.811910
850.935000	-1.791423
851.140000	-0.083200
851.345000	-0.425729
851.551000	-0.279765
851.756000	-0.231925
851.961000	-1.518943
852.166000	-2.014758
852.372000	-0.977731
852.577000	-1.084863
852.782000	-1.999801
852.987000	-1.240667
853.193000	-1.648423
853.398000	-1.749767
853.603000	-1.905290
853.808000	-2.513066
854.013000	-2.427280
854.219000	-0.443516
854.424000	2.267124
854.629000	1.964391
854.834000	-1.223678
855.040000	-1.751145
855.245000	-0.450565
855.450000	-3.082293
855.655000	-5.431429
855.861000	-4.996079
856.066000	-3.247245
856.271000	-4.201331
856.476000	-1.729694
856.682000	-2.214248
856.887000	-5.130201
857.092000	-3.652357
857.297000	-0.731276
857.502000	-0.625750
857.708000	-1.698711
857.913000	-0.789097
858.118000	-1.663169
858.323000	-1.124716
858.529000	-1.339976
858.734000	-1.234827
858.939000	-1.129351
859.144000	-2.611224
859.350000	-4.199353
859.555000	-3.992797
859.760000	-1.971391
859.965000	-0.756308
860.171000	-2.478332
860.376000	-1.764901
860.581000	-2.941931
860.786000	-5.532982
860.991000	-4.937777
861.197000	-2.684017
861.402000	-1.393822
861.607000	-1.564111
861.812000	-2.591606
862.018000	-4.366273
862.223000	-2.948650
862.428000	-2.105481
862.633000	-0.327158
862.839000	0.017327
863.044000	-0.856111
863.249000	-2.305809
863.454000	-0.273251
863.659000	-2.315105
863.865000	-3.850343
864.070000	-4.624306
864.275000	-3.454903
864.480000	-1.460418
864.686000	-3.898946
864.891000	-3.605223
865.096000	-1.235102
865.301000	-1.058077
865.507000	-0.883911
865.712000	-0.883852
865.917000	-2.341836
866.122000	-1.802109
866.328000	-4.253175
866.533000	-4.250207
866.738000	-0.348021
866.943000	-0.287570
867.148000	-0.227657
867.354000	-2.461874
867.559000	-4.385512
867.764000	-3.222618
867.969000	-1.422136
868.175000	-2.728528
868.380000	-3.364665
868.585000	-5.000244
868.790000	-2.688173
868.996000	-3.339650
869.201000	-4.619138
869.406000	-4.894305
869.611000	-4.070514
869.817000	-4.065990
870.022000	1.172517
870.227000	-0.751483
870.432000	-3.337002
870.637000	-1.789955
870.843000	-1.800355
871.048000	-1.736199
871.253000	0.279774
871.458000	-1.876809
871.664000	-4.586940
871.869000	-4.614042
872.074000	-3.565573
872.279000	-3.630221
872.485000	-3.586821
872.690000	-3.266956
872.895000	-2.876296
873.100000	-2.137854
873.306000	-3.095120
873.511000	-1.684510
873.716000	0.225549
873.921000	-1.479286
874.126000	-2.642374
874.332000	-2.668409
874.537000	-1.295764
874.742000	-1.498788
874.947000	-1.227699
875.153000	1.911334
875.358000	-0.049123
875.563000	-2.222529
875.768000	-6.174567
875.974000	-5.775771
876.179000	-1.182907
876.384000	-1.259832
876.589000	-3.354082
876.794000	-2.710767
877.000000	-3.576558
877.205000	-6.662510
877.410000	-3.878515
877.615000	-4.520888
877.821000	-5.288412
878.026000	-3.253209
878.231000	-3.834569
878.436000	-4.496966
878.642000	-3.060289
878.847000	-2.258034
879.052000	-0.932773
879.257000	-2.644845
879.463000	-3.687122
879.668000	-3.836662
879.873000	-1.095230
880.078000	-3.562616
880.283000	-5.375980
880.489000	-4.851023
880.694000	-4.194374
880.899000	-2.936208
881.104000	-1.881623
881.310000	0.403739
881.515000	0.098917
881.720000	1.929698
881.925000	3.474635
882.131000	3.551561
882.336000	-0.904384
882.541000	-2.703325
882.746000	-3.734429
882.952000	-5.137667
883.157000	-4.836758
883.362000	-3.509485
883.567000	-5.022148
883.772000	-6.341940
883.978000	-2.843853
884.183000	-1.892226
884.388000	-4.038466
884.593000	-5.952568
884.799000	1.064569
885.004000	0.917259
885.209000	-2.005843
885.414000	-2.241758
885.620000	-5.763131
885.825000	-2.192098
886.030000	-2.433634
886.235000	-3.190575
886.440000	-3.217143
886.646000	-6.313872
886.851000	-4.333803
887.056000	-1.320284
887.261000	-1.742152
887.467000	-4.960411
887.672000	-2.611965
887.877000	-4.934171
888.082000	-5.645103
888.288000	-5.367678
888.493000	-8.665214
888.698000	-6.554064
888.903000	-3.272427
889.109000	-4.391736
889.314000	-0.320684
889.519000	-3.514109
889.724000	-1.098117
889.929000	-1.705368
890.135000	-2.143954
890.340000	-1.285479
890.545000	-4.256754
890.750000	-7.244576
890.956000	-4.544033
891.161000	-1.026854
891.366000	-4.110226
891.571000	-3.678773
891.777000	-2.622578
891.982000	0.736489
892.187000	0.115848
892.392000	-0.773447
892.598000	-1.493138
892.803000	-2.408336
893.008000	-4.658711
893.213000	-4.916023
893.418000	-4.226626
893.624000	-4.520711
893.829000	-6.524653
894.034000	-3.711569
894.239000	-1.713704
894.445000	-5.184064
894.650000	-5.302084
894.855000	-5.768722
895.060000	-5.299836
895.266000	-3.947124
895.471000	-4.781891
895.676000	-0.436235
895.881000	-1.376140
896.087000	-4.279029
896.292000	-4.212623
896.497000	-0.160998
896.702000	-1.480907
896.907000	-4.884143
897.113000	0.502545
897.318000	0.691835
897.523000	-0.731667
897.728000	-3.309946
897.934000	-3.299279
898.139000	-3.594404
898.344000	-0.933510
898.549000	-1.422759
898.755000	-3.266318
898.960000	-3.774098
899.165000	-6.312504
899.370000	-3.791740
899.575000	0.913519
899.781000	-4.107731
899.986000	-3.221338
900.191000	-1.259092
900.396000	-3.444191
900.602000	-3.864276
900.807000	-3.489355
901.012000	-2.297529
901.217000	-0.578345
901.423000	-3.508730
901.628000	-6.665571
901.833000	-3.028211
902.038000	-2.743492
902.244000	-5.707606
902.449000	-4.607402
902.654000	-4.447643
902.859000	-2.878484
903.064000	-1.952551
903.270000	-0.178143
903.475000	-4.687705
903.680000	-9.502037
903.885000	-8.099403
904.091000	-8.247221
904.296000	-7.853750
904.501000	-5.424222
904.706000	-7.158971
904.912000	-2.896673
905.117000	-2.908810
905.322000	-6.227282
905.527000	-5.214529
905.733000	-5.108564
905.938000	-7.121898
906.143000	-5.536503
906.348000	-7.436238
906.553000	-3.559516
906.759000	-1.986247
906.964000	-4.026046
907.169000	-5.976688
907.374000	-8.905397
907.580000	-6.563886
907.785000	-4.015456
907.990000	28.270420
908.195000	17.220591
908.401000	-2.070302
908.606000	-9.373436
908.811000	-12.418916
909.016000	-3.367559
909.221000	-2.554265
909.427000	-3.634212
909.632000	-6.293309
909.837000	-6.457416
910.042000	-6.355523
910.248000	-10.386576
910.453000	-6.296051
910.658000	-5.116959
910.863000	-6.827757
911.069000	-5.991445
911.274000	-2.565373
911.479000	-1.458917
911.684000	-9.430958
911.890000	-4.479882
912.095000	-4.736689
912.300000	-8.186981
912.506000	-7.178457
912.711000	-6.755182
912.917000	-2.912325
913.123000	-3.300159
913.328000	-3.449755
913.534000	-3.351010
913.740000	6.079380
913.946000	1.755081
914.151000	-6.247225
914.357000	-7.336618
914.563000	-4.318917
914.768000	-8.213141
914.974000	-9.645293
915.180000	-9.874944
915.385000	-6.232368
915.591000	-8.489094
915.797000	-6.170266
916.002000	-1.486773
916.208000	-4.661571
916.414000	-8.348729
916.620000	-8.226440
916.825000	-4.456474
917.031000	-4.600558
917.237000	-10.974662
917.442000	-7.523937
917.648000	-8.877993
917.854000	-7.721774
918.059000	0.043435
918.265000	-1.836448
918.471000	-4.461769
918.676000	-7.153390
918.882000	-10.009868
919.088000	-10.028194
919.294000	-14.135715
919.499000	-10.926833
919.705000	-4.034868
919.911000	-4.941364
920.116000	-2.701455
920.322000	-8.843863
920.528000	-5.038850
920.733000	-9.484026
920.939000	-11.719578
921.145000	-8.562373
921.350000	-6.611139
921.556000	-7.464737
921.762000	-7.764884
921.968000	-6.667754
922.173000	-8.644067
922.379000	-13.269706
922.585000	-7.474789
922.790000	-7.651887
922.996000	-5.069434
923.202000	-8.974550
923.407000	-11.385106
923.613000	-8.032494
923.819000	-5.866415
924.024000	-5.662193
924.230000	-6.374229
924.436000	-9.307059
924.642000	4.702798
924.847000	0.574368
925.053000	-10.032237
925.259000	-16.661917
925.464000	-5.555175
925.670000	-5.375575
925.876000	-11.279762
926.081000	-9.025909
926.287000	-8.331749
926.493000	-7.026254
926.698000	-9.947730
926.904000	-5.910346
927.110000	-6.491275
927.316000	-6.153466
927.521000	-3.264879
927.727000	-9.118103
927.933000	-10.097864
928.138000	-7.120213
928.344000	-13.507763
928.550000	-8.744234
928.755000	-1.877311
928.961000	-6.122957
929.167000	-7.714930
929.372000	-1.697386
929.578000	-1.516115
929.784000	-6.485695
929.990000	-12.094589
930.195000	-9.929025
930.401000	-10.807989
930.607000	-7.202520
930.812000	-5.031961
931.018000	-10.371594
931.224000	-16.937102
931.429000	-13.265060
931.635000	-11.158442
931.841000	-9.169360
932.046000	-7.513744
932.252000	-5.861797
932.458000	2.412888
932.664000	1.792248
932.869000	-7.500727
933.075000	-11.686803
933.281000	-10.749489
933.486000	-3.958453
933.692000	-6.672091
933.898000	-11.976146
934.103000	1.880404
934.309000	-7.563985
934.515000	-6.982984
934.720000	-0.165148
934.926000	-3.021378
935.132000	-3.738096
935.338000	-4.981972
935.543000	-10.912512
935.749000	-12.986208
935.955000	-16.016576
936.160000	-13.948361
936.366000	-3.956926
936.572000	-5.576908
936.777000	-6.477835
936.983000	-3.338530
937.189000	-6.543961
937.394000	-13.613882
937.600000	-5.044606
937.806000	-1.548860
938.012000	-9.025874
938.217000	2.586111
938.423000	-0.196042
938.629000	-13.640900
938.834000	-24.458624
939.040000	-17.206291
939.246000	-10.549757
939.451000	-14.757918
939.657000	-9.318565
939.863000	-14.518312
940.068000	-9.542003
940.274000	-7.788841
940.480000	-1.443368
940.686000	-2.720570
940.891000	-11.069825
941.097000	17.748453
941.303000	5.157222
941.508000	-15.180279
941.714000	-10.143231
941.920000	-26.160430
942.125000	-15.215665
942.331000	-5.793816
942.537000	-2.191480
942.742000	-8.491528
942.948000	-15.762820
943.154000	-18.714093
943.360000	-33.362617
943.565000	-14.391782
943.771000	-4.321182
943.977000	-3.277878
944.182000	-18.115523
944.388000	-17.855350
944.594000	-5.047127
944.799000	1.491347
945.005000	-0.238712
945.211000	6.943202
945.416000	-0.243115
945.622000	-19.742267
945.828000	-13.268321
946.034000	-3.469681
946.239000	-2.409963
946.445000	-8.747406
946.651000	-24.215502
946.856000	-17.209658
947.062000	1.524940
947.268000	-2.035604
947.473000	-23.558351
947.679000	-21.897999
947.885000	-4.233970
948.090000	0.473331
948.296000	16.772739
948.502000	-5.364433
948.708000	-19.031475
948.913000	-19.257524
949.119000	-5.845885
949.325000	-19.262675
949.530000	-33.069999
949.736000	-29.240678
949.942000	-18.393539
950.147000	-23.000827
950.353000	-20.587837
950.559000	-12.094442
950.764000	7.578234
950.970000	3.119616
951.176000	-12.433153
951.382000	-25.973961
951.587000	-4.573522
951.793000	6.020294
951.999000	0.892145
952.204000	-14.374691
952.410000	-25.892323
952.616000	-10.669173
952.821000	-5.698726
953.027000	-16.582211
953.233000	-21.228780
953.438000	-22.974405
953.644000	-11.024660
953.850000	-8.642415
954.056000	-14.771094
954.261000	-14.052924
954.467000	2.557373
954.673000	11.868934
954.878000	-10.039932
955.084000	-18.191881
955.290000	-32.975480
955.495000	-24.465802
955.701000	-20.313314
955.907000	-2.788575
956.112000	-0.291374
956.318000	1.361403
956.524000	-0.709409
956.730000	-18.946669
956.935000	-19.854276
957.141000	-15.919069
957.347000	-13.154142
957.552000	-13.568415
957.758000	-27.283965
957.964000	-40.108620
958.169000	4.043349
958.375000	3.183642
958.581000	-15.645370
958.786000	-23.995163
958.992000	-41.004997
959.198000	-16.890728
959.404000	-4.776902
959.609000	-13.125074
959.815000	-17.890971
960.021000	2.409431
960.226000	-4.907388
960.432000	-29.929592
960.638000	-27.672414
960.843000	-19.385746
961.049000	-15.517809
961.255000	-10.206437
961.460000	-28.755352
961.666000	-46.171735
961.872000	-27.842146
962.078000	-25.214564
962.283000	-42.243509
962.489000	-43.036005
962.695000	-24.392342
962.900000	-24.200343
963.106000	-21.016808
963.312000	-27.771589
963.517000	-35.494153
963.723000	-33.374874
963.929000	-3.387417
964.134000	8.224899
964.340000	-33.012490
964.546000	-37.994663
964.752000	-28.825632
964.957000	-33.771885
965.163000	-11.416947
965.369000	-20.095329
965.574000	-20.841480
965.780000	-24.092809
966.000000	-32.203861
966.220000	-23.171363
966.440000	-12.383447
966.661000	5.104077
966.881000	-20.203803
967.101000	-51.936823
967.321000	-52.221198
967.541000	-24.931425
967.761000	-22.399014
967.981000	-3.777600
968.202000	-13.100711
968.422000	-5.041140
968.642000	-10.802220
968.862000	-10.438253
969.082000	-16.455475
969.302000	-15.151013
969.522000	-12.479966
969.743000	4.872861
969.963000	-22.621382
970.183000	-30.418753
970.403000	-32.472630
970.623000	-31.155697
970.843000	-3.533401
971.063000	-11.770939
971.284000	-34.640749
971.504000	-41.373571
971.724000	-13.959860
971.944000	-36.225109
972.164000	-41.736594
972.384000	-25.053748
972.604000	-52.991443
972.825000	-61.422224
973.045000	-46.305988
973.265000	3.540702
973.485000	-7.960965
973.705000	-23.058865
973.925000	-27.575239
974.145000	-78.326440
974.365000	-34.644861
974.586000	-9.803207
974.806000	-39.250146
975.026000	-22.055574
975.246000	-31.225168
975.466000	-38.273894
975.686000	-21.951392
975.906000	-36.287873
976.127000	-72.043678
976.347000	-59.471592
976.567000	-31.148381
976.787000	-26.748905
977.007000	-35.859360
977.227000	-43.602450
977.447000	-42.664621
977.668000	-63.098595
977.888000	-52.712639
978.108000	-48.586058
978.328000	-11.859044
978.548000	20.103287
978.768000	-6.232441
978.988000	-19.194761
979.209000	-37.625983
979.429000	-31.916379
979.649000	-2.234538
979.869000	-23.132633
980.089000	-62.880876
980.309000	-71.125245
980.529000	-84.985486
980.750000	-45.709920
980.970000	-56.658848
981.190000	-43.732150
981.410000	-36.073091
981.630000	-51.771446
981.850000	-15.032903
982.070000	-8.287171
982.291000	-67.338717
982.511000	-69.880035
982.731000	-34.585429
982.951000	-43.532080
983.171000	-30.665935
983.391000	-38.508739
983.611000	-9.534028
983.832000	-39.869333
984.052000	-56.707978
984.272000	-29.668324
984.492000	-40.471792
984.712000	-52.995731
984.932000	-66.295818
985.152000	-88.930088
985.373000	-69.198057
985.593000	-35.782127
985.813000	-19.494040
986.033000	-34.374683
986.253000	-13.099917
986.473000	-0.745273
986.693000	-51.194788
986.914000	-60.465259
987.134000	-4.244930
987.354000	-35.832292
987.574000	200.563750
987.794000	109.830272
988.014000	-53.002917
988.234000	-48.715071
988.455000	-38.048909
988.675000	-24.537981
988.895000	-47.307391
989.115000	-60.938541
989.335000	-35.148010
989.555000	-16.085794
989.775000	-52.821065
989.995000	-55.448296
990.216000	-53.169664
990.436000	-52.802876
990.656000	-20.170617
990.876000	-55.945035
991.096000	-14.652039
991.316000	4.476787
991.536000	-53.814558
991.757000	-55.667909
991.977000	-84.925868
992.197000	-21.306898
992.417000	-43.634597
992.637000	-89.833474
992.857000	-90.262739
993.077000	-102.103531
993.298000	-73.590000
993.518000	-35.403718
993.738000	-107.913576
993.958000	-70.251985
994.178000	-59.925932
994.398000	-54.295902
994.618000	-113.264889
994.839000	-136.464686
995.059000	-50.421752
995.279000	10.844262
995.499000	-39.344614
995.719000	-32.897881
995.939000	-63.091251
996.159000	-20.910547
996.380000	-39.319719
996.600000	-107.108574
996.820000	-88.998154
997.040000	-28.597764
997.260000	-73.966887
997.480000	-39.249767
997.700000	-135.579526
997.921000	-78.699426
998.141000	13.418278
998.361000	-19.862992
998.581000	-97.074592
998.801000	-112.936231
999.021000	-110.217581
999.241000	-101.717020
999.462000	-63.801871
999.682000	-126.578328
999.902000	-102.933200
1000.122000	-73.207500
1000.342000	-125.922268
1000.562000	-78.149537
1000.782000	-88.050879
1001.003000	-1138.018823
