Wavelength	Irradiance
(nm)	(mW/cm2/nm)

294.396000	0.000000
294.577000	0.000000
294.757000	-0.000000
294.938000	-0.000000
295.118000	-0.000000
295.299000	0.000000
295.479000	-0.000000
295.660000	-0.000000
295.840000	-0.000000
296.021000	-0.000000
296.202000	-0.000000
296.382000	-0.000000
296.563000	-0.000000
296.743000	-0.000000
296.924000	-0.000000
297.104000	-0.000000
297.285000	-0.000000
297.465000	-0.000000
297.646000	-0.000000
297.826000	-0.000000
298.007000	0.000000
298.187000	0.000000
298.368000	-0.000000
298.548000	0.000000
298.729000	0.000000
298.909000	-0.000000
299.090000	-0.000000
299.270000	-0.000000
299.451000	-0.000000
299.631000	-0.000000
299.812000	-0.000000
299.992000	0.000000
300.173000	0.000000
300.353000	-0.000000
300.534000	0.000000
300.714000	0.000000
300.895000	-0.000000
301.075000	-0.000000
301.256000	0.000000
301.436000	-0.000000
301.617000	-0.000000
301.797000	-0.000000
301.978000	-0.000000
302.159000	-0.000000
302.339000	0.000000
302.520000	-0.000000
302.700000	-0.000000
302.881000	0.000000
303.061000	0.000000
303.242000	0.000000
303.422000	0.000000
303.603000	-0.000000
303.783000	-0.000000
303.964000	-0.000000
304.144000	-0.000000
304.325000	-0.000000
304.505000	-0.000000
304.686000	-0.000000
304.866000	-0.000000
305.047000	-0.000000
305.227000	-0.000000
305.408000	-0.000000
305.588000	-0.000000
305.769000	-0.000000
305.949000	-0.000000
306.130000	-0.000000
306.310000	-0.000000
306.491000	-0.000000
306.671000	0.000000
306.852000	-0.000000
307.032000	-0.000000
307.213000	-0.000000
307.393000	-0.000000
307.574000	0.000000
307.755000	0.000000
307.935000	0.000000
308.116000	0.000000
308.296000	-0.000000
308.477000	0.000000
308.657000	0.000000
308.838000	-0.000000
309.018000	-0.000000
309.199000	-0.000000
309.379000	-0.000000
309.560000	0.000000
309.740000	-0.000000
309.921000	0.000000
310.101000	0.000000
310.282000	-0.000000
310.462000	-0.000000
310.643000	-0.000000
310.823000	-0.000000
311.004000	-0.000000
311.184000	-0.000000
311.365000	0.000000
311.545000	0.000000
311.726000	-0.000000
311.906000	-0.000000
312.087000	0.000000
312.267000	-0.000000
312.448000	-0.000000
312.628000	-0.000000
312.809000	-0.000000
312.989000	-0.000000
313.170000	-0.000000
313.344000	-0.000000
313.518000	-0.000000
313.691000	-0.000000
313.865000	-0.000000
314.039000	-0.000000
314.213000	-0.000000
314.387000	-0.000000
314.560000	-0.000000
314.734000	-0.000000
314.908000	-0.000000
315.082000	-0.000000
315.255000	0.000000
315.429000	0.000000
315.603000	0.000000
315.777000	-0.000000
315.951000	0.000000
316.124000	-0.000000
316.298000	-0.000000
316.472000	-0.000000
316.646000	-0.000000
316.820000	-0.000000
316.993000	-0.000000
317.167000	-0.000000
317.341000	-0.000000
317.515000	-0.000000
317.688000	-0.000000
317.862000	-0.000000
318.036000	-0.000000
318.210000	-0.000000
318.384000	-0.000000
318.557000	-0.000000
318.731000	-0.000000
318.905000	0.000000
319.079000	0.000000
319.253000	0.000000
319.426000	0.000000
319.600000	0.000000
319.774000	-0.000000
319.948000	-0.000000
320.122000	0.000000
320.295000	0.000000
320.469000	-0.000000
320.643000	-0.000000
320.817000	-0.000000
320.990000	-0.000000
321.164000	-0.000000
321.338000	-0.000000
321.512000	-0.000000
321.686000	-0.000000
321.859000	-0.000000
322.033000	-0.000000
322.207000	0.000000
322.381000	-0.000000
322.555000	-0.000000
322.728000	-0.000000
322.902000	-0.000000
323.076000	-0.000000
323.250000	-0.000000
323.423000	-0.000000
323.597000	-0.000000
323.771000	-0.000000
323.945000	-0.000000
324.119000	-0.000000
324.292000	0.000000
324.466000	-0.000000
324.640000	0.000000
324.814000	0.000000
324.988000	-0.000000
325.161000	-0.000000
325.335000	-0.000000
325.509000	-0.000000
325.683000	-0.000000
325.856000	-0.000000
326.030000	-0.000000
326.204000	-0.000000
326.378000	-0.000000
326.552000	-0.000000
326.725000	-0.000000
326.899000	-0.000000
327.073000	-0.000000
327.247000	-0.000000
327.421000	0.000000
327.594000	-0.000000
327.768000	-0.000000
327.942000	-0.000000
328.116000	-0.000000
328.289000	0.000000
328.463000	0.000000
328.637000	0.000000
328.811000	-0.000000
328.985000	-0.000000
329.158000	-0.000000
329.332000	-0.000000
329.506000	-0.000000
329.680000	-0.000000
329.854000	-0.000000
330.027000	-0.000000
330.201000	-0.000000
330.375000	-0.000000
330.549000	0.000000
330.723000	0.000000
330.896000	-0.000000
331.070000	-0.000000
331.244000	-0.000000
331.418000	-0.000000
331.591000	-0.000000
331.765000	-0.000000
331.939000	-0.000000
332.113000	-0.000000
332.287000	-0.000000
332.460000	0.000000
332.634000	0.000000
332.808000	-0.000000
332.982000	-0.000000
333.156000	-0.000000
333.329000	-0.000000
333.503000	-0.000000
333.677000	-0.000000
333.851000	-0.000000
334.024000	-0.000000
334.198000	-0.000000
334.372000	-0.000000
334.546000	-0.000000
334.720000	-0.000000
334.893000	-0.000000
335.067000	-0.000000
335.241000	-0.000000
335.415000	0.000000
335.589000	-0.000000
335.762000	-0.000000
335.936000	-0.000000
336.110000	-0.000000
336.284000	-0.000000
336.458000	0.000000
336.631000	-0.000000
336.805000	-0.000000
336.979000	-0.000000
337.153000	-0.000000
337.326000	-0.000000
337.500000	-0.000000
337.674000	-0.000000
337.848000	-0.000000
338.022000	-0.000000
338.195000	-0.000000
338.369000	-0.000000
338.543000	-0.000000
338.717000	-0.000000
338.891000	-0.000000
339.064000	0.000000
339.238000	-0.000000
339.412000	-0.000000
339.586000	-0.000000
339.759000	-0.000000
339.933000	-0.000000
340.107000	0.000000
340.281000	-0.000000
340.455000	-0.000000
340.628000	-0.000000
340.802000	-0.000000
340.976000	-0.000000
341.150000	-0.000000
341.324000	-0.000000
341.497000	-0.000000
341.671000	-0.000000
341.845000	-0.000000
342.019000	-0.000000
342.192000	-0.000000
342.366000	-0.000000
342.540000	-0.000000
342.714000	-0.000000
342.888000	-0.000000
343.061000	-0.000000
343.235000	-0.000000
343.409000	-0.000000
343.583000	-0.000000
343.757000	-0.000000
343.930000	-0.000000
344.104000	-0.000000
344.278000	0.000000
344.452000	0.000000
344.626000	-0.000000
344.799000	-0.000000
344.973000	-0.000000
345.147000	-0.000000
345.321000	-0.000000
345.494000	-0.000000
345.668000	0.000000
345.842000	0.000000
346.016000	-0.000000
346.190000	0.000000
346.363000	-0.000000
346.537000	-0.000000
346.711000	0.000000
346.885000	-0.000000
347.059000	-0.000000
347.232000	-0.000000
347.406000	-0.000000
347.580000	-0.000000
347.754000	-0.000000
347.927000	-0.000000
348.101000	0.000000
348.275000	-0.000000
348.449000	-0.000000
348.623000	-0.000000
348.796000	-0.000000
348.970000	0.000000
349.144000	-0.000000
349.318000	-0.000000
349.492000	-0.000000
349.665000	-0.000000
349.839000	-0.000000
350.013000	-0.000000
350.187000	-0.000000
350.361000	-0.000000
350.534000	-0.000000
350.708000	-0.000000
350.882000	-0.000000
351.056000	0.000000
351.229000	0.000000
351.403000	-0.000000
351.577000	-0.000000
351.751000	-0.000000
351.925000	-0.000000
352.098000	-0.000000
352.272000	-0.000000
352.446000	-0.000000
352.620000	-0.000000
352.794000	-0.000000
352.967000	-0.000000
353.141000	0.000000
353.315000	0.000000
353.489000	-0.000000
353.662000	-0.000000
353.836000	-0.000000
354.010000	-0.000000
354.184000	-0.000000
354.358000	-0.000000
354.531000	-0.000000
354.705000	-0.000000
354.879000	-0.000000
355.053000	-0.000000
355.227000	0.000000
355.400000	-0.000000
355.574000	0.000000
355.748000	0.000000
355.922000	-0.000000
356.095000	-0.000000
356.269000	-0.000000
356.443000	-0.000000
356.617000	-0.000000
356.791000	-0.000000
356.964000	-0.000000
357.138000	-0.000000
357.312000	-0.000000
357.486000	-0.000000
357.660000	0.000000
357.833000	-0.000000
358.007000	-0.000000
358.181000	-0.000000
358.355000	-0.000000
358.529000	-0.000000
358.702000	-0.000000
358.876000	-0.000000
359.050000	-0.000000
359.224000	-0.000000
359.397000	-0.000000
359.571000	-0.000000
359.745000	-0.000000
359.919000	-0.000000
360.093000	-0.057236
360.266000	0.061042
360.440000	0.167844
360.614000	0.197678
360.788000	0.042892
360.962000	-0.164008
361.135000	-0.024110
361.309000	-0.272268
361.483000	-0.448076
361.657000	-0.281737
361.830000	-0.078974
362.004000	-0.011136
362.178000	-0.375966
362.352000	-0.246871
362.526000	-0.103227
362.699000	-0.187978
362.873000	-0.292356
363.047000	-0.291061
363.221000	-0.395188
363.395000	-0.204381
363.568000	-0.104891
363.742000	-0.156007
363.916000	-0.181827
364.090000	-0.339777
364.263000	-0.202042
364.437000	-0.378872
364.611000	-0.072089
364.785000	-0.065658
364.959000	-0.228222
365.132000	-0.344611
365.306000	-0.201782
365.480000	0.018050
365.656000	-0.319813
365.831000	-0.254048
366.007000	-0.155333
366.183000	-0.113609
366.358000	-0.336680
366.534000	-0.322947
366.710000	-0.360385
366.886000	-0.208474
367.061000	-0.168477
367.237000	-0.012389
367.413000	-0.152012
367.588000	-0.416892
367.764000	-0.421355
367.940000	-0.309619
368.115000	-0.279708
368.291000	-0.272252
368.467000	-0.144859
368.643000	0.183891
368.818000	-0.195382
368.994000	-0.562446
369.170000	-0.501476
369.345000	-0.264064
369.521000	-0.224626
369.697000	-0.307154
369.872000	-0.351676
370.048000	-0.482912
370.224000	-0.423340
370.399000	-0.619522
370.575000	-0.474486
370.751000	-0.431055
370.927000	-0.338453
371.102000	-0.284446
371.278000	-0.258486
371.454000	-0.254313
371.629000	-0.102380
371.805000	-0.280868
371.981000	-0.021356
372.156000	0.109296
372.332000	-0.028742
372.508000	-0.012998
372.683000	-0.012921
372.859000	-0.086208
373.035000	-0.095354
373.211000	0.275492
373.386000	-0.078996
373.562000	-0.472228
373.738000	-0.424345
373.913000	-0.649270
374.089000	-0.479282
374.265000	0.036134
374.440000	0.028169
374.616000	-0.087631
374.792000	-0.342616
374.968000	0.140144
375.143000	-0.094051
375.319000	-0.300705
375.495000	-0.231785
375.670000	-0.303774
375.846000	-0.290070
376.022000	-0.276637
376.197000	-0.168208
376.373000	-0.406299
376.549000	-0.588952
376.724000	-0.476889
376.900000	-0.300319
377.076000	-0.261260
377.252000	-0.043995
377.427000	0.161279
377.603000	-0.204878
377.779000	-0.252990
377.954000	-0.422598
378.130000	-0.201359
378.306000	-0.179487
378.481000	-0.226206
378.657000	-0.209316
378.833000	-0.169685
379.009000	-0.116307
379.184000	0.003172
379.360000	0.003144
379.536000	-0.076089
379.711000	-0.222390
379.887000	-0.242939
380.063000	-0.295345
380.238000	-0.305333
380.414000	-0.083370
380.590000	-0.441538
380.765000	-0.503506
380.941000	-0.161264
381.117000	-0.121343
381.293000	-0.105539
381.468000	-0.211797
381.644000	-0.238321
381.820000	-0.183963
381.995000	0.129091
382.171000	0.279965
382.347000	0.145343
382.522000	-0.389594
382.698000	-0.028135
382.874000	-0.059306
383.050000	-0.366054
383.225000	-0.067446
383.401000	0.191988
383.577000	-0.091921
383.752000	-0.237804
383.928000	-0.291548
384.104000	-0.203475
384.279000	-0.179774
384.455000	-0.143776
384.631000	-0.236880
384.806000	-0.559541
384.982000	-0.252657
385.158000	-0.168850
385.334000	-0.066199
385.509000	-0.174690
385.685000	-0.428683
385.861000	-0.334500
386.036000	-0.430562
386.212000	-0.565948
386.388000	-0.373182
386.563000	-0.364809
386.739000	-0.368668
386.915000	-0.461579
387.090000	-0.269700
387.266000	-0.090105
387.442000	0.026385
387.618000	-0.089309
387.793000	-0.408452
387.969000	-0.578991
388.145000	-0.592809
388.320000	-0.453866
388.496000	-0.378493
388.672000	-0.709469
388.847000	-0.226795
389.023000	-0.089451
389.199000	-0.361224
389.375000	-0.294945
389.550000	-0.482286
389.726000	-0.361871
389.902000	-0.450437
390.077000	-0.222497
390.253000	-0.226341
390.429000	-0.419958
390.604000	-0.210817
390.780000	-0.027361
390.956000	-0.223231
391.131000	-0.350766
391.307000	0.003013
391.483000	-0.268054
391.659000	-0.344474
391.834000	-0.087253
392.010000	-0.319996
392.186000	-0.485759
392.361000	-0.313486
392.537000	-0.429882
392.713000	-0.056304
392.888000	0.181035
393.064000	-0.086374
393.240000	-0.308974
393.416000	-0.351363
393.591000	-0.554643
393.767000	-0.616072
393.943000	-0.402123
394.118000	-0.106930
394.294000	0.083438
394.470000	-0.099284
394.645000	-0.084415
394.821000	0.171273
394.997000	-0.106196
395.172000	0.017365
395.348000	-0.192840
395.524000	-0.495973
395.700000	-0.376607
395.875000	-0.183866
396.051000	-0.241009
396.227000	-0.206674
396.402000	-0.222301
396.578000	-0.250718
396.754000	-0.400701
396.929000	-0.319990
397.105000	-0.075938
397.281000	-0.111722
397.457000	-0.289917
397.632000	-0.237403
397.808000	-0.494896
397.984000	-0.703146
398.159000	-0.518642
398.335000	-0.446217
398.511000	0.059765
398.686000	-0.004264
398.862000	-0.216019
399.038000	-0.285875
399.213000	-0.221457
399.389000	-0.505448
399.565000	-0.292843
399.741000	0.009844
399.916000	-0.018459
400.092000	0.243031
400.268000	-0.102298
400.443000	-0.273684
400.619000	0.059447
400.795000	0.088078
400.970000	-0.193450
401.146000	-0.405302
401.322000	-0.117595
401.497000	0.257670
401.673000	0.138037
401.849000	-0.103540
402.025000	0.031072
402.200000	-0.130991
402.376000	-0.370273
402.552000	0.158335
402.727000	-0.144930
402.903000	-0.383327
403.079000	-0.193900
403.254000	-0.018282
403.430000	-0.108958
403.606000	-0.137122
403.782000	-0.297656
403.957000	-0.382587
404.133000	-0.510029
404.309000	-0.376436
404.484000	-0.207140
404.660000	-0.228771
404.841000	-0.299129
405.023000	0.079611
405.204000	-0.060235
405.385000	-0.454535
405.566000	-0.403460
405.748000	-0.287349
405.929000	-0.011381
406.110000	-0.116709
406.292000	-0.366122
406.473000	-0.199562
406.654000	-0.355877
406.835000	-0.228496
407.017000	-0.325391
407.198000	-0.238904
407.379000	-0.141845
407.560000	-0.238991
407.742000	-0.213001
407.923000	-0.165187
408.104000	-0.317659
408.286000	-0.212735
408.467000	-0.233012
408.648000	-0.365903
408.829000	-0.378479
409.011000	-0.254023
409.192000	-0.491910
409.373000	-0.317293
409.555000	-0.129445
409.736000	-0.059450
409.917000	-0.226193
410.098000	-0.217803
410.280000	-0.086217
410.461000	-0.140707
410.642000	-0.195712
410.823000	0.077982
411.005000	-0.127397
411.186000	-0.285121
411.367000	-0.347105
411.549000	-0.394838
411.730000	-0.106905
411.911000	0.125881
412.092000	-0.270109
412.274000	-0.369617
412.455000	-0.336464
412.636000	-0.126289
412.818000	-0.173127
412.999000	-0.259277
413.180000	-0.145964
413.361000	-0.214335
413.543000	-0.321134
413.724000	-0.306854
413.905000	-0.313593
414.087000	-0.347966
414.268000	-0.310804
414.449000	-0.311385
414.630000	-0.493713
414.812000	-0.593129
414.993000	-0.090263
415.174000	0.088978
415.355000	-0.277936
415.537000	-0.536117
415.718000	-0.237040
415.899000	-0.262888
416.081000	-0.506424
416.262000	-0.234878
416.443000	-0.227708
416.624000	-0.319104
416.806000	-0.359189
416.987000	-0.056847
417.168000	-0.155064
417.350000	-0.345528
417.531000	-0.415275
417.712000	-0.363010
417.893000	-0.095288
418.075000	-0.049416
418.256000	-0.232146
418.437000	-0.043212
418.618000	0.015657
418.800000	0.009119
418.981000	-0.276093
419.162000	-0.242119
419.344000	-0.062223
419.525000	-0.140759
419.706000	-0.349678
419.887000	-0.101568
420.069000	0.041625
420.250000	-0.114438
420.431000	-0.140106
420.613000	-0.199424
420.794000	-0.519744
420.975000	-0.074959
421.156000	-0.139848
421.338000	-0.152672
421.519000	-0.223787
421.700000	-0.217964
421.882000	-0.276298
422.063000	-0.204451
422.244000	0.382374
422.425000	0.164131
422.607000	-0.238978
422.788000	-0.257368
422.969000	-0.391127
423.150000	-0.365734
423.332000	-0.358236
423.513000	-0.210715
423.694000	-0.302788
423.876000	-0.217658
424.057000	-0.133466
424.238000	-0.192496
424.419000	-0.160445
424.601000	-0.199554
424.782000	-0.238441
424.963000	-0.217080
425.145000	-0.114019
425.326000	-0.036123
425.507000	-0.010306
425.688000	-0.042727
425.870000	-0.309380
426.051000	-0.384725
426.232000	-0.223329
426.413000	-0.283075
426.595000	-0.307427
426.776000	-0.339563
426.957000	-0.263227
427.139000	-0.249202
427.320000	-0.211396
427.501000	-0.042965
427.682000	-0.029799
427.864000	-0.068628
428.045000	0.087009
428.226000	0.113387
428.408000	-0.160153
428.589000	-0.152989
428.770000	-0.217321
428.951000	-0.281521
429.133000	-0.409435
429.314000	-0.261002
429.495000	-0.279358
429.677000	-0.325357
429.858000	-0.126164
430.039000	-0.164979
430.220000	-0.190791
430.402000	0.041123
430.583000	-0.184198
430.764000	-0.363081
430.945000	-0.254523
431.127000	-0.169748
431.308000	-0.257900
431.489000	-0.003832
431.671000	-0.042330
431.852000	-0.169460
432.033000	-0.226821
432.214000	-0.086481
432.396000	-0.098937
432.577000	-0.207209
432.758000	-0.488169
432.940000	-0.443085
433.121000	-0.372661
433.302000	-0.276352
433.483000	-0.022773
433.665000	0.103799
433.846000	-0.029109
434.027000	-0.324477
434.208000	-0.336612
434.390000	-0.300034
434.571000	0.027746
434.752000	0.496994
434.934000	0.344871
435.115000	0.214679
435.296000	0.333144
435.477000	0.176658
435.659000	-0.126791
435.840000	0.008643
436.026000	-0.096025
436.211000	-0.225042
436.397000	-0.573338
436.582000	-0.438599
436.768000	-0.199533
436.953000	-0.229824
437.139000	-0.241521
437.325000	0.136018
437.510000	0.026714
437.696000	0.147749
437.881000	0.171699
438.067000	-0.189951
438.252000	-0.202124
438.438000	-0.195970
438.624000	-0.298176
438.809000	-0.237088
438.995000	-0.117210
439.180000	-0.242043
439.366000	-0.277523
439.551000	-0.259310
439.737000	-0.116334
439.923000	-0.033282
440.108000	-0.163816
440.294000	-0.104143
440.479000	0.079009
440.665000	0.078496
440.850000	-0.178257
441.036000	-0.085245
441.222000	-0.091469
441.407000	-0.219711
441.593000	-0.143128
441.778000	-0.084750
441.964000	0.060628
442.149000	-0.282240
442.335000	-0.361717
442.521000	-0.240109
442.706000	-0.083927
442.892000	-0.032122
443.077000	-0.084027
443.263000	-0.055021
443.448000	-0.163179
443.634000	-0.203261
443.820000	0.195160
444.005000	-0.014741
444.191000	-0.395422
444.376000	-0.280469
444.562000	0.198949
444.747000	0.188689
444.933000	0.041686
445.119000	-0.014611
445.304000	-0.109942
445.490000	0.058360
445.675000	-0.031410
445.861000	-0.160843
446.046000	-0.255888
446.232000	-0.193894
446.418000	-0.014554
446.603000	-0.059328
446.789000	-0.053673
446.974000	0.024675
447.160000	-0.316263
447.345000	-0.197878
447.531000	-0.192151
447.717000	-0.143040
447.902000	0.002244
448.088000	0.130524
448.273000	-0.042174
448.459000	-0.119527
448.644000	-0.208177
448.830000	-0.336774
449.016000	-0.430889
449.201000	-0.297203
449.387000	-0.153381
449.572000	-0.003324
449.758000	-0.202656
449.943000	-0.313844
450.129000	-0.246319
450.315000	-0.218293
450.500000	-0.323311
450.686000	-0.196774
450.871000	-0.307617
451.057000	-0.207672
451.243000	-0.262601
451.428000	-0.130372
451.614000	-0.041885
451.799000	-0.080415
451.985000	0.079279
452.170000	0.128705
452.356000	-0.085742
452.542000	-0.129868
452.727000	0.024136
452.913000	-0.124178
453.098000	0.188996
453.284000	0.293271
453.469000	-0.008798
453.655000	0.100996
453.841000	0.018633
454.026000	-0.150594
454.212000	-0.073993
454.397000	0.073003
454.583000	-0.151676
454.768000	-0.298420
454.954000	-0.063019
455.140000	-0.057488
455.325000	-0.262975
455.511000	-0.362124
455.696000	-0.275153
455.882000	-0.106342
456.067000	0.116164
456.253000	-0.111829
456.439000	-0.290929
456.624000	-0.241283
456.810000	-0.278384
456.995000	-0.149104
457.181000	-0.229532
457.366000	-0.110429
457.552000	-0.088622
457.738000	0.007466
457.923000	-0.003205
458.109000	0.216475
458.294000	0.162729
458.480000	0.055739
458.665000	-0.040611
458.851000	-0.141889
459.037000	-0.347594
459.222000	-0.167451
459.408000	-0.225746
459.593000	-0.066448
459.779000	0.096724
459.964000	0.154820
460.150000	0.192022
460.336000	0.118047
460.521000	-0.018841
460.707000	-0.133667
460.892000	-0.253266
461.078000	-0.112826
461.263000	-0.096721
461.449000	-0.196220
461.635000	-0.206436
461.820000	-0.148794
462.006000	-0.003108
462.191000	0.069163
462.377000	-0.167767
462.562000	0.146620
462.748000	0.393427
462.934000	-0.044339
463.119000	-0.336651
463.305000	-0.084826
463.490000	-0.064074
463.676000	-0.110121
463.861000	-0.172048
464.047000	-0.079627
464.233000	0.007099
464.418000	-0.084083
464.604000	-0.179928
464.789000	-0.058671
464.975000	-0.033276
465.160000	-0.088885
465.346000	-0.098930
465.532000	-0.195115
465.717000	-0.255357
465.903000	-0.018139
466.088000	-0.008052
466.274000	-0.223298
466.459000	-0.248618
466.645000	0.112435
466.831000	0.016959
467.016000	0.061749
467.202000	-0.008003
467.387000	-0.127692
467.573000	-0.291116
467.758000	0.011872
467.944000	-0.047468
468.130000	-0.226639
468.315000	-0.077576
468.501000	0.041623
468.686000	0.031636
468.872000	-0.002967
469.057000	0.036582
469.243000	-0.082176
469.429000	-0.106849
469.614000	-0.165811
469.800000	-0.264516
469.985000	-0.170219
470.171000	-0.027447
470.356000	-0.130858
470.542000	-0.141236
470.728000	-0.071851
470.913000	-0.110668
471.099000	-0.017617
471.284000	-0.111380
471.470000	-0.111542
471.655000	-0.072069
471.841000	-0.057079
472.027000	-0.135082
472.212000	0.001959
472.398000	0.011795
472.583000	-0.086588
472.769000	-0.032531
472.954000	-0.052165
473.140000	-0.213649
473.326000	-0.262989
473.511000	-0.022524
473.697000	0.041179
473.882000	-0.076791
474.068000	-0.131189
474.253000	-0.184645
474.439000	-0.116078
474.625000	-0.032403
474.810000	-0.047166
474.996000	-0.056992
475.181000	-0.252578
475.367000	-0.110739
475.552000	0.149808
475.738000	-0.096043
475.924000	-0.056970
476.109000	0.026510
476.295000	-0.056977
476.480000	-0.047202
476.666000	-0.150228
476.851000	-0.101080
477.037000	0.001973
477.223000	-0.120862
477.408000	-0.209355
477.594000	-0.268076
477.779000	-0.130869
477.965000	-0.047247
478.151000	-0.194855
478.336000	-0.091607
478.522000	-0.214223
478.707000	-0.253504
478.893000	-0.052184
479.078000	-0.269462
479.264000	-0.289277
479.450000	-0.185686
479.635000	0.026631
479.821000	-0.086951
480.006000	-0.067138
480.192000	0.001973
480.377000	0.046461
480.563000	-0.017776
480.749000	-0.210489
480.934000	-0.210264
481.120000	-0.066880
481.305000	-0.012768
481.491000	-0.022682
481.676000	0.076107
481.862000	0.031702
482.048000	-0.067003
482.233000	-0.002953
482.419000	-0.067075
482.604000	-0.136262
482.790000	-0.136265
482.975000	-0.106741
483.161000	-0.017737
483.347000	0.031482
483.532000	-0.032472
483.718000	-0.264584
483.903000	-0.235297
484.089000	-0.195279
484.274000	-0.263900
484.460000	-0.081894
484.646000	-0.047365
484.831000	-0.141209
485.017000	-0.121078
485.202000	-0.130673
485.388000	0.159061
485.573000	0.104852
485.759000	-0.091364
485.945000	0.070748
486.130000	-0.032402
486.316000	-0.032414
486.501000	0.075433
486.687000	-0.110544
486.872000	-0.184080
487.058000	-0.037232
487.244000	0.036275
487.429000	-0.149567
487.615000	0.060620
487.800000	0.085049
487.986000	-0.105177
488.171000	0.016594
488.357000	-0.090471
488.543000	-0.051371
488.728000	0.035875
488.914000	-0.002911
489.099000	-0.075631
489.285000	-0.085266
489.470000	0.040594
489.656000	0.069641
489.842000	0.045286
490.027000	0.155618
490.213000	-0.007698
490.398000	-0.311567
490.584000	-0.026915
490.769000	0.035566
490.955000	0.131463
491.141000	0.131173
491.326000	0.073467
491.512000	0.173568
491.697000	0.059007
491.883000	-0.107588
492.068000	-0.174257
492.254000	-0.060097
492.440000	0.049574
492.625000	0.039922
492.811000	-0.116678
492.996000	0.011368
493.182000	0.039660
493.367000	-0.192235
493.553000	-0.225441
493.739000	-0.125792
493.924000	-0.054920
494.110000	-0.059465
494.295000	-0.087515
494.481000	-0.040514
494.666000	-0.059400
494.852000	0.081897
495.038000	-0.012212
495.223000	-0.106312
495.409000	-0.002816
495.594000	-0.012222
495.780000	-0.030945
495.965000	-0.153002
496.151000	0.081565
496.337000	0.151738
496.522000	-0.040120
496.708000	0.123607
496.893000	0.128282
497.079000	-0.063512
497.264000	-0.072713
497.450000	-0.002798
497.636000	0.015868
497.821000	-0.142443
498.007000	0.057724
498.192000	0.128025
498.378000	0.020523
498.563000	-0.021462
498.749000	0.011209
498.935000	0.039173
499.120000	0.094903
499.306000	-0.002795
499.491000	0.001858
499.677000	-0.016721
499.862000	0.085788
500.048000	0.113962
500.234000	-0.026089
500.419000	0.020536
500.605000	0.142011
500.790000	0.099858
500.976000	0.020564
501.161000	-0.068218
501.347000	0.076626
501.533000	0.020571
501.718000	-0.086909
501.904000	0.006557
502.089000	0.137898
502.275000	0.118827
502.460000	-0.002799
502.646000	0.015877
502.832000	0.062609
503.017000	0.058054
503.203000	-0.129398
503.388000	-0.125009
503.574000	0.095620
503.759000	0.165885
503.945000	0.184944
504.131000	0.053511
504.316000	-0.045035
504.502000	-0.073209
504.687000	-0.021645
504.873000	-0.068738
505.058000	-0.153464
505.244000	-0.125189
505.430000	-0.087703
505.615000	0.011331
505.801000	0.091757
505.986000	-0.054600
506.172000	-0.068763
506.358000	-0.002832
506.543000	-0.097190
506.729000	0.101025
506.914000	0.139096
507.100000	0.315224
507.285000	0.111275
507.471000	-0.064601
507.657000	0.063643
507.842000	-0.012332
508.028000	-0.168963
508.213000	0.011419
508.399000	0.016211
508.584000	0.006682
508.770000	-0.107670
508.956000	-0.055308
509.141000	0.092415
509.327000	0.145114
509.512000	0.020920
509.698000	0.006667
509.883000	0.025786
510.069000	0.016279
510.255000	0.088138
510.440000	0.164983
510.626000	0.059440
510.811000	-0.079687
510.997000	-0.026888
511.182000	0.246502
511.368000	0.227566
511.554000	-0.122977
511.739000	-0.060488
511.925000	0.073977
512.110000	0.169891
512.296000	0.295407
512.481000	0.222967
512.667000	0.107756
512.853000	-0.156850
513.038000	0.011563
513.224000	-0.055904
513.409000	-0.046260
513.595000	0.108115
513.780000	-0.219979
513.966000	-0.123199
514.152000	-0.060644
514.337000	-0.137709
514.523000	-0.104013
514.708000	-0.080018
514.894000	-0.036736
515.079000	-0.128073
515.265000	-0.114019
515.451000	-0.094733
515.636000	-0.060855
515.822000	0.088979
516.007000	-0.046431
516.193000	0.059915
516.378000	0.127778
516.564000	0.103427
516.750000	0.064785
516.935000	0.108353
517.121000	0.118004
517.306000	0.205244
517.492000	0.123138
517.677000	-0.104597
517.863000	-0.065870
518.049000	-0.027131
518.234000	-0.036793
518.420000	0.089189
518.605000	0.268444
518.791000	0.161761
518.976000	0.060293
519.162000	-0.041740
519.348000	0.060195
519.533000	0.079498
519.719000	0.273671
519.904000	0.186540
520.090000	0.137682
520.275000	0.322120
520.461000	0.303315
520.647000	0.050543
520.832000	-0.149115
521.018000	-0.090404
521.203000	-0.017440
521.389000	-0.191703
521.574000	-0.104673
521.760000	0.060169
521.946000	0.045751
522.131000	0.021434
522.317000	-0.036965
522.502000	-0.075843
522.688000	0.079767
522.873000	0.040895
523.059000	-0.037026
523.245000	-0.056461
523.430000	-0.149130
523.616000	-0.061389
523.801000	-0.120014
523.987000	-0.144666
524.172000	-0.086009
524.358000	0.094845
524.544000	0.055643
524.729000	0.182063
524.915000	0.133702
525.100000	0.050728
525.286000	0.099653
525.471000	0.080339
525.657000	0.080422
525.843000	-0.135504
526.028000	0.075661
526.214000	-0.002947
526.399000	-0.081761
526.585000	-0.121189
526.770000	-0.106397
526.956000	-0.057282
527.142000	-0.111581
527.327000	-0.002966
527.513000	-0.062358
527.698000	-0.047564
527.884000	0.001989
528.069000	-0.082379
528.255000	0.056648
528.441000	-0.027860
528.626000	-0.017965
528.812000	0.181502
528.997000	0.106923
529.183000	0.011986
529.368000	0.027094
529.554000	-0.008049
529.740000	-0.018162
529.925000	-0.103947
530.111000	-0.008083
530.296000	-0.008094
530.482000	0.037529
530.667000	0.052765
530.853000	0.058023
531.039000	-0.069372
531.224000	0.012308
531.410000	0.104585
531.595000	0.063630
531.781000	0.114963
531.967000	0.002064
532.152000	0.157382
532.338000	0.053948
532.523000	-0.143443
532.709000	-0.133540
532.894000	-0.060808
533.080000	-0.034635
533.266000	-0.176456
533.451000	-0.171840
533.637000	-0.082498
533.822000	0.182642
534.008000	-0.024402
534.193000	-0.035141
534.379000	0.002137
534.565000	-0.056870
534.750000	-0.154010
534.936000	0.083243
535.121000	0.018426
535.307000	0.078174
535.492000	0.154425
535.678000	-0.140032
535.864000	-0.063766
536.049000	0.322881
536.235000	0.090773
536.420000	0.046706
536.606000	-0.098141
536.791000	-0.081895
536.977000	-0.098970
537.163000	0.137742
537.348000	0.115835
537.534000	0.248085
537.719000	0.048136
537.905000	-0.095497
538.090000	0.008086
538.276000	0.158810
538.462000	0.106993
538.647000	0.043204
538.833000	-0.097447
539.018000	0.173395
539.204000	0.167613
539.389000	-0.045161
539.575000	0.293794
539.761000	0.247445
539.946000	-0.213783
540.132000	-0.039788
540.317000	-0.045948
540.503000	0.178131
540.688000	0.063409
540.874000	0.088065
541.060000	0.253102
541.245000	0.113017
541.431000	-0.046858
541.616000	0.002473
541.802000	0.021038
541.987000	0.157618
542.173000	0.232969
542.359000	0.139697
542.544000	0.120812
542.730000	-0.091282
542.915000	-0.035097
543.101000	0.184366
543.286000	-0.085462
543.472000	-0.130258
543.658000	-0.041763
543.843000	-0.073583
544.029000	0.148912
544.214000	0.168219
544.400000	-0.176063
544.585000	-0.131698
544.771000	-0.061575
544.957000	0.188980
545.142000	0.214868
545.328000	0.267035
545.513000	0.351540
545.699000	0.190807
545.884000	-0.010391
546.070000	0.041583
546.261000	0.048256
546.451000	-0.030090
546.642000	-0.252931
546.833000	-0.115525
547.023000	-0.286122
547.214000	-0.129144
547.405000	0.094864
547.595000	0.352241
547.786000	0.267516
547.977000	-0.030543
548.167000	-0.243218
548.358000	-0.164196
548.549000	0.284046
548.740000	0.036176
548.930000	-0.318993
549.121000	-0.178773
549.312000	-0.314387
549.502000	-0.240756
549.693000	-0.031084
549.884000	-0.051371
550.074000	0.063762
550.265000	-0.085671
550.456000	-0.079064
550.646000	-0.140739
550.837000	-0.195463
551.028000	-0.154664
551.218000	-0.010947
551.409000	-0.045353
551.600000	0.023383
551.790000	0.147759
551.981000	-0.183654
552.172000	-0.135576
552.362000	0.147963
552.553000	0.378042
552.744000	0.100003
552.934000	0.093139
553.125000	-0.108624
553.316000	-0.241076
553.506000	0.365851
553.697000	0.107921
553.888000	0.044772
554.079000	0.184828
554.269000	0.114932
554.460000	-0.151757
554.651000	-0.116748
554.841000	-0.363310
555.032000	-0.286298
555.223000	-0.103099
555.413000	-0.018279
555.604000	-0.081898
555.795000	-0.018405
555.985000	0.087956
556.176000	-0.124613
556.367000	-0.400658
556.557000	-0.345175
556.748000	-0.239105
556.939000	-0.203210
557.129000	-0.217237
557.320000	-0.132128
557.511000	-0.174424
557.701000	-0.209544
557.892000	-0.032695
558.083000	0.230036
558.273000	0.095156
558.464000	-0.096582
558.655000	-0.103594
558.845000	-0.117439
559.036000	-0.032567
559.227000	-0.032591
559.418000	0.130602
559.608000	0.144741
559.799000	-0.266445
559.990000	-0.272077
560.180000	-0.180681
560.371000	-0.385946
560.562000	-0.300663
560.752000	-0.145524
560.943000	-0.180929
561.134000	-0.441240
561.324000	-0.166145
561.515000	0.157404
561.706000	-0.025325
561.896000	-0.221817
562.087000	-0.179498
562.278000	-0.284561
562.468000	-0.404113
562.659000	-0.382019
562.850000	0.009802
563.040000	0.142824
563.231000	-0.242430
563.422000	-0.101961
563.612000	-0.213934
563.803000	-0.206567
563.994000	-0.212521
564.185000	-0.323100
564.375000	-0.052755
564.566000	-0.038825
564.757000	-0.101505
564.947000	-0.233322
565.138000	-0.128723
565.329000	-0.232064
565.519000	-0.294071
565.710000	-0.252908
565.901000	-0.121701
566.091000	0.016583
566.282000	0.002758
566.473000	-0.052231
566.663000	-0.120816
566.854000	-0.352806
567.045000	-0.201859
567.235000	-0.174549
567.426000	-0.181301
567.617000	-0.078779
567.807000	-0.173932
567.998000	-0.098994
568.189000	-0.214207
568.379000	-0.152810
568.570000	-0.071572
568.761000	-0.071422
568.951000	-0.037672
569.142000	-0.206128
569.333000	-0.152236
569.524000	-0.259040
569.714000	-0.420063
569.905000	-0.553318
570.096000	-0.204943
570.286000	-0.084275
570.477000	0.302832
570.668000	-0.057311
570.858000	-0.203910
571.049000	-0.309439
571.240000	-0.442468
571.430000	-0.209666
571.621000	-0.215533
571.812000	-0.188317
572.002000	-0.215036
572.193000	-0.405663
572.384000	-0.280419
572.574000	-0.208178
572.765000	-0.188071
572.956000	-0.154706
573.146000	0.002626
573.337000	-0.108765
573.528000	-0.082413
573.718000	0.009133
573.909000	-0.095109
574.100000	-0.127225
574.290000	-0.223875
574.481000	-0.171727
574.672000	-0.068511
574.863000	0.009013
575.053000	-0.299420
575.244000	-0.228199
575.435000	-0.343249
575.625000	-0.328983
575.816000	-0.182117
576.007000	-0.124809
576.197000	-0.182405
576.388000	-0.143578
576.579000	0.116857
576.769000	0.091347
576.960000	-0.282707
577.155000	-0.433635
577.350000	-0.123743
577.545000	0.021426
577.740000	-0.242524
577.935000	0.165529
578.130000	0.197032
578.326000	-0.110102
578.521000	0.140064
578.716000	0.151867
578.911000	-0.202681
579.106000	-0.133787
579.301000	0.051869
579.496000	-0.151426
579.691000	-0.415758
579.886000	-0.334928
580.081000	-0.162919
580.276000	-0.089203
580.471000	-0.223580
580.666000	-0.314664
580.861000	-0.284073
581.057000	-0.278157
581.252000	-0.223310
581.447000	-0.265424
581.642000	-0.290262
581.837000	-0.277692
582.032000	-0.082585
582.227000	0.099009
582.422000	0.104850
582.617000	-0.195552
582.812000	-0.332661
583.007000	-0.278662
583.202000	-0.319931
583.397000	0.055911
583.592000	0.305191
583.788000	-0.139680
583.983000	-0.139547
584.178000	-0.092097
584.373000	-0.215424
584.568000	-0.191479
584.763000	-0.309251
584.958000	-0.350382
585.153000	-0.209303
585.348000	-0.185685
585.543000	-0.027058
585.738000	-0.103478
585.933000	-0.379909
586.128000	-0.103468
586.324000	-0.127316
586.519000	-0.050654
586.714000	0.049515
586.909000	0.090939
587.104000	0.174189
587.299000	0.043718
587.494000	-0.062538
587.689000	-0.080395
587.884000	-0.027274
588.079000	-0.128080
588.274000	-0.098613
588.469000	-0.110273
588.664000	0.014247
588.859000	-0.045182
589.055000	-0.080945
589.250000	-0.134577
589.445000	-0.182435
589.640000	-0.164682
589.835000	0.068183
590.030000	0.223623
590.225000	0.121999
590.420000	-0.171274
590.615000	-0.237362
590.810000	-0.117351
591.005000	-0.069737
591.200000	-0.238165
591.395000	-0.226102
591.591000	-0.159680
591.786000	0.014395
591.981000	-0.141971
592.176000	-0.039785
592.371000	0.086837
592.566000	-0.202472
592.761000	0.062661
592.956000	0.183472
593.151000	0.123181
593.346000	0.026642
593.541000	0.183883
593.736000	0.044899
593.931000	-0.131113
594.126000	0.002432
594.322000	0.063219
594.517000	-0.088732
594.712000	-0.313739
594.907000	-0.253847
595.102000	-0.052547
595.297000	0.057398
595.492000	0.143188
595.687000	0.008584
595.882000	-0.187716
596.077000	-0.015981
596.272000	0.063910
596.467000	-0.040571
596.662000	-0.089836
596.857000	-0.003707
597.053000	0.076733
597.248000	0.181852
597.443000	0.132544
597.638000	0.108029
597.833000	-0.140448
598.028000	-0.040964
598.223000	-0.047263
598.418000	-0.196864
598.613000	-0.227983
598.808000	0.046130
599.003000	0.127308
599.198000	-0.159960
599.393000	-0.178652
599.589000	0.052614
599.784000	-0.129119
599.979000	-0.085370
600.174000	0.084172
600.369000	-0.085518
600.564000	-0.035259
600.759000	0.153808
600.954000	0.140963
601.149000	0.065648
601.344000	-0.212308
601.539000	0.065791
601.734000	0.008845
601.929000	-0.244482
602.124000	-0.301737
602.320000	0.078740
602.515000	0.364548
602.710000	0.193470
602.905000	-0.029271
603.100000	-0.054636
603.295000	-0.035642
603.490000	0.085531
603.685000	0.104698
603.880000	0.092042
604.075000	-0.048700
604.270000	0.028255
604.465000	0.098816
604.660000	-0.260726
604.856000	-0.189946
605.051000	0.144019
605.246000	0.079659
605.441000	-0.055288
605.636000	-0.145334
605.831000	0.034790
606.026000	-0.197059
606.221000	-0.223123
606.416000	-0.145926
606.611000	0.054292
606.806000	0.151105
607.001000	0.325875
607.196000	0.209685
607.391000	-0.198313
607.587000	0.151958
607.782000	0.184672
607.977000	-0.049303
608.172000	0.210841
608.367000	0.191315
608.562000	0.048250
608.757000	0.074308
608.952000	-0.023520
609.147000	0.237521
609.342000	0.211747
609.537000	-0.075950
609.732000	0.009181
609.927000	-0.089009
610.122000	-0.076049
610.318000	0.337307
610.513000	0.396574
610.708000	0.022348
610.903000	0.075015
611.098000	0.240035
611.293000	0.220312
611.488000	0.286312
611.683000	0.220728
611.878000	0.022476
612.073000	0.201021
612.268000	0.247578
612.463000	0.307843
612.658000	0.274675
612.854000	0.162225
613.049000	0.015964
613.244000	0.162391
613.439000	0.268982
613.634000	-0.010679
613.829000	0.049406
614.024000	-0.057554
614.219000	-0.137841
614.414000	0.170072
614.609000	0.130090
614.804000	-0.118051
614.999000	-0.178256
615.194000	-0.010750
615.389000	0.069957
615.585000	-0.125346
615.780000	0.022932
615.975000	-0.152733
616.170000	-0.031110
616.365000	0.280273
616.560000	0.314424
616.755000	0.206628
616.950000	0.063919
617.145000	0.132040
617.340000	-0.004088
617.535000	-0.310653
617.730000	0.057304
617.925000	-0.038264
618.120000	-0.140803
618.316000	0.263040
618.511000	0.133013
618.706000	-0.059173
618.901000	-0.024757
619.096000	0.016568
619.291000	-0.100698
619.486000	0.071958
619.681000	-0.198039
619.876000	-0.398676
620.071000	-0.170417
620.266000	0.134721
620.461000	0.121049
620.656000	0.163093
620.852000	0.232498
621.047000	0.009769
621.242000	-0.199835
621.437000	0.114864
621.632000	0.332695
621.827000	0.241667
622.022000	-0.172953
622.217000	0.009869
622.412000	0.263940
622.607000	0.271260
622.802000	-0.124392
622.997000	-0.053902
623.192000	0.045387
623.387000	0.151796
623.583000	-0.167732
623.778000	0.245168
623.973000	0.288119
624.168000	0.245911
624.363000	0.274082
624.558000	0.274550
624.753000	-0.076031
624.948000	0.218460
625.143000	0.297723
625.338000	0.110934
625.533000	-0.004323
625.728000	0.067807
625.923000	0.306049
626.119000	0.169296
626.314000	-0.134698
626.509000	-0.091528
626.704000	0.039330
626.899000	0.163286
627.094000	0.046718
627.289000	0.024876
627.484000	-0.026401
627.679000	-0.143869
627.874000	0.032339
628.069000	0.385689
628.264000	0.201495
628.459000	-0.004423
628.654000	-0.026560
628.850000	-0.204340
629.045000	-0.152685
629.240000	0.010387
629.435000	-0.093605
629.630000	-0.019352
629.825000	-0.011908
630.020000	0.070237
630.215000	-0.138905
630.410000	0.002999
630.605000	-0.064532
630.800000	0.048016
630.995000	0.153396
631.190000	0.304436
631.385000	0.364941
631.581000	0.290034
631.776000	0.244873
631.971000	0.094020
632.166000	-0.012141
632.361000	-0.019748
632.556000	0.132342
632.751000	0.285378
632.946000	0.033585
633.141000	0.033687
633.336000	-0.004601
633.531000	0.118453
633.726000	0.179766
633.921000	-0.158685
634.117000	-0.444685
634.312000	-0.460589
634.507000	-0.244469
634.702000	-0.097653
634.897000	0.049672
635.092000	0.065367
635.287000	0.260436
635.482000	0.081306
635.677000	0.026589
635.872000	0.143912
636.067000	0.167762
636.262000	-0.012592
636.457000	-0.106597
636.652000	-0.067508
636.848000	-0.232860
637.043000	-0.012639
637.238000	-0.107715
637.433000	-0.385213
637.628000	-0.369346
637.823000	0.090488
638.018000	0.289483
638.213000	0.019129
638.408000	-0.148391
638.603000	-0.244478
638.798000	-0.156821
638.993000	-0.036876
639.188000	-0.173215
639.383000	-0.149284
639.579000	0.163558
639.774000	0.083615
639.969000	-0.036999
640.164000	-0.141886
640.359000	-0.198532
640.554000	0.084041
640.749000	0.100478
640.944000	0.060093
641.139000	0.100491
641.334000	0.043841
641.529000	-0.411624
641.724000	-0.355116
641.919000	-0.274245
642.115000	0.150543
642.310000	0.199348
642.505000	0.060437
642.700000	0.027818
642.895000	-0.177267
643.090000	-0.013127
643.285000	0.233031
643.480000	0.217114
643.675000	0.274916
643.870000	0.465125
644.065000	0.375138
644.260000	0.069391
644.455000	0.268149
644.650000	0.028209
644.846000	0.177554
645.041000	-0.154257
645.236000	-0.420667
645.431000	-0.304714
645.626000	-0.421018
645.821000	-0.312729
646.016000	-0.121787
646.211000	0.254063
646.406000	0.237795
646.601000	0.103724
646.796000	0.128791
646.991000	-0.163942
647.186000	0.028502
647.381000	0.129180
647.577000	0.045340
647.772000	0.196485
647.967000	0.028605
648.162000	0.053888
648.357000	0.070823
648.552000	0.315205
648.747000	0.163597
648.942000	0.163702
649.137000	0.189593
649.332000	0.003390
649.527000	-0.055912
649.722000	0.215102
649.917000	0.122306
650.113000	-0.149305
650.308000	-0.166507
650.503000	-0.157927
650.698000	0.156680
650.893000	-0.081804
651.088000	-0.073331
651.283000	0.140146
651.478000	-0.056401
651.673000	0.131469
651.868000	0.020530
652.063000	0.311985
652.258000	0.432309
652.453000	0.422607
652.648000	0.097659
652.844000	0.080584
653.039000	0.132244
653.234000	-0.159773
653.429000	-0.357980
653.624000	-0.185737
653.819000	0.098243
654.014000	0.046545
654.209000	-0.091607
654.404000	-0.056979
654.599000	-0.160986
654.794000	-0.108867
654.989000	0.306769
655.184000	0.185666
655.380000	-0.109229
655.575000	-0.135251
655.770000	-0.048632
655.965000	0.055594
656.160000	-0.352858
656.355000	-0.126864
656.550000	-0.005230
656.745000	0.116874
656.940000	-0.162361
657.135000	-0.066325
657.330000	0.064606
657.525000	-0.319764
657.720000	-0.127780
657.915000	0.020985
658.111000	-0.022743
658.306000	0.371179
658.501000	0.100028
658.696000	-0.303471
658.891000	0.187783
659.086000	0.056137
659.281000	0.047443
659.476000	-0.102059
659.671000	-0.506726
659.866000	-0.251714
660.061000	0.109208
660.256000	0.118070
660.451000	-0.022929
660.646000	-0.270216
660.842000	-0.058349
661.037000	-0.146813
661.232000	-0.147023
661.427000	-0.049559
661.622000	-0.173775
661.817000	-0.253502
662.012000	-0.014217
662.207000	-0.218744
662.402000	-0.299524
662.597000	-0.085637
662.792000	-0.290542
662.987000	-0.325924
663.182000	-0.032126
663.378000	-0.085737
663.573000	-0.354535
663.768000	-0.318063
663.963000	-0.237913
664.158000	-0.237696
664.353000	0.317627
664.548000	0.290607
664.743000	-0.041306
664.938000	-0.229852
665.133000	-0.023381
665.328000	0.147698
665.523000	-0.068580
665.718000	-0.005415
665.913000	-0.086767
666.109000	-0.068844
666.304000	0.130399
666.499000	-0.086878
666.694000	0.012706
666.889000	0.457357
667.084000	0.140217
667.279000	-0.005460
667.474000	0.140212
667.669000	0.185691
667.864000	0.012759
668.059000	-0.115002
668.254000	-0.060316
668.449000	-0.261663
668.644000	-0.170328
668.840000	0.003658
669.035000	-0.234457
669.230000	-0.501752
669.425000	-0.115867
669.620000	-0.097468
669.815000	-0.125507
670.010000	-0.180710
670.205000	-0.060902
670.400000	0.012896
670.595000	-0.051739
670.790000	-0.199834
670.985000	-0.088908
671.180000	0.272582
671.376000	-0.107646
671.571000	-0.293892
671.766000	-0.257285
671.961000	-0.425241
672.156000	-0.416434
672.351000	-0.304459
672.546000	-0.342537
672.741000	-0.285757
672.936000	-0.080416
673.131000	0.416298
673.326000	0.050772
673.521000	-0.476162
673.716000	-0.494972
673.911000	-0.627161
674.107000	-0.052833
674.302000	0.277567
674.497000	0.088847
674.692000	-0.175930
674.887000	-0.223984
675.082000	-0.224322
675.277000	0.041882
675.472000	0.051467
675.667000	-0.015273
675.862000	-0.196740
676.057000	-0.206429
676.252000	-0.235596
676.447000	-0.322579
676.643000	-0.034534
676.838000	0.071120
677.033000	-0.169390
677.228000	0.225776
677.423000	0.061788
677.618000	-0.286544
677.813000	-0.479873
678.008000	-0.209649
678.203000	-0.093276
678.398000	-0.181051
678.593000	0.042844
678.788000	0.199285
678.983000	-0.142451
679.178000	-0.113237
679.374000	-0.220938
679.569000	-0.172429
679.764000	-0.182766
679.959000	-0.330949
680.154000	-0.242351
680.349000	-0.411250
680.544000	-0.361336
680.739000	-0.292382
680.934000	-0.292677
681.129000	-0.372819
681.324000	-0.522194
681.519000	-0.215113
681.714000	-0.274964
681.909000	-0.433835
682.105000	-0.564774
682.300000	0.064109
682.495000	0.124148
682.690000	0.134465
682.885000	-0.126539
683.080000	-0.267879
683.275000	-0.368770
683.470000	0.084739
683.665000	0.327567
683.860000	0.642086
684.055000	0.338453
684.250000	-0.462531
684.445000	-0.390906
684.641000	0.237687
684.836000	-0.219768
685.031000	-0.343096
685.226000	-0.026585
685.421000	0.321969
685.616000	-0.108690
685.811000	-0.232291
686.006000	-0.026721
686.201000	-0.170833
686.396000	-0.646694
686.591000	-0.679046
686.786000	-0.109898
686.981000	0.045622
687.176000	0.004158
687.372000	-0.266384
687.567000	0.066626
687.762000	-0.016702
687.957000	-0.027140
688.152000	-0.215494
688.347000	-0.341639
688.542000	-0.342488
688.737000	-0.730877
688.932000	-0.868865
689.127000	-0.385530
689.322000	-0.016902
689.517000	-0.228126
689.712000	-0.419710
689.908000	-0.579277
690.103000	-0.559141
690.298000	-0.208384
690.493000	-0.187610
690.688000	-0.476008
690.883000	-0.349131
691.078000	0.089990
691.273000	0.272144
691.468000	-0.124528
691.663000	-0.081898
691.858000	0.025867
692.053000	-0.103463
692.248000	-0.049627
692.443000	-0.038837
692.639000	-0.222694
692.834000	-0.114875
693.029000	0.600608
693.224000	0.450961
693.419000	-0.399045
693.614000	-0.432571
693.809000	-0.257984
694.004000	-0.346088
694.199000	-0.554034
694.394000	-0.314212
694.589000	-0.512511
694.784000	-0.424957
694.979000	-0.193769
695.174000	-0.161148
695.370000	0.345992
695.565000	0.214286
695.760000	-0.338770
695.955000	-0.017756
696.150000	0.104351
696.345000	-0.296437
696.540000	-0.107172
696.740000	-0.174033
696.940000	-0.006699
697.140000	0.038155
697.340000	-0.265298
697.539000	0.026994
697.739000	-0.108018
697.939000	-0.153132
698.139000	-0.446348
698.339000	-1.047649
698.539000	-0.753062
698.739000	-0.653047
698.939000	-0.348447
699.138000	-0.508707
699.338000	0.084116
699.538000	0.312645
699.738000	-0.270075
699.938000	-0.224488
700.138000	-0.305179
700.338000	-0.547686
700.538000	-0.445236
700.737000	-0.387436
700.937000	-0.800167
701.137000	-0.628681
701.337000	-0.226853
701.537000	0.027839
701.737000	-0.203896
701.937000	-0.239191
702.137000	-0.018579
702.337000	-0.146554
702.536000	-0.310023
702.736000	-0.497101
702.936000	-0.789992
703.136000	-0.288332
703.336000	-0.335139
703.536000	-0.430075
703.736000	-0.666893
703.936000	-0.653754
704.135000	-0.535904
704.335000	-0.313486
704.535000	-0.657045
704.735000	-0.752353
704.935000	-0.018887
705.135000	-0.149459
705.335000	-0.566510
705.535000	-0.161967
705.735000	0.028577
705.934000	0.004760
706.134000	-0.435728
706.334000	-0.365162
706.534000	-0.389588
706.734000	-0.354017
706.934000	-0.521429
707.134000	-0.569414
707.334000	-0.558638
707.533000	-0.283438
707.733000	-0.427249
707.933000	-0.487743
708.133000	-0.079192
708.333000	-0.007237
708.533000	-0.224754
708.733000	-0.019331
708.933000	-0.357935
709.132000	-0.370747
709.332000	-0.456329
709.532000	-0.445174
709.732000	-0.213760
709.932000	-0.762126
710.132000	-0.871151
710.332000	-0.907236
710.532000	-0.348136
710.732000	-0.056147
710.931000	-0.263844
711.131000	-0.375240
711.331000	-0.240535
711.531000	-0.425338
711.731000	-0.660565
711.931000	-0.562905
712.131000	-0.401945
712.331000	-0.069068
712.530000	-0.216807
712.730000	-0.550855
712.930000	-0.340773
713.130000	-0.069385
713.330000	-0.491256
713.530000	-0.293846
713.730000	0.366230
713.930000	-0.032377
714.129000	-0.505058
714.329000	-0.706355
714.529000	-0.356650
714.729000	0.017494
714.929000	-0.119965
715.129000	-0.445608
715.329000	-0.521193
715.529000	-0.246568
715.729000	0.318931
715.928000	0.030211
716.128000	-0.183897
716.328000	-0.298141
716.528000	-0.399661
716.728000	-0.273252
716.928000	-0.412449
717.128000	-0.147089
717.328000	-0.324557
717.527000	-0.502658
717.727000	-0.401502
717.927000	-0.517513
718.127000	-0.556071
718.327000	-0.876504
718.527000	-0.595111
718.727000	-0.186623
718.927000	-0.545518
719.127000	-0.894854
719.326000	-0.622320
719.526000	0.017960
719.726000	-0.033424
719.926000	-0.549685
720.126000	-0.794979
720.326000	-0.381946
720.526000	-0.446547
720.726000	-0.434951
720.925000	-0.098444
721.125000	-0.475844
721.325000	-0.254515
721.525000	-0.177030
721.725000	-0.437416
721.925000	-0.438648
722.125000	-0.490909
722.325000	-0.216708
722.524000	-0.361403
722.724000	-0.728950
722.924000	-1.017320
723.124000	-0.861072
723.324000	-0.283815
723.524000	-0.218315
723.724000	-0.652904
723.924000	-0.496719
724.124000	-0.272232
724.323000	-0.060869
724.523000	-0.219465
724.723000	-0.021199
724.923000	-0.087471
725.123000	-0.193699
725.323000	-0.007974
725.523000	-0.207732
725.723000	-0.513464
725.922000	-0.660532
726.122000	-0.381300
726.322000	-0.489273
726.522000	-0.636945
726.722000	0.259296
726.922000	-0.181651
727.122000	-0.262702
727.322000	0.085890
727.521000	0.032288
727.721000	-0.142814
727.921000	-0.102400
728.121000	-0.493012
728.321000	-0.750327
728.521000	-0.400477
728.721000	-0.292737
728.921000	-0.102964
729.121000	0.616087
729.320000	0.073360
729.520000	-0.470091
729.720000	-0.743044
729.920000	-0.732909
730.120000	-0.430991
730.320000	-0.281651
730.520000	-0.514293
730.720000	-0.543355
730.919000	-0.611846
731.119000	-0.063221
731.319000	-0.627734
731.519000	-0.889168
731.719000	-0.462828
731.919000	-0.366602
732.119000	-0.974624
732.319000	-0.977683
732.519000	-0.534826
732.718000	-1.007236
732.918000	-0.994216
733.118000	-0.370281
733.318000	0.033505
733.518000	-0.455145
733.718000	-0.987053
733.918000	-1.001619
734.118000	-0.805490
734.317000	-0.387536
734.517000	-0.555260
734.717000	-0.388864
734.917000	0.090375
735.117000	0.048063
735.317000	-0.305264
735.517000	0.189892
735.717000	0.474713
735.916000	-0.392337
736.116000	-0.605037
736.316000	-0.337253
736.516000	-0.208574
736.716000	-0.494543
736.916000	-1.257187
737.116000	-0.715298
737.316000	-0.023070
737.516000	-0.225381
737.715000	-0.080958
737.915000	-0.558282
738.115000	-0.850239
738.315000	-0.516909
738.515000	-1.053943
738.715000	-0.665868
738.915000	0.166690
739.115000	-0.404233
739.314000	-0.418502
739.514000	0.152729
739.714000	0.212005
739.914000	-0.215578
740.114000	-0.497054
740.314000	-0.260555
740.514000	0.465566
740.714000	-0.351101
740.913000	-1.200847
741.113000	-0.531229
741.313000	-0.068642
741.513000	-0.532725
741.713000	-0.339099
741.913000	0.021105
742.113000	-0.385341
742.313000	-0.808529
742.513000	-0.597903
742.712000	-0.584692
742.912000	-0.948481
743.112000	-0.890877
743.312000	-0.968497
743.512000	-0.512814
743.712000	-0.101054
743.912000	-0.990706
744.112000	-1.252219
744.311000	-1.286379
744.511000	-0.780006
744.711000	-0.179261
744.911000	-0.844972
745.111000	-1.000971
745.311000	-0.366384
745.511000	-0.568989
745.711000	-0.756256
745.911000	-0.523522
746.110000	-0.866718
746.310000	-1.075679
746.510000	-0.760424
746.710000	-0.150896
746.910000	-0.088101
747.110000	-0.671277
747.310000	-1.098653
747.510000	-0.991919
747.709000	-0.929291
747.909000	-0.852180
748.109000	-0.185050
748.309000	-0.537102
748.509000	-0.682037
748.709000	-0.684565
748.909000	-0.877129
749.109000	-0.816419
749.308000	0.038763
749.508000	-0.333935
749.708000	-0.609716
749.908000	0.038927
750.108000	-0.302579
750.308000	-1.152506
750.508000	-0.238947
750.708000	-0.648318
750.908000	-0.961454
751.107000	-0.437773
751.307000	-0.157806
751.507000	-0.472123
751.707000	-0.026379
751.907000	-0.191717
752.107000	-0.474281
752.307000	-1.041605
752.507000	-0.643949
752.706000	-0.510141
752.906000	0.491177
753.106000	-0.378881
753.306000	-1.187217
753.506000	-0.077565
753.706000	-0.517005
753.906000	-0.398798
754.106000	-0.230120
754.305000	-0.399845
754.505000	-0.163075
754.705000	-0.317683
754.905000	-0.506309
755.105000	-0.095930
755.305000	-1.091011
755.505000	-0.818895
755.705000	-0.458189
755.905000	-0.666891
756.104000	-1.013305
756.304000	-1.258763
756.504000	-1.417725
756.704000	-0.482016
756.904000	-0.237380
757.104000	-0.620499
757.304000	-0.498968
757.504000	-0.098297
757.703000	-0.747624
757.903000	-0.432767
758.103000	-0.151602
758.303000	-0.417195
758.503000	-0.613265
758.703000	-0.703525
758.903000	-1.023766
759.103000	-0.616672
759.303000	-0.476364
759.502000	-0.549728
759.702000	-0.100565
759.902000	-0.498174
760.102000	-0.282251
760.302000	-0.410279
760.502000	-0.191857
760.702000	-0.047127
760.902000	-0.483167
761.101000	-0.812452
761.301000	-1.160595
761.501000	-0.649850
761.701000	-0.834065
761.901000	-0.452299
762.101000	0.154774
762.301000	-0.287441
762.501000	-0.711818
762.700000	-0.826251
762.900000	-0.752416
763.100000	-0.641952
763.300000	-0.625946
763.500000	-0.757100
763.703000	-0.735984
763.905000	-0.682814
764.108000	0.044934
764.311000	-0.179760
764.513000	-0.742406
764.716000	-0.726589
764.919000	-0.388284
765.121000	-0.803268
765.324000	-1.089373
765.527000	-1.019131
765.729000	-0.981073
765.932000	-0.125691
766.135000	-0.163731
766.337000	-0.335251
766.540000	-0.661238
766.743000	-0.492877
766.945000	-0.837768
767.148000	-1.128540
767.351000	-1.186149
767.553000	-0.282185
767.756000	-0.495316
767.958000	-0.804807
768.161000	-0.844231
768.364000	-1.216594
768.566000	-1.452981
768.769000	-0.637067
768.972000	-0.246194
769.174000	-0.540925
769.377000	-1.485907
769.580000	-1.607254
769.782000	-0.720273
769.985000	-0.880514
770.188000	-2.109551
770.390000	-1.085847
770.593000	0.385333
770.796000	-0.071558
770.998000	-0.409712
771.201000	-0.907889
771.404000	-0.749666
771.606000	-1.032881
771.809000	-0.932491
772.012000	-0.713748
772.214000	-1.416581
772.417000	-1.597337
772.620000	-0.512128
772.822000	-0.616897
773.025000	-0.899301
773.228000	-0.759571
773.430000	-0.598957
773.633000	-0.397359
773.836000	-0.783621
774.038000	-0.338271
774.241000	-0.501159
774.444000	-0.625307
774.646000	0.089841
774.849000	-0.012279
775.052000	-0.626106
775.254000	-0.463337
775.457000	-0.770159
775.659000	-0.607748
775.862000	-1.429368
776.065000	-1.102590
776.267000	-0.197818
776.470000	0.215261
776.673000	-0.654513
776.875000	-0.324061
777.078000	0.215698
777.281000	-0.512147
777.483000	0.279863
777.686000	0.217613
777.889000	-0.326771
778.091000	-0.033630
778.294000	-1.229959
778.497000	-1.420685
778.699000	-0.748769
778.902000	-0.455861
779.105000	-0.730272
779.307000	0.262090
779.510000	-0.627032
779.713000	-0.353014
779.915000	-0.610214
780.118000	-0.012814
780.321000	0.029937
780.523000	-0.698714
780.726000	-0.891982
780.929000	-0.934530
781.131000	-0.935975
781.334000	-1.456581
781.537000	-1.417441
781.739000	-0.964568
781.942000	-1.225082
782.145000	-1.296687
782.347000	-1.341045
782.550000	-0.928007
782.753000	-1.302605
782.955000	-1.043163
783.158000	-0.779721
783.361000	-0.759689
783.563000	-1.001374
783.766000	-0.739767
783.968000	1.442116
784.171000	1.116454
784.374000	-0.146215
784.576000	-0.434087
784.779000	-0.499741
784.982000	-0.035584
785.184000	-0.773673
785.387000	-0.170199
785.590000	0.546137
785.792000	0.188727
785.995000	-0.036003
786.198000	0.189324
786.400000	-0.466255
786.603000	-0.308600
786.806000	-0.375511
787.008000	-0.058809
787.211000	-0.444930
787.414000	-1.676473
787.616000	-1.499896
787.819000	-1.182576
788.022000	-1.826747
788.224000	-0.980063
788.427000	-1.279867
788.630000	-0.614459
788.832000	-0.475344
789.035000	-1.050542
789.238000	-1.286704
789.440000	-1.061439
789.643000	0.218352
789.846000	-0.549765
790.048000	-0.551097
790.251000	-0.107443
790.454000	-0.317022
790.656000	0.149737
790.859000	-0.764490
791.062000	-1.259166
791.264000	-0.694787
791.467000	-1.098448
791.669000	-1.524965
791.872000	-0.678512
792.075000	-1.222756
792.277000	-1.246654
792.480000	-1.467895
792.683000	-1.701530
792.885000	-1.798326
793.088000	-1.327429
793.291000	-1.258946
793.493000	-1.596932
793.696000	-0.710026
793.899000	-0.423341
794.101000	-0.785963
794.304000	-1.053541
794.507000	-0.716309
794.709000	-0.330028
794.912000	-1.037924
795.115000	-1.284034
795.317000	-0.722375
795.520000	-0.504933
795.723000	-0.900730
795.925000	-1.123861
796.128000	-1.516250
796.331000	-0.903850
796.533000	-1.425837
796.736000	-0.860795
796.939000	-0.962607
797.141000	-0.965147
797.344000	-0.015017
797.547000	-0.140216
797.749000	-0.441311
797.952000	-0.871981
798.155000	-1.699918
798.357000	-1.583664
798.560000	-1.185549
798.763000	-0.142323
798.965000	-0.497658
799.168000	-0.600969
799.371000	-0.627165
799.573000	-1.064109
799.776000	-1.552443
799.978000	-1.660660
800.181000	-0.839647
800.384000	1.067948
800.586000	0.346477
800.789000	-1.101011
800.992000	-1.332715
801.194000	-1.413313
801.397000	-1.546725
801.600000	-1.343692
801.802000	0.349464
802.005000	0.141277
802.208000	-1.511261
802.410000	-0.461378
802.613000	-0.595066
802.816000	-0.912094
803.018000	-1.522441
803.221000	-1.313438
803.424000	0.355578
803.626000	-0.308292
803.829000	-1.002476
804.032000	0.545334
804.234000	1.159814
804.437000	-0.177137
804.640000	-0.686502
804.842000	-0.822462
805.045000	-0.880577
805.248000	-0.205672
805.450000	-0.502864
805.653000	-1.213436
805.856000	-1.375175
806.058000	0.010904
806.261000	-0.781498
806.464000	-0.563460
806.666000	-0.153416
806.869000	-0.430113
807.072000	-2.139305
807.274000	-2.444161
807.477000	-1.814613
807.679000	-1.179372
807.882000	-1.764800
808.085000	-1.106246
808.287000	-0.771783
808.490000	-1.809884
808.693000	-1.334539
808.895000	-0.578202
809.098000	-0.241502
809.301000	-0.552241
809.503000	-0.441445
809.706000	-0.500759
809.909000	-0.273096
810.111000	0.125345
810.314000	-0.616733
810.517000	-0.671647
810.719000	-1.619892
810.922000	-1.310599
811.125000	-0.390040
811.327000	0.357658
811.530000	0.214287
811.735000	-1.029340
811.940000	-1.698154
812.146000	-1.268789
812.351000	-0.279388
812.556000	-1.126980
812.761000	-1.833493
812.967000	-0.252972
813.172000	-0.017631
813.377000	-0.135587
813.582000	0.130242
813.788000	-0.733200
813.993000	-1.861104
814.198000	-0.970151
814.403000	-1.742922
814.609000	-0.736274
814.814000	-0.529141
815.019000	0.582191
815.224000	0.041992
815.429000	-1.165476
815.635000	-0.775386
815.840000	-0.836870
816.045000	-1.023441
816.250000	-0.323392
816.456000	-1.301892
816.661000	-1.952585
816.866000	-1.772266
817.071000	-1.863398
817.277000	-2.649101
817.482000	-1.816654
817.687000	-1.474705
817.892000	-1.171488
818.097000	-0.393790
818.303000	0.700063
818.508000	1.260150
818.713000	7.680818
818.918000	4.053020
819.124000	0.703409
819.329000	-1.091130
819.534000	-1.600454
819.739000	-1.189369
819.945000	-0.877166
820.150000	-0.978037
820.355000	-0.979938
820.560000	-0.019163
820.766000	-0.659607
820.971000	-0.695616
821.176000	-2.053177
821.381000	-3.206077
821.586000	-1.541405
821.792000	-0.214472
821.997000	-0.572458
822.202000	-0.898602
822.407000	-1.619776
822.613000	-1.950430
822.818000	-1.299307
823.023000	-0.151114
823.228000	-0.383530
823.434000	-0.218042
823.639000	-0.218510
823.844000	-0.517840
824.049000	0.312262
824.255000	0.013331
824.460000	-0.790186
824.665000	-0.724227
824.870000	-0.020186
825.075000	-0.424433
825.281000	-0.189205
825.486000	0.319478
825.691000	-2.028692
825.896000	-2.919395
826.102000	-0.805380
826.307000	-1.149435
826.512000	-1.703131
826.717000	-1.467281
826.923000	-1.609637
827.128000	-1.059289
827.333000	-1.797798
827.538000	-1.035157
827.744000	0.329531
827.949000	-0.965726
828.154000	-1.215561
828.359000	-0.407325
828.564000	-1.397500
828.770000	-2.005696
828.975000	0.156273
829.180000	-0.092811
829.385000	-2.162397
829.591000	-1.598161
829.796000	-1.065962
830.001000	-1.031918
830.206000	-1.722880
830.412000	-2.118860
830.617000	-2.160223
830.822000	-1.260346
831.027000	-1.148505
831.232000	-1.777088
831.438000	-1.826463
831.643000	-0.942610
831.848000	-0.575811
832.053000	-0.355698
832.259000	-0.467432
832.464000	-2.254436
832.669000	-2.337256
832.874000	-2.482560
833.080000	-2.006809
833.285000	0.202507
833.490000	-0.885658
833.695000	-2.024741
833.901000	-1.427024
834.106000	-2.265435
834.311000	-2.086291
834.516000	-0.558728
834.721000	-0.677335
834.927000	-0.332338
835.132000	-0.642748
835.337000	0.868614
835.542000	0.327667
835.748000	-1.385992
835.953000	0.171895
836.158000	-0.101823
836.363000	-0.141552
836.569000	0.134724
836.774000	-1.333734
836.979000	-1.295613
837.184000	-1.298758
837.390000	-1.979630
837.595000	-1.464689
837.800000	-0.505395
838.005000	-0.790985
838.210000	-0.549085
838.416000	-1.280758
838.621000	-1.202925
838.826000	-1.202189
839.031000	-1.698238
839.237000	-1.834315
839.442000	-2.537544
839.647000	-2.821681
839.852000	-2.544681
840.058000	-2.097827
840.263000	-1.774830
840.468000	-2.193662
840.673000	-1.568251
840.878000	-1.235745
841.084000	-1.831067
841.289000	-1.077827
841.494000	2.051974
841.699000	2.228909
841.905000	0.145004
842.110000	-0.068606
842.315000	-1.830524
842.520000	-1.227710
842.726000	-1.144585
842.931000	-1.831571
843.136000	-1.325151
843.341000	-2.382120
843.547000	-1.637076
843.752000	-1.203059
843.957000	-2.619186
844.162000	-2.145916
844.367000	-1.177074
844.573000	-1.182141
844.778000	-0.913074
844.983000	-0.293256
845.188000	-0.160778
845.394000	-1.874663
845.599000	-1.915014
845.804000	-1.154732
846.009000	-0.753947
846.215000	-1.715650
846.420000	-1.949040
846.625000	-0.991465
846.830000	-0.164650
847.036000	-1.636093
847.241000	-2.012252
847.446000	-0.443011
847.651000	-1.603405
847.856000	-1.664689
848.062000	-1.622728
848.267000	-0.450369
848.472000	-2.193752
848.677000	-3.002409
848.883000	-0.923325
849.088000	0.304547
849.293000	-1.175218
849.498000	-2.271100
849.704000	-1.751158
849.909000	-2.235396
850.114000	-2.427352
850.319000	-1.230815
850.524000	-0.850838
850.730000	-0.466727
850.935000	-1.493666
851.140000	-0.812426
851.345000	-1.252720
851.551000	-0.323939
851.756000	-0.029607
851.961000	-1.464518
852.166000	-1.861300
852.372000	-1.072030
852.577000	-0.079990
852.782000	-1.188799
852.987000	-0.833809
853.193000	-0.383120
853.398000	0.070596
853.603000	-2.051851
853.808000	-3.569869
854.013000	-1.404464
854.219000	0.173328
854.424000	1.555769
854.629000	0.635991
854.834000	-1.011987
855.040000	-1.018470
855.245000	-0.704332
855.450000	-2.405944
855.655000	-3.662453
855.861000	-3.059250
856.066000	-1.294688
856.271000	-1.402201
856.476000	0.444325
856.682000	-0.934551
856.887000	-3.745525
857.092000	-2.690091
857.297000	0.608507
857.502000	-0.459953
857.708000	-1.907701
857.913000	-0.944769
858.118000	-1.332702
858.323000	-1.608289
858.529000	-1.660052
858.734000	-2.099750
858.939000	-1.178453
859.144000	-2.551007
859.350000	-3.044120
859.555000	-3.547933
859.760000	-1.468879
859.965000	0.574132
860.171000	-1.696576
860.376000	-0.033405
860.581000	-1.987339
860.786000	-4.742556
860.991000	-4.538025
861.197000	-3.016003
861.402000	-1.613900
861.607000	-0.767939
861.812000	-2.415807
862.018000	-3.165121
862.223000	-2.258540
862.428000	-2.386594
862.633000	-0.091834
862.839000	-1.074262
863.044000	-1.956826
863.249000	-2.764648
863.454000	-1.197653
863.659000	-1.492864
863.865000	-3.375644
864.070000	-2.796912
864.275000	-3.095876
864.480000	-4.115187
864.686000	-5.257940
864.891000	-3.896255
865.096000	-1.229135
865.301000	-0.514094
865.507000	-0.096208
865.712000	-0.817714
865.917000	-2.093734
866.122000	-0.946562
866.328000	-4.064010
866.533000	-4.183131
866.738000	-0.708254
866.943000	-0.954487
867.148000	0.024612
867.354000	-2.021589
867.559000	-3.200741
867.764000	-0.536064
867.969000	0.087709
868.175000	-2.847159
868.380000	-3.421056
868.585000	-5.056708
868.790000	-2.367103
868.996000	-2.572861
869.201000	-4.040951
869.406000	-4.441247
869.611000	-3.936321
869.817000	-3.229813
870.022000	2.460364
870.227000	-0.359684
870.432000	-3.136911
870.637000	-1.201919
870.843000	-1.598871
871.048000	-3.095245
871.253000	-1.860824
871.458000	-1.870269
871.664000	-2.277018
871.869000	-3.746840
872.074000	-3.625331
872.279000	-2.495362
872.485000	-3.045793
872.690000	-3.260248
872.895000	-2.330675
873.100000	-3.277593
873.306000	-3.223801
873.511000	-1.814088
873.716000	-1.066233
873.921000	-4.131095
874.126000	-4.615619
874.332000	-3.557878
874.537000	-1.288835
874.742000	-2.320704
874.947000	-1.983740
875.153000	1.288225
875.358000	-1.235104
875.563000	-1.935073
875.768000	-3.492116
875.974000	-4.072025
876.179000	-2.238314
876.384000	-1.252714
876.589000	-2.844147
876.794000	-2.775481
877.000000	-3.785251
877.205000	-4.139812
877.410000	-1.415622
877.615000	-3.504229
877.821000	-5.208395
878.026000	-2.518144
878.231000	-2.735859
878.436000	-4.198140
878.642000	-3.493280
878.847000	-2.250679
879.052000	-1.219216
879.257000	-3.156033
879.463000	-3.753891
879.668000	-3.977661
879.873000	-2.056351
880.078000	-3.331084
880.283000	-4.693673
880.489000	-5.068457
880.694000	-4.638662
880.899000	-3.080363
881.104000	-1.493110
881.310000	1.173128
881.515000	0.639153
881.720000	1.174599
881.925000	3.328900
882.131000	4.633137
882.336000	-0.355570
882.541000	-3.708308
882.746000	-2.708831
882.952000	-3.565869
883.157000	-3.496263
883.362000	-4.757826
883.567000	-6.196873
883.772000	-5.219965
883.978000	-2.596908
884.183000	-0.127745
884.388000	-1.242605
884.593000	-4.032127
884.799000	0.032017
885.004000	-0.454571
885.209000	-1.023224
885.414000	-1.829016
885.620000	-5.265888
885.825000	-1.609181
886.030000	-2.179618
886.235000	-5.160983
886.440000	-3.375091
886.646000	-5.888498
886.851000	-6.169592
887.056000	-0.723213
887.261000	-0.723792
887.467000	-4.613943
887.672000	-1.157092
887.877000	-1.505050
888.082000	-5.035054
888.288000	-6.386424
888.493000	-8.570560
888.698000	-5.506452
888.903000	-0.572892
889.109000	-4.816184
889.314000	-2.218784
889.519000	-2.469374
889.724000	1.331574
889.929000	0.294327
890.135000	-2.308873
890.340000	-3.637817
890.545000	-4.422829
890.750000	-6.622611
890.956000	-4.095782
891.161000	-1.720200
891.366000	-3.661357
891.571000	-1.199792
891.777000	-0.936004
891.982000	-0.674375
892.187000	-1.390177
892.392000	-0.586753
892.598000	-1.931244
892.803000	-2.760115
893.008000	-2.847491
893.213000	-3.019715
893.418000	-4.127069
893.624000	-3.965855
893.829000	-5.787559
894.034000	-3.064096
894.239000	-1.979466
894.445000	-4.260624
894.650000	-4.373990
894.855000	-3.919419
895.060000	-4.096581
895.266000	-3.013495
895.471000	-3.940204
895.676000	0.037126
895.881000	-0.149784
896.087000	-2.677904
896.292000	-4.957135
896.497000	-0.435642
896.702000	-1.943101
896.907000	-5.724933
897.113000	0.986126
897.318000	1.364715
897.523000	0.133030
897.728000	-1.011107
897.934000	-2.909451
898.139000	-2.917473
898.344000	-1.982506
898.549000	-2.864876
898.755000	-2.675086
898.960000	-3.276736
899.165000	-6.790576
899.370000	-3.390031
899.575000	1.021570
899.781000	-2.718786
899.986000	-4.098093
900.191000	-2.934577
900.396000	-3.831290
900.602000	-3.854290
900.807000	-2.976510
901.012000	-1.781344
901.217000	-1.481374
901.423000	-4.610896
901.628000	-5.235061
901.833000	-1.998415
902.038000	-0.575414
902.244000	-4.672654
902.449000	-4.906317
902.654000	-4.958028
902.859000	-1.828928
903.064000	-0.480307
903.270000	-1.634724
903.475000	-4.782089
903.680000	-7.710583
903.885000	-6.399267
904.091000	-4.097075
904.296000	-5.285563
904.501000	-3.487764
904.706000	-3.606318
904.912000	-0.390563
905.117000	-2.462139
905.322000	-3.909898
905.527000	-4.219724
905.733000	-4.878843
905.938000	-4.689225
906.143000	-5.191168
906.348000	-5.641284
906.553000	-0.853385
906.759000	-1.526156
906.964000	-3.112574
907.169000	-3.016696
907.374000	-7.196737
907.580000	-4.618610
907.785000	-3.078131
907.990000	29.560192
908.195000	18.393403
908.401000	-2.409504
908.606000	-10.302547
908.811000	-10.292308
909.016000	-3.003815
909.221000	-3.366450
909.427000	-5.634804
909.632000	-7.833796
909.837000	-4.401144
910.042000	-4.896285
910.248000	-6.496155
910.453000	-2.995800
910.658000	-4.368435
910.863000	-5.467109
911.069000	-7.455474
911.274000	-2.676911
911.479000	-1.571141
911.684000	-7.051417
911.890000	-5.345742
912.095000	-4.221558
912.300000	-7.288564
912.506000	-5.140130
912.711000	-3.537818
912.917000	-3.284384
913.123000	-4.571427
913.328000	-3.049221
913.534000	-2.164466
913.740000	8.455984
913.946000	3.351809
914.151000	-6.501394
914.357000	-8.798577
914.563000	-6.154787
914.768000	-8.466057
914.974000	-9.093749
915.180000	-8.503047
915.385000	-6.491482
915.591000	-5.310843
915.797000	0.055215
916.002000	1.445088
916.208000	-4.232762
916.414000	-4.838627
916.620000	-4.708831
916.825000	-0.787264
917.031000	-5.571318
917.237000	-9.265610
917.442000	-4.939814
917.648000	-8.000266
917.854000	-6.844626
918.059000	1.505749
918.265000	1.937669
918.471000	-4.447235
918.676000	-8.313796
918.882000	-8.812233
919.088000	-9.569001
919.294000	-12.777372
919.499000	-9.108199
919.705000	-1.601858
919.911000	-3.717356
920.116000	-1.923070
920.322000	-6.529438
920.528000	-5.948000
920.733000	-11.499577
920.939000	-13.272775
921.145000	-10.894719
921.350000	-7.229447
921.556000	-5.690464
921.762000	-8.227269
921.968000	-6.971561
922.173000	-7.984092
922.379000	-12.116525
922.585000	-5.495687
922.790000	-6.488538
922.996000	-8.685740
923.202000	-9.124961
923.407000	-9.686590
923.613000	-6.163297
923.819000	-2.975473
924.024000	-5.477374
924.230000	-1.792224
924.436000	-4.525919
924.642000	5.925870
924.847000	3.376590
925.053000	-5.668127
925.259000	-11.595440
925.464000	-4.486198
925.670000	-7.109067
925.876000	-10.553750
926.081000	-10.254288
926.287000	-3.318427
926.493000	-3.558516
926.698000	-5.019330
926.904000	-4.807804
927.110000	-6.836749
927.316000	-7.595969
927.521000	2.656173
927.727000	-4.980319
927.933000	-8.010596
928.138000	-10.123168
928.344000	-12.915484
928.550000	-6.620361
928.755000	-1.664420
928.961000	-8.421481
929.167000	-6.918174
929.372000	0.078041
929.578000	-3.268509
929.784000	-6.267522
929.990000	-5.499352
930.195000	-6.512801
930.401000	-6.360008
930.607000	-2.138563
930.812000	-2.566911
931.018000	-8.714594
931.224000	-13.599435
931.429000	-12.203022
931.635000	-14.046753
931.841000	-13.135056
932.046000	-7.703166
932.252000	-5.840635
932.458000	3.928951
932.664000	2.029775
932.869000	-2.075129
933.075000	-8.400570
933.281000	-9.182315
933.486000	-4.830655
933.692000	-4.178481
933.898000	-9.946669
934.103000	-4.213916
934.309000	-6.384281
934.515000	-3.432713
934.720000	-7.219309
934.926000	-0.380646
935.132000	-2.523810
935.338000	-6.883305
935.543000	-12.841122
935.749000	-10.497390
935.955000	-16.486924
936.160000	-16.427513
936.366000	-4.435789
936.572000	-5.294207
936.777000	-5.402567
936.983000	-0.946355
937.189000	-3.338215
937.394000	-8.216662
937.600000	-2.050214
937.806000	6.086750
938.012000	-7.066127
938.217000	-0.166846
938.423000	0.672144
938.629000	-9.411381
938.834000	-15.403009
939.040000	-15.448194
939.246000	-9.371173
939.451000	-15.310976
939.657000	-11.640857
939.863000	-19.854611
940.068000	-8.608873
940.274000	-9.576941
940.480000	-2.641056
940.686000	-3.314718
940.891000	-10.418659
941.097000	18.095225
941.303000	4.239679
941.508000	-11.011272
941.714000	-4.671646
941.920000	-16.402946
942.125000	-12.576546
942.331000	-11.653099
942.537000	1.766267
942.742000	5.749128
942.948000	-13.416572
943.154000	-14.060324
943.360000	-23.390276
943.565000	-7.280152
943.771000	2.177604
943.977000	6.893682
944.182000	-19.768522
944.388000	-18.499091
944.594000	1.854047
944.799000	9.156177
945.005000	-7.024967
945.211000	0.478841
945.416000	-2.639530
945.622000	-19.011072
945.828000	-10.417567
946.034000	-1.645416
946.239000	-0.215818
946.445000	-8.357845
946.651000	-22.065363
946.856000	-13.993890
947.062000	-5.177702
947.268000	-11.999353
947.473000	-22.088195
947.679000	-19.697376
947.885000	-7.454683
948.090000	6.699448
948.296000	14.217951
948.502000	-0.218956
948.708000	-12.368618
948.913000	-16.612873
949.119000	2.010686
949.325000	-10.655948
949.530000	-26.694610
949.736000	-29.575070
949.942000	-20.206986
950.147000	-17.371775
950.353000	-10.201514
950.559000	-10.578014
950.764000	11.348685
950.970000	5.036489
951.176000	-7.072069
951.382000	-9.054438
951.587000	-3.752634
951.793000	-1.810023
951.999000	-3.723734
952.204000	-15.118885
952.410000	-29.347221
952.616000	-11.015824
952.821000	-2.946280
953.027000	-11.106587
953.233000	-27.514397
953.438000	-24.129098
953.644000	4.139223
953.850000	-3.425105
954.056000	-15.535810
954.261000	-14.417409
954.467000	-4.302882
954.673000	0.567116
954.878000	-7.560435
955.084000	-5.534890
955.290000	-21.084693
955.495000	-24.015008
955.701000	-21.907317
955.907000	-8.157623
956.112000	-5.244723
956.318000	5.115576
956.524000	4.339911
956.730000	-1.949769
956.935000	-13.434585
957.141000	-17.143613
957.347000	-7.541137
957.552000	-10.529432
957.758000	-23.386255
957.964000	-27.517888
958.169000	9.304050
958.375000	1.482792
958.581000	-18.669265
958.786000	-27.972015
958.992000	-37.830128
959.198000	-11.021536
959.404000	0.625015
959.609000	-8.661665
959.815000	-20.549830
960.021000	-3.909643
960.226000	-7.154696
960.432000	-32.161784
960.638000	-21.244390
960.843000	-8.181994
961.049000	-11.199398
961.255000	-0.752548
961.460000	-13.074921
961.666000	-38.484404
961.872000	-24.416162
962.078000	-24.190375
962.283000	-33.043383
962.489000	-28.095016
962.695000	-24.834054
962.900000	-20.256223
963.106000	-7.678272
963.312000	-11.268185
963.517000	-28.917443
963.723000	-33.324075
963.929000	3.235741
964.134000	8.779954
964.340000	-21.736199
964.546000	-27.489949
964.752000	-26.703817
964.957000	-27.455968
965.163000	0.736577
965.369000	-13.645635
965.574000	-10.016835
965.780000	-11.642163
966.000000	-27.295065
966.220000	-14.977274
966.440000	-17.238632
966.661000	-1.426946
966.881000	-15.744653
967.101000	-29.709858
967.321000	-38.380099
967.541000	-5.912150
967.761000	-16.700524
967.981000	-12.742351
968.202000	-11.311627
968.422000	-8.459844
968.642000	-9.589136
968.862000	-13.327938
969.082000	-14.019827
969.302000	-2.821646
969.522000	-5.787810
969.743000	3.757386
969.963000	-21.961341
970.183000	-34.029832
970.403000	-29.946296
970.623000	-32.300684
970.843000	-8.430570
971.063000	-1.636601
971.284000	-29.511131
971.504000	-47.154180
971.724000	-20.971955
971.944000	-31.688984
972.164000	-51.348268
972.384000	-36.641916
972.604000	-57.522310
972.825000	-61.356672
973.045000	-41.000776
973.265000	26.321448
973.485000	18.643627
973.705000	-9.989894
973.925000	-22.643647
974.145000	-50.207458
974.365000	-21.768639
974.586000	-6.869401
974.806000	-25.086269
975.026000	1.724214
975.246000	-2.632567
975.466000	-25.854850
975.686000	-19.019773
975.906000	-22.617294
976.127000	-42.043727
976.347000	-34.026406
976.567000	-21.363158
976.787000	-12.437866
977.007000	-26.152464
977.227000	-42.709290
977.447000	-39.407173
977.668000	-61.456624
977.888000	-49.472431
978.108000	-28.972591
978.328000	-12.585108
978.548000	13.031380
978.768000	7.608434
978.988000	-14.882282
979.209000	-22.390406
979.429000	-30.985132
979.649000	-12.910661
979.869000	-37.246045
980.089000	-55.220689
980.309000	-44.921208
980.529000	-63.805029
980.750000	-42.969093
980.970000	-61.906684
981.190000	-39.244545
981.410000	-47.165333
981.630000	-42.212185
981.850000	-25.469759
982.070000	-35.815819
982.291000	-70.951110
982.511000	-54.404539
982.731000	-16.081740
982.951000	-50.251797
983.171000	-58.534977
983.391000	-32.591779
983.611000	6.290493
983.832000	-29.726253
984.052000	-58.642361
984.272000	-47.138521
984.492000	-29.156001
984.712000	-40.592475
984.932000	-68.304782
985.152000	-61.608850
985.373000	-39.144496
985.593000	-19.749186
985.813000	-22.687979
986.033000	-34.262713
986.253000	-5.150395
986.473000	-28.320364
986.693000	-48.892667
986.914000	-46.582344
987.134000	-4.130202
987.354000	-45.052979
987.574000	167.897500
987.794000	108.793050
988.014000	-48.141352
988.234000	-62.090241
988.455000	-25.531190
988.675000	-1.992932
988.895000	-26.554012
989.115000	-71.247202
989.335000	-51.516578
989.555000	-9.626144
989.775000	-52.688014
989.995000	-64.848621
990.216000	-41.566692
990.436000	-9.859996
990.656000	1.921011
990.876000	-26.941590
991.096000	-18.623152
991.316000	7.325652
991.536000	-7.993674
991.757000	-13.809094
991.977000	-78.994079
992.197000	-18.263055
992.417000	-16.487340
992.637000	-86.871931
992.857000	-112.419491
993.077000	-95.920008
993.298000	-71.892956
993.518000	-58.081676
993.738000	-106.234581
993.958000	-58.066951
994.178000	-79.901242
994.398000	-65.092494
994.618000	-83.423630
994.839000	-160.567090
995.059000	-77.415215
995.279000	17.901639
995.499000	18.025726
995.719000	-6.011795
995.939000	-31.127248
996.159000	-72.561387
996.380000	-53.003675
996.600000	-82.631574
996.820000	-70.912010
997.040000	-12.021990
997.260000	-56.574156
997.480000	-48.540775
997.700000	-135.390433
997.921000	-30.595093
998.141000	72.421940
998.361000	8.167959
998.581000	-76.628141
998.801000	-114.728870
999.021000	-82.808976
999.241000	-42.160374
999.462000	-91.513795
999.682000	-148.939815
999.902000	-83.573325
1000.122000	-94.950327
1000.342000	-138.366847
1000.562000	-75.869312
1000.782000	-93.015171
1001.003000	-1137.232355
