Wavelength	Irradiance
(nm)	(mW/cm2/nm)

294.396000	0.000000
294.577000	0.000000
294.757000	0.000000
294.938000	-0.000000
295.118000	0.000000
295.299000	0.000000
295.479000	-0.000000
295.660000	-0.000000
295.840000	-0.000000
296.021000	-0.000000
296.202000	-0.000000
296.382000	-0.000000
296.563000	-0.000000
296.743000	-0.000000
296.924000	-0.000000
297.104000	-0.000000
297.285000	-0.000000
297.465000	-0.000000
297.646000	-0.000000
297.826000	-0.000000
298.007000	0.000000
298.187000	0.000000
298.368000	-0.000000
298.548000	-0.000000
298.729000	0.000000
298.909000	-0.000000
299.090000	-0.000000
299.270000	-0.000000
299.451000	-0.000000
299.631000	-0.000000
299.812000	-0.000000
299.992000	0.000000
300.173000	0.000000
300.353000	-0.000000
300.534000	0.000000
300.714000	0.000000
300.895000	0.000000
301.075000	-0.000000
301.256000	0.000000
301.436000	-0.000000
301.617000	-0.000000
301.797000	-0.000000
301.978000	-0.000000
302.159000	0.000000
302.339000	0.000000
302.520000	-0.000000
302.700000	-0.000000
302.881000	0.000000
303.061000	0.000000
303.242000	0.000000
303.422000	0.000000
303.603000	-0.000000
303.783000	-0.000000
303.964000	-0.000000
304.144000	-0.000000
304.325000	-0.000000
304.505000	0.000000
304.686000	-0.000000
304.866000	-0.000000
305.047000	-0.000000
305.227000	-0.000000
305.408000	-0.000000
305.588000	-0.000000
305.769000	-0.000000
305.949000	-0.000000
306.130000	-0.000000
306.310000	-0.000000
306.491000	-0.000000
306.671000	0.000000
306.852000	-0.000000
307.032000	-0.000000
307.213000	-0.000000
307.393000	-0.000000
307.574000	0.000000
307.755000	0.000000
307.935000	-0.000000
308.116000	-0.000000
308.296000	-0.000000
308.477000	-0.000000
308.657000	0.000000
308.838000	0.000000
309.018000	0.000000
309.199000	-0.000000
309.379000	-0.000000
309.560000	0.000000
309.740000	-0.000000
309.921000	0.000000
310.101000	-0.000000
310.282000	-0.000000
310.462000	-0.000000
310.643000	-0.000000
310.823000	-0.000000
311.004000	-0.000000
311.184000	-0.000000
311.365000	0.000000
311.545000	0.000000
311.726000	0.000000
311.906000	-0.000000
312.087000	0.000000
312.267000	-0.000000
312.448000	-0.000000
312.628000	-0.000000
312.809000	-0.000000
312.989000	-0.000000
313.170000	-0.000000
313.344000	-0.000000
313.518000	-0.000000
313.691000	-0.000000
313.865000	-0.000000
314.039000	-0.000000
314.213000	-0.000000
314.387000	-0.000000
314.560000	-0.000000
314.734000	-0.000000
314.908000	-0.000000
315.082000	-0.000000
315.255000	0.000000
315.429000	-0.000000
315.603000	-0.000000
315.777000	-0.000000
315.951000	0.000000
316.124000	-0.000000
316.298000	-0.000000
316.472000	-0.000000
316.646000	-0.000000
316.820000	-0.000000
316.993000	-0.000000
317.167000	-0.000000
317.341000	-0.000000
317.515000	-0.000000
317.688000	-0.000000
317.862000	-0.000000
318.036000	-0.000000
318.210000	-0.000000
318.384000	-0.000000
318.557000	-0.000000
318.731000	-0.000000
318.905000	-0.000000
319.079000	-0.000000
319.253000	-0.000000
319.426000	0.000000
319.600000	0.000000
319.774000	-0.000000
319.948000	-0.000000
320.122000	0.000000
320.295000	0.000000
320.469000	-0.000000
320.643000	-0.000000
320.817000	-0.000000
320.990000	-0.000000
321.164000	-0.000000
321.338000	-0.000000
321.512000	-0.000000
321.686000	-0.000000
321.859000	-0.000000
322.033000	0.000000
322.207000	-0.000000
322.381000	-0.000000
322.555000	0.000000
322.728000	-0.000000
322.902000	-0.000000
323.076000	-0.000000
323.250000	-0.000000
323.423000	-0.000000
323.597000	-0.000000
323.771000	-0.000000
323.945000	-0.000000
324.119000	-0.000000
324.292000	-0.000000
324.466000	-0.000000
324.640000	0.000000
324.814000	0.000000
324.988000	-0.000000
325.161000	-0.000000
325.335000	-0.000000
325.509000	-0.000000
325.683000	-0.000000
325.856000	-0.000000
326.030000	-0.000000
326.204000	-0.000000
326.378000	-0.000000
326.552000	-0.000000
326.725000	-0.000000
326.899000	-0.000000
327.073000	-0.000000
327.247000	-0.000000
327.421000	0.000000
327.594000	0.000000
327.768000	-0.000000
327.942000	-0.000000
328.116000	0.000000
328.289000	0.000000
328.463000	-0.000000
328.637000	0.000000
328.811000	-0.000000
328.985000	-0.000000
329.158000	-0.000000
329.332000	-0.000000
329.506000	0.000000
329.680000	-0.000000
329.854000	0.000000
330.027000	-0.000000
330.201000	-0.000000
330.375000	0.000000
330.549000	0.000000
330.723000	-0.000000
330.896000	-0.000000
331.070000	-0.000000
331.244000	-0.000000
331.418000	-0.000000
331.591000	0.000000
331.765000	-0.000000
331.939000	-0.000000
332.113000	-0.000000
332.287000	-0.000000
332.460000	0.000000
332.634000	0.000000
332.808000	-0.000000
332.982000	-0.000000
333.156000	-0.000000
333.329000	-0.000000
333.503000	-0.000000
333.677000	-0.000000
333.851000	-0.000000
334.024000	0.000000
334.198000	-0.000000
334.372000	-0.000000
334.546000	-0.000000
334.720000	-0.000000
334.893000	-0.000000
335.067000	0.000000
335.241000	0.000000
335.415000	-0.000000
335.589000	-0.000000
335.762000	-0.000000
335.936000	-0.000000
336.110000	-0.000000
336.284000	-0.000000
336.458000	-0.000000
336.631000	-0.000000
336.805000	-0.000000
336.979000	-0.000000
337.153000	-0.000000
337.326000	-0.000000
337.500000	-0.000000
337.674000	0.000000
337.848000	-0.000000
338.022000	0.000000
338.195000	-0.000000
338.369000	-0.000000
338.543000	-0.000000
338.717000	-0.000000
338.891000	0.000000
339.064000	0.000000
339.238000	-0.000000
339.412000	-0.000000
339.586000	-0.000000
339.759000	-0.000000
339.933000	-0.000000
340.107000	0.000000
340.281000	-0.000000
340.455000	-0.000000
340.628000	-0.000000
340.802000	-0.000000
340.976000	-0.000000
341.150000	-0.000000
341.324000	-0.000000
341.497000	-0.000000
341.671000	-0.000000
341.845000	-0.000000
342.019000	-0.000000
342.192000	-0.000000
342.366000	-0.000000
342.540000	-0.000000
342.714000	-0.000000
342.888000	-0.000000
343.061000	-0.000000
343.235000	-0.000000
343.409000	-0.000000
343.583000	-0.000000
343.757000	-0.000000
343.930000	-0.000000
344.104000	-0.000000
344.278000	0.000000
344.452000	0.000000
344.626000	-0.000000
344.799000	-0.000000
344.973000	-0.000000
345.147000	-0.000000
345.321000	-0.000000
345.494000	-0.000000
345.668000	0.000000
345.842000	0.000000
346.016000	-0.000000
346.190000	-0.000000
346.363000	0.000000
346.537000	-0.000000
346.711000	-0.000000
346.885000	-0.000000
347.059000	-0.000000
347.232000	-0.000000
347.406000	0.000000
347.580000	-0.000000
347.754000	-0.000000
347.927000	0.000000
348.101000	-0.000000
348.275000	-0.000000
348.449000	-0.000000
348.623000	-0.000000
348.796000	0.000000
348.970000	0.000000
349.144000	-0.000000
349.318000	-0.000000
349.492000	-0.000000
349.665000	-0.000000
349.839000	-0.000000
350.013000	-0.000000
350.187000	-0.000000
350.361000	-0.000000
350.534000	0.000000
350.708000	0.000000
350.882000	0.000000
351.056000	0.000000
351.229000	-0.000000
351.403000	-0.000000
351.577000	-0.000000
351.751000	-0.000000
351.925000	-0.000000
352.098000	-0.000000
352.272000	-0.000000
352.446000	-0.000000
352.620000	-0.000000
352.794000	-0.000000
352.967000	-0.000000
353.141000	0.000000
353.315000	0.000000
353.489000	-0.000000
353.662000	-0.000000
353.836000	-0.000000
354.010000	-0.000000
354.184000	-0.000000
354.358000	-0.000000
354.531000	-0.000000
354.705000	-0.000000
354.879000	-0.000000
355.053000	-0.000000
355.227000	0.000000
355.400000	-0.000000
355.574000	0.000000
355.748000	0.000000
355.922000	-0.000000
356.095000	-0.000000
356.269000	-0.000000
356.443000	-0.000000
356.617000	-0.000000
356.791000	-0.000000
356.964000	-0.000000
357.138000	-0.000000
357.312000	-0.000000
357.486000	-0.000000
357.660000	0.000000
357.833000	0.000000
358.007000	-0.000000
358.181000	-0.000000
358.355000	-0.000000
358.529000	-0.000000
358.702000	-0.000000
358.876000	-0.000000
359.050000	-0.000000
359.224000	-0.000000
359.397000	0.000000
359.571000	-0.000000
359.745000	-0.000000
359.919000	0.000000
360.093000	-0.180301
360.266000	-0.093274
360.440000	0.064733
360.614000	0.113499
360.788000	-0.053615
360.962000	-0.350319
361.135000	-0.157083
361.309000	-0.230446
361.483000	-0.327860
361.657000	-0.368179
361.830000	-0.376305
362.004000	-0.137932
362.178000	-0.411898
362.352000	-0.307644
362.526000	-0.088701
362.699000	-0.030837
362.873000	-0.369278
363.047000	-0.389732
363.221000	-0.334259
363.395000	-0.187101
363.568000	-0.214224
363.742000	-0.366380
363.916000	-0.354784
364.090000	-0.344112
364.263000	-0.178351
364.437000	-0.345790
364.611000	-0.148820
364.785000	0.001388
364.959000	-0.276633
365.132000	-0.388578
365.306000	-0.302052
365.480000	-0.258445
365.656000	-0.292104
365.831000	-0.225285
366.007000	-0.229109
366.183000	-0.097621
366.358000	-0.206922
366.534000	-0.224426
366.710000	-0.357151
366.886000	-0.340569
367.061000	-0.204215
367.237000	0.008447
367.413000	-0.160755
367.588000	-0.366024
367.764000	-0.377333
367.940000	-0.481914
368.115000	-0.405705
368.291000	-0.463530
368.467000	-0.359669
368.643000	0.080015
368.818000	-0.309029
368.994000	-0.402587
369.170000	-0.297128
369.345000	-0.362945
369.521000	-0.361059
369.697000	-0.132189
369.872000	-0.218514
370.048000	-0.433118
370.224000	-0.335101
370.399000	-0.527443
370.575000	-0.410382
370.751000	-0.430608
370.927000	-0.468347
371.102000	-0.439449
371.278000	-0.318274
371.454000	-0.203392
371.629000	-0.065003
371.805000	-0.138737
371.981000	0.038829
372.156000	0.186856
372.332000	0.059517
372.508000	-0.072374
372.683000	-0.218769
372.859000	-0.138998
373.035000	-0.058289
373.211000	0.301437
373.386000	0.016458
373.562000	-0.505320
373.738000	-0.709930
373.913000	-0.740031
374.089000	-0.742048
374.265000	-0.177682
374.440000	-0.058749
374.616000	-0.133777
374.792000	-0.239817
374.968000	0.199160
375.143000	-0.123830
375.319000	-0.506403
375.495000	-0.528995
375.670000	-0.329040
375.846000	-0.117035
376.022000	-0.282924
376.197000	-0.421635
376.373000	-0.567913
376.549000	-0.515042
376.724000	-0.570893
376.900000	-0.245425
377.076000	-0.173396
377.252000	0.037138
377.427000	0.116431
377.603000	-0.209534
377.779000	-0.398845
377.954000	-0.485959
378.130000	-0.234537
378.306000	-0.388432
378.481000	-0.322125
378.657000	-0.270408
378.833000	-0.412786
379.009000	-0.302717
379.184000	-0.121115
379.360000	-0.027155
379.536000	-0.135461
379.711000	-0.262239
379.887000	-0.409950
380.063000	-0.469866
380.238000	-0.329351
380.414000	-0.055771
380.590000	-0.330648
380.765000	-0.286443
380.941000	-0.083977
381.117000	-0.140012
381.293000	-0.118520
381.468000	-0.305557
381.644000	-0.218071
381.820000	-0.246607
381.995000	-0.299114
382.171000	0.058955
382.347000	0.116332
382.522000	-0.241354
382.698000	-0.062521
382.874000	-0.104992
383.050000	-0.469886
383.225000	-0.034222
383.401000	0.301859
383.577000	-0.142637
383.752000	-0.394221
383.928000	-0.287601
384.104000	-0.222550
384.279000	-0.316737
384.455000	-0.047785
384.631000	-0.068967
384.806000	-0.418990
384.982000	-0.125413
385.158000	-0.325477
385.334000	-0.215532
385.509000	-0.307781
385.685000	-0.462515
385.861000	-0.284104
386.036000	-0.505467
386.212000	-0.662696
386.388000	-0.480264
386.563000	-0.402712
386.739000	-0.301356
386.915000	-0.492656
387.090000	-0.274944
387.266000	-0.012711
387.442000	0.093125
387.618000	-0.026597
387.793000	-0.443325
387.969000	-0.697103
388.145000	-0.540325
388.320000	-0.434759
388.496000	-0.400969
388.672000	-0.632434
388.847000	-0.193640
389.023000	-0.194886
389.199000	-0.491873
389.375000	-0.207003
389.550000	-0.432927
389.726000	-0.454757
389.902000	-0.500180
390.077000	-0.230970
390.253000	-0.144591
390.429000	-0.271302
390.604000	-0.074994
390.780000	-0.116078
390.956000	-0.334572
391.131000	-0.470791
391.307000	-0.169823
391.483000	-0.210829
391.659000	-0.362605
391.834000	-0.135393
392.010000	-0.278613
392.186000	-0.306248
392.361000	-0.183598
392.537000	-0.405729
392.713000	0.001347
392.888000	0.250913
393.064000	-0.208489
393.240000	-0.424028
393.416000	-0.448263
393.591000	-0.465019
393.767000	-0.480056
393.943000	-0.460640
394.118000	-0.105199
394.294000	0.141060
394.470000	0.034511
394.645000	-0.018524
394.821000	0.174334
394.997000	-0.137540
395.172000	-0.228901
395.348000	-0.328210
395.524000	-0.605626
395.700000	-0.469763
395.875000	-0.161928
396.051000	-0.259528
396.227000	-0.327157
396.402000	-0.394937
396.578000	-0.235830
396.754000	-0.378688
396.929000	-0.318294
397.105000	0.040379
397.281000	-0.102868
397.457000	-0.310301
397.632000	-0.326301
397.808000	-0.522304
397.984000	-0.666452
398.159000	-0.628657
398.335000	-0.303267
398.511000	0.169464
398.686000	-0.108550
398.862000	-0.332436
399.038000	-0.357184
399.213000	-0.158001
399.389000	-0.589133
399.565000	-0.184307
399.741000	0.129126
399.916000	0.040016
400.092000	0.206807
400.268000	-0.234407
400.443000	-0.288767
400.619000	0.097792
400.795000	0.007749
400.970000	-0.228113
401.146000	-0.344148
401.322000	0.020608
401.497000	0.329488
401.673000	-0.024580
401.849000	-0.224357
402.025000	-0.030815
402.200000	-0.331638
402.376000	-0.382688
402.552000	0.123378
402.727000	-0.101055
402.903000	-0.522080
403.079000	-0.356378
403.254000	0.097161
403.430000	0.071115
403.606000	-0.036888
403.782000	-0.252811
403.957000	-0.495592
404.133000	-0.592671
404.309000	-0.388183
404.484000	-0.151411
404.660000	-0.177352
404.841000	-0.343430
405.023000	-0.049519
405.204000	-0.227951
405.385000	-0.638370
405.566000	-0.501777
405.748000	-0.256079
405.929000	-0.089234
406.110000	-0.062637
406.292000	-0.346759
406.473000	-0.233435
406.654000	-0.407922
406.835000	-0.177139
407.017000	-0.157427
407.198000	-0.318873
407.379000	-0.343033
407.560000	-0.325268
407.742000	-0.264511
407.923000	-0.208711
408.104000	-0.499034
408.286000	-0.289461
408.467000	-0.219395
408.648000	-0.416115
408.829000	-0.528081
409.011000	-0.339454
409.192000	-0.518134
409.373000	-0.251760
409.555000	-0.068329
409.736000	-0.306674
409.917000	-0.339352
410.098000	-0.149129
410.280000	-0.266240
410.461000	-0.315443
410.642000	-0.172943
410.823000	0.169148
411.005000	0.100871
411.186000	-0.260447
411.367000	-0.460228
411.549000	-0.353958
411.730000	-0.073513
411.911000	0.057218
412.092000	-0.184785
412.274000	-0.337246
412.455000	-0.300943
412.636000	-0.109870
412.818000	-0.343057
412.999000	-0.499502
413.180000	-0.447230
413.361000	-0.381068
413.543000	-0.323833
413.724000	-0.420884
413.905000	-0.561604
414.087000	-0.446299
414.268000	-0.405028
414.449000	-0.430084
414.630000	-0.547622
414.812000	-0.613456
414.993000	-0.258239
415.174000	-0.101413
415.355000	-0.211367
415.537000	-0.518823
415.718000	-0.343816
415.899000	-0.421248
416.081000	-0.431536
416.262000	-0.214725
416.443000	-0.423587
416.624000	-0.428576
416.806000	-0.297829
416.987000	-0.034853
417.168000	-0.106323
417.350000	-0.428775
417.531000	-0.426197
417.712000	-0.337132
417.893000	-0.200543
418.075000	-0.117038
418.256000	-0.449354
418.437000	-0.254747
418.618000	0.007117
418.800000	-0.010658
418.981000	-0.328766
419.162000	-0.203717
419.344000	-0.028283
419.525000	-0.158769
419.706000	-0.265698
419.887000	-0.129031
420.069000	0.054396
420.250000	-0.176150
420.431000	-0.329037
420.613000	-0.241726
420.794000	-0.408388
420.975000	-0.104566
421.156000	-0.299001
421.338000	-0.245828
421.519000	-0.286937
421.700000	-0.352658
421.882000	-0.370284
422.063000	-0.192923
422.244000	0.352294
422.425000	0.089291
422.607000	-0.319350
422.788000	-0.406495
422.969000	-0.468226
423.150000	-0.380654
423.332000	-0.502562
423.513000	-0.239743
423.694000	-0.229188
423.876000	-0.287383
424.057000	-0.146070
424.238000	-0.034290
424.419000	-0.075894
424.601000	-0.271526
424.782000	-0.294942
424.963000	0.018795
425.145000	-0.028269
425.326000	-0.022284
425.507000	-0.016395
425.688000	-0.122413
425.870000	-0.300162
426.051000	-0.497631
426.232000	-0.421308
426.413000	-0.276228
426.595000	-0.298268
426.776000	-0.538747
426.957000	-0.352463
427.139000	-0.321627
427.320000	-0.352524
427.501000	-0.146767
427.682000	-0.140161
427.864000	-0.204825
428.045000	0.024792
428.226000	0.054501
428.408000	-0.312493
428.589000	-0.157940
428.770000	-0.186981
428.951000	-0.374501
429.133000	-0.507990
429.314000	-0.255976
429.495000	-0.295900
429.677000	-0.285257
429.858000	-0.268011
430.039000	-0.186305
430.220000	-0.092583
430.402000	-0.068928
430.583000	-0.379404
430.764000	-0.401220
430.945000	-0.255926
431.127000	-0.103264
431.308000	-0.287582
431.489000	-0.114973
431.671000	0.041980
431.852000	-0.161004
432.033000	-0.207359
432.214000	-0.062433
432.396000	-0.027675
432.577000	-0.195306
432.758000	-0.340664
432.940000	-0.334513
433.121000	-0.276345
433.302000	-0.286955
433.483000	-0.085111
433.665000	0.219796
433.846000	0.029914
434.027000	-0.244673
434.208000	-0.387081
434.390000	-0.399969
434.571000	-0.067645
434.752000	0.319797
434.934000	0.182226
435.115000	0.023828
435.296000	0.114564
435.477000	-0.202444
435.659000	-0.424128
435.840000	-0.167252
436.026000	-0.239503
436.211000	-0.345445
436.397000	-0.650407
436.582000	-0.539060
436.768000	-0.165814
436.953000	-0.187815
437.139000	-0.159684
437.325000	0.216392
437.510000	0.072856
437.696000	-0.020918
437.881000	-0.064854
438.067000	-0.310391
438.252000	-0.255936
438.438000	-0.310404
438.624000	-0.157395
438.809000	-0.102325
438.995000	-0.118515
439.180000	-0.177765
439.366000	-0.291275
439.551000	-0.231411
439.737000	-0.150004
439.923000	-0.085366
440.108000	-0.198565
440.294000	-0.197957
440.479000	-0.073971
440.665000	-0.110768
440.850000	-0.168407
441.036000	-0.073249
441.222000	-0.217478
441.407000	-0.370789
441.593000	-0.263407
441.778000	-0.067547
441.964000	0.069955
442.149000	-0.236520
442.335000	-0.335137
442.521000	-0.219330
442.706000	0.048078
442.892000	-0.144966
443.077000	-0.260557
443.263000	-0.129216
443.448000	-0.170129
443.634000	-0.242917
443.820000	0.119654
444.005000	0.021647
444.191000	-0.257210
444.376000	-0.276563
444.562000	-0.009196
444.747000	-0.024652
444.933000	-0.070672
445.119000	-0.172679
445.304000	-0.274346
445.490000	-0.126515
445.675000	-0.080565
445.861000	-0.300621
446.046000	-0.213240
446.232000	-0.141625
446.418000	-0.177089
446.603000	-0.212686
446.789000	-0.151464
446.974000	-0.116235
447.160000	-0.369803
447.345000	-0.312279
447.531000	-0.347346
447.717000	-0.095495
447.902000	0.001020
448.088000	0.041581
448.273000	-0.135200
448.459000	-0.134820
448.644000	-0.149992
448.830000	-0.236439
449.016000	-0.322056
449.201000	-0.326641
449.387000	-0.150552
449.572000	-0.084621
449.758000	-0.195306
449.943000	-0.245994
450.129000	-0.300242
450.315000	-0.319722
450.500000	-0.294922
450.686000	-0.139692
450.871000	-0.300776
451.057000	-0.149629
451.243000	-0.139425
451.428000	-0.224988
451.614000	-0.149303
451.799000	-0.134192
451.985000	-0.099099
452.170000	-0.014001
452.356000	-0.143903
452.542000	-0.174091
452.727000	-0.018950
452.913000	-0.138864
453.098000	-0.013985
453.284000	0.160765
453.469000	0.020994
453.655000	0.105787
453.841000	-0.028896
454.026000	-0.197419
454.212000	-0.063310
454.397000	-0.073301
454.583000	-0.373695
454.768000	-0.351784
454.954000	-0.107665
455.140000	-0.053248
455.325000	-0.289243
455.511000	-0.433995
455.696000	-0.345054
455.882000	-0.142053
456.067000	0.020726
456.253000	-0.156936
456.439000	-0.304943
456.624000	-0.358039
456.810000	-0.288390
456.995000	-0.205288
457.181000	-0.405574
457.366000	-0.179338
457.552000	-0.168895
457.738000	-0.091141
457.923000	-0.076732
458.109000	0.137367
458.294000	0.108032
458.480000	-0.033132
458.665000	-0.101042
458.851000	-0.270588
459.037000	-0.495186
459.222000	-0.326616
459.408000	-0.283267
459.593000	-0.190809
459.779000	-0.070727
459.964000	0.135001
460.150000	0.288705
460.336000	0.216548
460.521000	-0.027595
460.707000	-0.212652
460.892000	-0.259614
461.078000	-0.013296
461.263000	0.038764
461.449000	-0.160354
461.635000	-0.169661
461.820000	-0.079458
462.006000	0.052746
462.191000	0.038476
462.377000	-0.218949
462.562000	0.132352
462.748000	0.394176
462.934000	-0.106863
463.119000	-0.283653
463.305000	-0.105916
463.490000	-0.110026
463.676000	-0.138114
463.861000	-0.217853
464.047000	-0.180042
464.233000	-0.123542
464.418000	-0.160246
464.604000	-0.247194
464.789000	-0.058855
464.975000	0.010084
465.160000	-0.178138
465.346000	-0.274397
465.532000	-0.325345
465.717000	-0.260588
465.903000	-0.063211
466.088000	-0.154629
466.274000	-0.331351
466.459000	-0.295280
466.645000	0.124116
466.831000	-0.044438
467.016000	-0.039838
467.202000	-0.099132
467.387000	-0.148732
467.573000	-0.346846
467.758000	-0.089044
467.944000	-0.111479
468.130000	-0.197903
468.315000	-0.044303
468.501000	0.023424
468.686000	-0.156381
468.872000	-0.106987
469.057000	0.045839
469.243000	-0.017101
469.429000	-0.080046
469.614000	-0.142662
469.800000	-0.236880
469.985000	-0.142222
470.171000	-0.065944
470.356000	-0.128800
470.542000	-0.084401
470.728000	-0.052792
470.913000	-0.079239
471.099000	-0.034699
471.284000	-0.142473
471.470000	-0.160627
471.655000	-0.169626
471.841000	-0.128829
472.027000	-0.172634
472.212000	-0.008016
472.398000	0.032168
472.583000	-0.075138
472.769000	-0.070798
472.954000	-0.137796
473.140000	-0.235210
473.326000	-0.248894
473.511000	0.063210
473.697000	0.058828
473.882000	-0.187056
474.068000	-0.191896
474.253000	-0.338396
474.439000	-0.191377
474.625000	-0.043740
474.810000	-0.066103
474.996000	-0.079502
475.181000	-0.266106
475.367000	-0.003564
475.552000	0.242811
475.738000	-0.114931
475.924000	-0.173231
476.109000	-0.088366
476.295000	-0.200045
476.480000	-0.218130
476.666000	-0.182094
476.851000	-0.186458
477.037000	-0.156045
477.223000	-0.182231
477.408000	-0.253764
477.594000	-0.382965
477.779000	-0.262990
477.965000	-0.245185
478.151000	-0.356966
478.336000	-0.205064
478.522000	-0.253709
478.707000	-0.307277
478.893000	-0.173648
479.078000	-0.322134
479.264000	-0.380557
479.450000	-0.335814
479.635000	-0.164989
479.821000	-0.255105
480.006000	-0.169641
480.192000	-0.182932
480.377000	-0.147383
480.563000	-0.142749
480.749000	-0.349468
480.934000	-0.349094
481.120000	-0.146636
481.305000	0.005357
481.491000	-0.093239
481.676000	-0.057507
481.862000	-0.026118
482.048000	-0.187214
482.233000	-0.178045
482.419000	-0.200866
482.604000	-0.214536
482.790000	-0.232494
482.975000	-0.201262
483.161000	0.009854
483.347000	-0.016993
483.532000	-0.119869
483.718000	-0.407467
483.903000	-0.385570
484.089000	-0.250151
484.274000	-0.339275
484.460000	-0.268198
484.646000	-0.147117
484.831000	-0.232505
485.017000	-0.128864
485.202000	-0.146483
485.388000	0.076763
485.573000	0.072158
485.759000	-0.150933
485.945000	-0.052704
486.130000	-0.240110
486.316000	-0.168767
486.501000	-0.070356
486.687000	-0.283696
486.872000	-0.426375
487.058000	-0.244060
487.244000	-0.186278
487.429000	-0.363476
487.615000	-0.163550
487.800000	-0.101313
487.986000	-0.220446
488.171000	-0.016860
488.357000	-0.083131
488.543000	-0.175349
488.728000	-0.100484
488.914000	-0.144650
489.099000	-0.219489
489.285000	-0.280991
489.470000	-0.073807
489.656000	0.058034
489.842000	-0.003504
490.027000	0.062003
490.213000	-0.139083
490.398000	-0.507733
490.584000	-0.230698
490.769000	-0.165158
490.955000	-0.108171
491.141000	-0.099228
491.326000	-0.081533
491.512000	0.117908
491.697000	-0.068351
491.883000	-0.215523
492.068000	-0.250176
492.254000	-0.250622
492.440000	-0.202805
492.625000	-0.258369
492.811000	-0.227664
492.996000	-0.098175
493.182000	-0.157952
493.367000	-0.313361
493.553000	-0.373725
493.739000	-0.381762
493.924000	-0.205733
494.110000	-0.166468
494.295000	-0.311393
494.481000	-0.183297
494.666000	-0.209141
494.852000	-0.067606
495.038000	-0.118708
495.223000	-0.225796
495.409000	-0.314860
495.594000	-0.294014
495.780000	-0.178166
495.965000	-0.216745
496.151000	-0.088639
496.337000	-0.003406
496.522000	-0.232409
496.708000	-0.216227
496.893000	-0.045967
497.079000	-0.177460
497.264000	-0.253394
497.450000	-0.168712
497.636000	-0.003394
497.821000	-0.109181
498.007000	0.098181
498.192000	0.124032
498.378000	-0.139079
498.563000	-0.223956
498.749000	-0.109545
498.935000	-0.139056
499.120000	0.021992
499.306000	-0.109270
499.491000	-0.206122
499.677000	-0.075161
499.862000	-0.083923
500.048000	0.017833
500.234000	-0.007623
500.419000	-0.105226
500.605000	0.047564
500.790000	-0.050056
500.976000	-0.220091
501.161000	-0.343216
501.347000	-0.096844
501.533000	0.030602
501.718000	-0.169061
501.904000	-0.152424
502.089000	-0.067371
502.275000	0.009356
502.460000	-0.181489
502.646000	-0.151981
502.832000	0.034830
503.017000	0.030644
503.203000	-0.229302
503.388000	-0.358023
503.574000	-0.122721
503.759000	-0.071568
503.945000	-0.067423
504.131000	-0.148501
504.316000	-0.199586
504.502000	-0.110070
504.687000	-0.127475
504.873000	-0.230268
505.058000	-0.298712
505.244000	-0.358538
505.430000	-0.252050
505.615000	-0.089274
505.801000	-0.132433
505.986000	-0.247327
506.172000	-0.174690
506.358000	-0.157923
506.543000	-0.282220
506.729000	-0.050641
506.914000	-0.033548
507.100000	0.147599
507.285000	-0.128827
507.471000	-0.340276
507.657000	-0.059584
507.842000	-0.154361
508.028000	-0.327052
508.213000	-0.280289
508.399000	-0.198516
508.584000	-0.055536
508.770000	-0.137728
508.956000	-0.137836
509.141000	-0.072754
509.327000	0.005207
509.512000	-0.137451
509.698000	-0.150647
509.883000	-0.042542
510.069000	-0.077478
510.255000	-0.086222
510.440000	-0.099408
510.626000	-0.134219
510.811000	-0.239149
510.997000	-0.178091
511.182000	0.005232
511.368000	-0.055866
511.554000	-0.361594
511.739000	-0.239161
511.925000	-0.047164
512.110000	-0.103837
512.296000	0.031491
512.481000	0.066401
512.667000	-0.025365
512.853000	-0.222197
513.038000	-0.130527
513.224000	-0.165608
513.409000	-0.152449
513.595000	-0.047388
513.780000	-0.292954
513.966000	-0.296622
514.152000	-0.222275
514.337000	-0.349306
514.523000	-0.283672
514.708000	-0.143734
514.894000	-0.082611
515.079000	-0.248618
515.265000	-0.187983
515.451000	-0.188061
515.636000	-0.275737
515.822000	-0.170572
516.007000	-0.280521
516.193000	-0.152861
516.378000	-0.051921
516.564000	-0.056239
516.750000	0.027250
516.935000	0.110815
517.121000	-0.051880
517.306000	0.000880
517.492000	0.084619
517.677000	-0.175209
517.863000	-0.192854
518.049000	-0.078399
518.234000	-0.091543
518.420000	-0.003525
518.605000	0.097792
518.791000	0.058118
518.976000	-0.131726
519.162000	-0.215317
519.348000	-0.087380
519.533000	-0.069627
519.719000	0.084695
519.904000	-0.078608
520.090000	-0.060820
520.275000	0.155238
520.461000	0.129033
520.647000	-0.083060
520.832000	-0.202896
521.018000	-0.087487
521.203000	-0.162071
521.389000	-0.408403
521.574000	-0.289876
521.760000	-0.166745
521.946000	-0.171676
522.131000	-0.238251
522.317000	-0.215776
522.502000	-0.228942
522.688000	-0.083128
522.873000	-0.096484
523.059000	-0.167416
523.245000	-0.131861
523.430000	-0.251651
523.616000	-0.158567
523.801000	-0.309570
523.987000	-0.305683
524.172000	-0.087963
524.358000	0.036445
524.544000	-0.110043
524.729000	-0.136304
524.915000	-0.025729
525.100000	-0.176485
525.286000	-0.150101
525.471000	-0.088177
525.657000	0.005350
525.843000	-0.199953
526.028000	-0.110766
526.214000	-0.244666
526.399000	-0.330448
526.585000	-0.299165
526.770000	-0.343910
526.956000	-0.268453
527.142000	-0.219032
527.327000	-0.093466
527.513000	-0.287043
527.698000	-0.224306
527.884000	-0.130192
528.069000	-0.229182
528.255000	-0.075892
528.441000	-0.193575
528.626000	-0.216852
528.812000	0.032638
528.997000	-0.099020
529.183000	-0.312368
529.368000	-0.245398
529.554000	-0.268915
529.740000	-0.232983
529.925000	-0.274318
530.111000	-0.210329
530.296000	-0.155450
530.482000	0.028585
530.667000	-0.035976
530.853000	-0.045345
531.039000	-0.142824
531.224000	-0.143592
531.410000	0.005593
531.595000	-0.055047
531.781000	-0.013064
531.967000	-0.224266
532.152000	-0.027297
532.338000	0.010375
532.523000	-0.230567
532.709000	-0.425849
532.894000	-0.227792
533.080000	-0.061064
533.266000	-0.304596
533.451000	-0.320104
533.637000	-0.181726
533.822000	-0.018341
534.008000	-0.220869
534.193000	-0.245891
534.379000	-0.125330
534.565000	-0.096571
534.750000	-0.131197
534.936000	0.030467
535.121000	-0.097549
535.307000	-0.097718
535.492000	-0.162137
535.678000	-0.366988
535.864000	-0.193897
536.049000	0.116607
536.235000	-0.069438
536.420000	-0.105139
536.606000	-0.232172
536.791000	-0.284543
536.977000	-0.367049
537.163000	-0.111877
537.348000	-0.071236
537.534000	-0.004157
537.719000	-0.118778
537.905000	-0.307515
538.090000	-0.035704
538.276000	0.032668
538.462000	-0.062377
538.647000	0.016984
538.833000	-0.068309
539.018000	0.054688
539.204000	-0.015023
539.389000	-0.247415
539.575000	0.028114
539.761000	-0.080417
539.946000	-0.397430
540.132000	-0.283888
540.317000	-0.422110
540.503000	-0.180665
540.688000	-0.126375
540.874000	0.078947
541.060000	0.173403
541.245000	-0.116144
541.431000	-0.323972
541.616000	-0.279896
541.802000	-0.285761
541.987000	-0.196317
542.173000	-0.072484
542.359000	-0.231317
542.544000	-0.168706
542.730000	-0.266003
542.915000	-0.346411
543.101000	-0.129980
543.286000	-0.393034
543.472000	-0.470217
543.658000	-0.234704
543.843000	-0.143014
544.029000	0.018513
544.214000	-0.184207
544.400000	-0.555560
544.585000	-0.457978
544.771000	-0.383676
544.957000	-0.104015
545.142000	-0.022224
545.328000	0.007036
545.513000	0.077546
545.699000	-0.004720
545.884000	-0.110996
546.070000	-0.252809
546.261000	-0.230017
546.451000	-0.230730
546.642000	-0.475363
546.833000	-0.219593
547.023000	-0.362724
547.214000	-0.406121
547.405000	-0.238358
547.595000	0.067162
547.786000	0.001204
547.977000	-0.173840
548.167000	-0.325016
548.358000	-0.223297
548.549000	0.183923
548.740000	-0.132766
548.930000	-0.553181
549.121000	-0.353147
549.312000	-0.391297
549.502000	-0.472166
549.693000	-0.115489
549.884000	-0.072510
550.074000	-0.054265
550.265000	-0.314004
550.456000	-0.128881
550.646000	-0.017391
550.837000	-0.116805
551.028000	-0.253832
551.218000	-0.123151
551.409000	-0.254875
551.600000	-0.186317
551.790000	-0.105452
551.981000	-0.413002
552.172000	-0.376042
552.362000	0.032685
552.553000	0.001264
552.744000	-0.169198
552.934000	-0.087199
553.125000	-0.258267
553.316000	-0.359776
553.506000	0.102824
553.697000	0.007645
553.888000	-0.094122
554.079000	0.058554
554.269000	0.090468
554.460000	-0.171173
554.651000	-0.209711
554.841000	-0.408372
555.032000	-0.274374
555.223000	-0.152786
555.413000	-0.005113
555.604000	-0.043644
555.795000	-0.069500
555.985000	-0.030952
556.176000	-0.198248
556.367000	-0.449179
556.557000	-0.321543
556.748000	-0.173377
556.939000	-0.179569
557.129000	-0.263317
557.320000	-0.185987
557.511000	-0.275881
557.701000	-0.365544
557.892000	-0.270089
558.083000	0.046472
558.273000	-0.050354
558.464000	-0.192390
558.655000	-0.179323
558.845000	-0.165933
559.036000	-0.075946
559.227000	-0.198377
559.418000	-0.030973
559.608000	0.078692
559.799000	-0.320816
559.990000	-0.331927
560.180000	-0.345194
560.371000	-0.602759
560.562000	-0.396521
560.752000	-0.107891
560.943000	-0.274991
561.134000	-0.485710
561.324000	-0.280321
561.515000	-0.094545
561.706000	-0.139417
561.896000	-0.324175
562.087000	-0.400300
562.278000	-0.482976
562.468000	-0.636530
562.659000	-0.571184
562.850000	-0.049645
563.040000	0.128567
563.231000	-0.495562
563.422000	-0.297121
563.612000	-0.297449
563.803000	-0.385726
563.994000	-0.440700
564.185000	-0.509296
564.375000	-0.251156
564.566000	-0.276063
564.757000	-0.213628
564.947000	-0.295440
565.138000	-0.206359
565.329000	-0.331520
565.519000	-0.563543
565.710000	-0.331682
565.901000	-0.099322
566.091000	-0.086686
566.282000	-0.205562
566.473000	-0.161192
566.663000	-0.086119
566.854000	-0.384133
567.045000	-0.271543
567.235000	-0.197112
567.426000	-0.259002
567.617000	-0.282764
567.807000	-0.295239
567.998000	-0.251490
568.189000	-0.226779
568.379000	-0.207763
568.570000	-0.084708
568.761000	-0.109031
568.951000	-0.139436
569.142000	-0.280472
569.333000	-0.292714
569.524000	-0.401432
569.714000	-0.517300
569.905000	-0.601671
570.096000	-0.211884
570.286000	-0.096071
570.477000	0.037596
570.668000	-0.113895
570.858000	-0.138121
571.049000	-0.234222
571.240000	-0.379293
571.430000	-0.300384
571.621000	-0.251235
571.812000	-0.070634
572.002000	-0.052770
572.193000	-0.358008
572.384000	-0.286045
572.574000	-0.112593
572.765000	-0.184126
572.956000	-0.153752
573.146000	-0.016711
573.337000	-0.248981
573.528000	-0.129625
573.718000	-0.034397
573.909000	0.072250
574.100000	0.007081
574.290000	-0.245874
574.481000	-0.239455
574.672000	-0.192724
574.863000	-0.039795
575.053000	-0.279209
575.244000	-0.115381
575.435000	-0.266635
575.625000	-0.369787
575.816000	-0.323018
576.007000	-0.207243
576.197000	-0.201771
576.388000	-0.131680
576.579000	0.058890
576.769000	-0.068049
576.960000	-0.361883
577.155000	-0.573506
577.350000	-0.285827
577.545000	-0.159261
577.740000	-0.330143
577.935000	0.046740
578.130000	0.023959
578.326000	-0.374209
578.521000	-0.118236
578.716000	-0.032818
578.911000	-0.224950
579.106000	-0.117120
579.301000	0.029191
579.496000	-0.239505
579.691000	-0.502085
579.886000	-0.300019
580.081000	-0.126950
580.276000	-0.098867
580.471000	-0.248792
580.666000	-0.436848
580.861000	-0.397901
581.057000	-0.398160
581.252000	-0.165292
581.447000	-0.253470
581.642000	-0.381398
581.837000	-0.386421
582.032000	-0.313557
582.227000	-0.059274
582.422000	0.033964
582.617000	-0.195225
582.812000	-0.461244
583.007000	-0.558846
583.202000	-0.443867
583.397000	-0.069213
583.592000	0.136024
583.788000	-0.208766
583.983000	-0.289200
584.178000	-0.186770
584.373000	-0.368137
584.568000	-0.399405
584.763000	-0.378413
584.958000	-0.410453
585.153000	-0.367724
585.348000	-0.298079
585.543000	-0.143310
585.738000	-0.175314
585.933000	-0.373172
586.128000	-0.234086
586.324000	-0.202548
586.519000	-0.154210
586.714000	-0.084668
586.909000	-0.090187
587.104000	-0.009695
587.299000	-0.186902
587.494000	-0.186648
587.689000	-0.235382
587.884000	-0.230701
588.079000	-0.257669
588.274000	-0.166335
588.469000	-0.117495
588.664000	-0.058285
588.859000	-0.117820
589.055000	-0.166652
589.250000	-0.253347
589.445000	-0.334952
589.640000	-0.253857
589.835000	-0.042411
590.030000	0.039137
590.225000	0.082637
590.420000	-0.205791
590.615000	-0.331304
590.810000	-0.162201
591.005000	-0.190191
591.200000	-0.228543
591.395000	-0.266775
591.591000	-0.206286
591.786000	-0.091606
591.981000	-0.239536
592.176000	-0.190704
592.371000	-0.097582
592.566000	-0.130380
592.761000	0.001095
592.956000	-0.108635
593.151000	-0.053796
593.346000	-0.053945
593.541000	-0.158368
593.736000	-0.125761
593.931000	-0.258252
594.126000	-0.242056
594.322000	-0.186785
594.517000	-0.236472
594.712000	-0.430037
594.907000	-0.398300
595.102000	-0.259957
595.297000	-0.159870
595.492000	-0.110145
595.687000	-0.327752
595.882000	-0.372531
596.077000	-0.194450
596.272000	-0.049161
596.467000	-0.032412
596.662000	-0.233820
596.857000	-0.167360
597.053000	-0.223898
597.248000	-0.161946
597.443000	-0.032657
597.638000	-0.173841
597.833000	-0.411287
598.028000	-0.123004
598.223000	-0.021483
598.418000	-0.219744
598.613000	-0.242367
598.808000	-0.123543
599.003000	-0.169063
599.198000	-0.368090
599.393000	-0.328228
599.589000	-0.078579
599.784000	-0.346445
599.979000	-0.346957
600.174000	-0.170172
600.369000	-0.387575
600.564000	-0.170571
600.759000	0.058452
600.954000	0.109841
601.149000	0.098701
601.344000	-0.337763
601.539000	-0.200134
601.734000	-0.268794
601.929000	-0.528578
602.124000	-0.454104
602.320000	-0.154709
602.515000	0.191685
602.710000	0.064798
602.905000	-0.293866
603.100000	-0.356923
603.295000	-0.311291
603.490000	-0.103287
603.685000	-0.045268
603.880000	-0.109241
604.075000	-0.278455
604.270000	-0.208992
604.465000	-0.156333
604.660000	-0.384142
604.856000	-0.185512
605.051000	-0.057280
605.246000	-0.179876
605.441000	-0.419629
605.636000	-0.495748
605.831000	-0.320954
606.026000	-0.461326
606.221000	-0.561619
606.416000	-0.298191
606.611000	0.001175
606.806000	-0.039919
607.001000	0.012932
607.196000	-0.157676
607.391000	-0.364103
607.587000	-0.158216
607.782000	-0.211628
607.977000	-0.405743
608.172000	-0.069807
608.367000	-0.004733
608.562000	-0.200352
608.757000	-0.235842
608.952000	-0.331423
609.147000	0.090168
609.342000	0.090307
609.537000	-0.248801
609.732000	-0.261118
609.927000	-0.415296
610.122000	-0.410047
610.318000	-0.136021
610.513000	-0.082371
610.708000	-0.315502
610.903000	-0.291926
611.098000	-0.298545
611.293000	-0.256651
611.488000	-0.250688
611.683000	-0.281167
611.878000	-0.299282
612.073000	-0.191162
612.268000	-0.257567
612.463000	-0.053076
612.658000	-0.089266
612.854000	-0.198249
613.049000	-0.258806
613.244000	-0.071394
613.439000	0.073843
613.634000	-0.199023
613.829000	-0.132315
614.024000	-0.302978
614.219000	-0.290768
614.414000	0.098610
614.609000	-0.163375
614.804000	-0.389033
614.999000	-0.370401
615.194000	-0.267529
615.389000	-0.188347
615.585000	-0.372483
615.780000	-0.244034
615.975000	-0.275239
616.170000	-0.189363
616.365000	-0.041850
616.560000	0.007392
616.755000	0.019773
616.950000	-0.116217
617.145000	-0.017325
617.340000	-0.141208
617.535000	-0.506607
617.730000	-0.253029
617.925000	-0.334192
618.120000	-0.359152
618.316000	0.013700
618.511000	-0.129647
618.706000	-0.417837
618.901000	-0.292585
619.096000	-0.036399
619.291000	-0.174310
619.486000	-0.105672
619.681000	-0.502336
619.876000	-0.596504
620.071000	-0.382904
620.266000	-0.017677
620.461000	-0.068303
620.656000	-0.125456
620.852000	-0.156939
621.047000	-0.239790
621.242000	-0.424315
621.437000	-0.030562
621.632000	0.039561
621.827000	-0.177546
622.022000	-0.497255
622.217000	-0.428102
622.412000	-0.088536
622.607000	0.078347
622.802000	-0.332826
622.997000	-0.475834
623.192000	-0.256593
623.387000	-0.211509
623.583000	-0.606059
623.778000	-0.082932
623.973000	-0.115403
624.168000	-0.200160
624.363000	-0.076566
624.558000	-0.018199
624.753000	-0.376893
624.948000	-0.168548
625.143000	-0.142520
625.338000	-0.267184
625.533000	-0.339323
625.728000	-0.142958
625.923000	-0.038059
626.119000	-0.255194
626.314000	-0.426611
626.509000	-0.421318
626.704000	-0.342976
626.899000	-0.230615
627.094000	-0.363658
627.289000	-0.404401
627.484000	-0.445356
627.679000	-0.352333
627.874000	-0.272609
628.069000	0.128474
628.264000	-0.025404
628.459000	-0.233194
628.654000	-0.246820
628.850000	-0.409219
629.045000	-0.342294
629.240000	-0.362870
629.435000	-0.457892
629.630000	-0.262533
629.825000	-0.188098
630.020000	-0.188840
630.215000	-0.399198
630.410000	-0.380332
630.605000	-0.442037
630.800000	-0.312379
630.995000	-0.128513
631.190000	0.063025
631.385000	-0.135722
631.581000	-0.451805
631.776000	-0.314680
631.971000	-0.419091
632.166000	-0.295245
632.361000	-0.461237
632.556000	-0.247535
632.751000	-0.074917
632.946000	-0.310868
633.141000	-0.388375
633.336000	-0.263505
633.531000	-0.194392
633.726000	-0.187169
633.921000	-0.292720
634.117000	-0.475847
634.312000	-0.658987
634.507000	-0.631568
634.702000	-0.421330
634.897000	-0.217315
635.092000	-0.203740
635.287000	-0.140355
635.482000	-0.304188
635.677000	-0.190534
635.872000	-0.162114
636.067000	-0.019955
636.262000	-0.155968
636.457000	-0.618491
636.652000	-0.669368
636.848000	-0.635074
637.043000	-0.415084
637.238000	-0.329768
637.433000	-0.495747
637.628000	-0.531755
637.823000	-0.157308
638.018000	0.015906
638.213000	-0.252161
638.408000	-0.506241
638.603000	-0.463389
638.798000	-0.493157
638.993000	-0.341063
639.188000	-0.268279
639.383000	-0.363359
639.579000	0.016035
639.774000	-0.225119
639.969000	-0.466512
640.164000	-0.438263
640.359000	-0.468083
640.554000	-0.189532
640.749000	-0.190054
640.944000	-0.050201
641.139000	0.060413
641.334000	-0.278988
641.529000	-0.900750
641.724000	-0.502020
641.919000	-0.310158
642.115000	-0.102643
642.310000	0.105467
642.505000	-0.102460
642.700000	-0.251407
642.895000	-0.468534
643.090000	-0.326677
643.285000	-0.095480
643.480000	0.016448
643.675000	0.016462
643.870000	0.278895
644.065000	0.031549
644.260000	-0.358968
644.455000	-0.254305
644.650000	-0.300190
644.846000	-0.164430
645.041000	-0.428241
645.236000	-0.618228
645.431000	-0.709940
645.626000	-0.875923
645.821000	-0.482402
646.016000	-0.271481
646.211000	0.237044
646.406000	0.070029
646.601000	-0.074523
646.796000	-0.165740
646.991000	-0.553569
647.186000	-0.387137
647.381000	-0.158615
647.577000	-0.143501
647.772000	-0.143509
647.967000	-0.143790
648.162000	-0.082669
648.357000	-0.190087
648.552000	-0.075085
648.747000	-0.052130
648.942000	-0.059835
649.137000	-0.113879
649.332000	-0.291234
649.527000	-0.414333
649.722000	-0.083146
649.917000	0.078758
650.113000	-0.222106
650.308000	-0.369158
650.503000	-0.299490
650.698000	-0.130051
650.893000	-0.060424
651.088000	-0.021705
651.283000	-0.091670
651.478000	-0.348037
651.673000	-0.045013
651.868000	-0.293947
652.063000	-0.006233
652.258000	0.071740
652.453000	0.250422
652.648000	-0.115259
652.844000	-0.310178
653.039000	-0.185797
653.234000	-0.427936
653.429000	-0.686859
653.624000	-0.569092
653.819000	-0.202126
654.014000	-0.123807
654.209000	-0.367684
654.404000	-0.257425
654.599000	-0.423316
654.794000	-0.399022
654.989000	-0.077204
655.184000	-0.171942
655.380000	-0.573727
655.575000	-0.581674
655.770000	-0.424743
655.965000	-0.314293
656.160000	-0.519885
656.355000	-0.274899
656.550000	-0.251972
656.745000	-0.244214
656.940000	-0.284091
657.135000	-0.157085
657.330000	-0.204770
657.525000	-0.474960
657.720000	-0.221188
657.915000	-0.062002
658.111000	-0.197211
658.306000	-0.014325
658.501000	-0.205798
658.696000	-0.428974
658.891000	-0.357378
659.086000	-0.261546
659.281000	-0.046325
659.476000	-0.326331
659.671000	-0.798158
659.866000	-0.694494
660.061000	-0.366697
660.256000	-0.134570
660.451000	-0.182793
660.646000	-0.391757
660.842000	-0.167171
661.037000	-0.287836
661.232000	-0.312404
661.427000	-0.328246
661.622000	-0.554533
661.817000	-0.497978
662.012000	-0.159947
662.207000	-0.337897
662.402000	-0.484620
662.597000	-0.217336
662.792000	-0.508812
662.987000	-0.621732
663.182000	-0.217417
663.378000	-0.225710
663.573000	-0.633215
663.768000	-0.631902
663.963000	-0.437448
664.158000	-0.355813
664.353000	0.042415
664.548000	0.213634
664.743000	-0.226937
664.938000	-0.512596
665.133000	-0.439823
665.328000	0.058948
665.523000	-0.072189
665.718000	-0.457798
665.913000	-0.343454
666.109000	-0.121878
666.304000	0.059272
666.499000	-0.146442
666.694000	0.018151
666.889000	0.364631
667.084000	-0.147336
667.279000	-0.370601
667.474000	-0.329425
667.669000	-0.097645
667.864000	-0.205463
668.059000	-0.462996
668.254000	-0.247577
668.449000	-0.331030
668.644000	-0.281383
668.840000	0.009977
669.035000	-0.389651
669.230000	-0.775268
669.425000	-0.324361
669.620000	-0.633628
669.815000	-0.627533
670.010000	-0.484463
670.205000	-0.266760
670.400000	-0.157427
670.595000	-0.023518
670.790000	-0.351559
670.985000	-0.335089
671.180000	-0.048886
671.376000	-0.327324
671.571000	-0.514057
671.766000	-0.489825
671.961000	-0.379801
672.156000	-0.507597
672.351000	-0.371872
672.546000	-0.372655
672.741000	-0.278456
672.936000	-0.270321
673.131000	0.368224
673.326000	-0.092312
673.521000	-0.588573
673.716000	-0.733989
673.911000	-0.905728
674.107000	-0.186975
674.302000	0.027465
674.497000	-0.384948
674.692000	-0.548598
674.887000	-0.455560
675.082000	-0.421685
675.277000	0.062303
675.472000	-0.067584
675.667000	-0.345378
675.862000	-0.406330
676.057000	-0.337097
676.252000	-0.294278
676.447000	-0.399732
676.643000	-0.434288
676.838000	-0.059413
677.033000	-0.225737
677.228000	0.159639
677.423000	0.001755
677.618000	-0.447064
677.813000	-0.517165
678.008000	-0.280591
678.203000	-0.263222
678.398000	-0.564569
678.593000	-0.201827
678.788000	-0.024866
678.983000	-0.415112
679.178000	-0.273331
679.374000	-0.513685
679.569000	-0.541512
679.764000	-0.596714
679.959000	-0.786184
680.154000	-0.643046
680.349000	-0.744132
680.544000	-0.716210
680.739000	-0.483113
680.934000	-0.546522
681.129000	-0.674248
681.324000	-0.747281
681.519000	-0.360333
681.714000	-0.469141
681.909000	-0.604257
682.105000	-0.850881
682.300000	-0.307798
682.495000	-0.007281
682.690000	-0.116768
682.885000	-0.235548
683.080000	-0.254512
683.275000	-0.300439
683.470000	0.038518
683.665000	0.204040
683.860000	0.333288
684.055000	0.176873
684.250000	-0.320895
684.445000	-0.458481
684.641000	0.029549
684.836000	-0.275635
685.031000	-0.313762
685.226000	-0.211936
685.421000	0.272192
685.616000	-0.119316
685.811000	-0.427953
686.006000	-0.222366
686.201000	-0.288152
686.396000	-0.824567
686.591000	-0.628607
686.786000	-0.007540
686.981000	-0.139507
687.176000	-0.168193
687.372000	-0.348116
687.567000	-0.149530
687.762000	-0.244842
687.957000	-0.444115
688.152000	-0.321434
688.347000	-0.131473
688.542000	-0.552030
688.737000	-0.933644
688.932000	-0.944793
689.127000	-0.467309
689.322000	-0.007683
689.517000	-0.334124
689.712000	-0.537646
689.908000	-0.461030
690.103000	-0.471588
690.298000	-0.442671
690.493000	-0.327542
690.688000	-0.745158
690.883000	-0.679570
691.078000	-0.085705
691.273000	-0.037013
691.468000	-0.261548
691.663000	-0.370303
691.858000	-0.233194
692.053000	-0.154803
692.248000	-0.115731
692.443000	-0.096111
692.639000	-0.273209
692.834000	-0.273887
693.029000	0.376489
693.224000	0.556521
693.419000	-0.176428
693.614000	-0.434955
693.809000	-0.634028
694.004000	-0.545616
694.199000	-0.565381
694.394000	-0.217731
694.589000	-0.527908
694.784000	-0.508427
694.979000	-0.168147
695.174000	-0.319084
695.370000	0.012021
695.565000	-0.098407
695.760000	-0.370373
695.955000	-0.098871
696.150000	0.002018
696.345000	-0.413351
696.540000	-0.474968
696.740000	-0.474636
696.940000	-0.140063
697.140000	0.012242
697.340000	-0.396517
697.539000	-0.253578
697.739000	-0.427573
697.939000	-0.335744
698.139000	-0.510288
698.339000	-0.769332
698.539000	-0.655819
698.739000	-0.832799
698.939000	-0.474120
699.138000	-0.557857
699.338000	-0.049602
699.538000	0.375506
699.738000	-0.258007
699.938000	-0.435232
700.138000	-0.550698
700.338000	-0.761489
700.538000	-0.396371
700.737000	-0.333346
700.937000	-0.834030
701.137000	-0.720168
701.337000	-0.103115
701.537000	-0.082251
701.737000	-0.261189
701.937000	-0.293447
702.137000	-0.272350
702.337000	-0.590023
702.536000	-0.771350
702.736000	-0.644980
702.936000	-0.752171
703.136000	-0.253596
703.336000	-0.360067
703.536000	-0.382431
703.736000	-0.715523
703.936000	-0.564392
704.135000	-0.617528
704.335000	-0.308557
704.535000	-0.427573
704.735000	-0.804403
704.935000	-0.298328
705.135000	-0.472316
705.335000	-0.614549
705.535000	-0.300981
705.735000	-0.214330
705.934000	-0.268317
706.134000	-0.474041
706.334000	-0.431772
706.534000	-0.671403
706.734000	-0.519718
706.934000	-0.650155
707.134000	-0.715574
707.334000	-0.542726
707.533000	-0.456383
707.733000	-0.586977
707.933000	-0.762304
708.133000	-0.259611
708.333000	-0.019737
708.533000	-0.415235
708.733000	-0.019770
708.933000	-0.437525
709.132000	-0.713738
709.332000	-0.538415
709.532000	-0.683352
709.732000	-0.560900
709.932000	-1.027089
710.132000	-0.915837
710.332000	-1.180755
710.532000	-0.551086
710.732000	-0.197515
710.931000	-0.519693
711.131000	-0.610908
711.331000	-0.243212
711.531000	-0.277152
711.731000	-0.412293
711.931000	-0.289533
712.131000	-0.412482
712.331000	-0.356552
712.530000	-0.378516
712.730000	-0.682674
712.930000	-0.502854
713.130000	-0.223022
713.330000	-0.629295
713.530000	-0.518419
713.730000	0.353320
713.930000	0.002264
714.129000	-0.597113
714.329000	-0.599029
714.529000	-0.292485
714.729000	-0.054528
714.929000	-0.190853
715.129000	-0.543923
715.329000	-0.441920
715.529000	-0.203567
715.729000	0.447463
715.928000	-0.238026
716.128000	-0.570242
716.328000	-0.422634
716.528000	-0.400121
716.728000	-0.354215
716.928000	-0.595785
717.128000	-0.216714
717.328000	-0.112949
717.527000	-0.066929
717.727000	-0.274906
717.927000	-0.345318
718.127000	-0.600593
718.327000	-1.019839
718.527000	-1.019328
718.727000	-0.683279
718.927000	-0.533178
719.127000	-0.956100
719.326000	-0.614637
719.526000	0.013995
719.726000	-0.056096
719.926000	-0.783589
720.126000	-0.818913
720.326000	-0.408222
720.526000	-0.689883
720.726000	-0.633126
720.925000	-0.233158
721.125000	-0.730431
721.325000	-0.611496
721.525000	-0.376307
721.725000	-0.518367
721.925000	-0.543563
722.125000	-0.721645
722.325000	-0.270588
722.524000	-0.378545
722.724000	-0.724659
722.924000	-0.808040
723.124000	-0.641985
723.324000	-0.367908
723.524000	-0.248683
723.724000	-0.787410
723.924000	-0.586070
724.124000	-0.225859
724.323000	0.062553
724.523000	-0.262012
724.723000	0.195125
724.923000	0.038555
725.123000	-0.142320
725.323000	-0.033831
725.523000	-0.384958
725.723000	-0.856176
725.922000	-0.409200
726.122000	-0.288459
726.322000	-0.629517
726.522000	-0.569309
726.722000	0.075334
726.922000	-0.434699
727.122000	-0.472766
727.322000	-0.021960
727.521000	-0.229928
727.721000	-0.389493
727.921000	-0.365014
728.121000	-0.340431
728.321000	-0.721374
728.521000	-0.501827
728.721000	-0.588924
728.921000	-0.219229
729.121000	0.582285
729.320000	-0.071631
729.520000	-0.343367
729.720000	-0.616110
729.920000	-0.556891
730.120000	-0.319896
730.320000	-0.283391
730.520000	-0.818193
730.720000	-0.671086
730.919000	-0.521304
731.119000	-0.259880
731.319000	-1.011182
731.519000	-1.098634
731.719000	-0.510914
731.919000	-0.498658
732.119000	-1.164629
732.319000	-1.117928
732.519000	-0.501321
732.718000	-0.956029
732.918000	-0.817994
733.118000	-0.491008
733.318000	-0.073609
733.518000	-0.530537
733.718000	-1.128642
733.918000	-0.798650
734.118000	-0.531400
734.317000	-0.393153
734.517000	-0.749525
734.717000	-0.778753
734.917000	-0.228505
735.117000	-0.228749
735.317000	-0.215843
735.517000	0.260232
735.717000	0.674470
735.916000	-0.449714
736.116000	-0.888317
736.316000	-0.283209
736.516000	-0.270134
736.716000	-0.309252
736.916000	-0.871524
737.116000	-0.679114
737.316000	0.186136
737.516000	0.015761
737.715000	0.094626
737.915000	-0.681089
738.115000	-0.933865
738.315000	-0.525357
738.515000	-0.907980
738.715000	-0.634540
738.915000	0.002659
739.115000	-0.729644
739.314000	-0.795499
739.514000	0.109474
739.714000	0.216823
739.914000	-0.265781
740.114000	-0.535247
740.314000	-0.172268
740.514000	0.218360
740.714000	-0.565332
740.913000	-0.823500
741.113000	-0.702698
741.313000	-0.349993
741.513000	-0.269355
741.713000	-0.311000
741.913000	-0.243946
742.113000	-0.257259
742.313000	-0.984606
742.513000	-0.450212
742.712000	-0.437899
742.912000	-0.920107
743.112000	-0.950859
743.312000	-1.007813
743.512000	-0.649342
743.712000	-0.595748
743.912000	-1.070732
744.112000	-1.489940
744.311000	-1.382060
744.511000	-0.936119
744.711000	-0.362456
744.911000	-0.278562
745.111000	-0.645151
745.311000	-0.674620
745.511000	-0.873411
745.711000	-0.704480
745.911000	-0.252129
746.110000	-0.620704
746.310000	-0.866701
746.510000	-0.736812
746.710000	-0.125747
746.910000	-0.082952
747.110000	-0.785019
747.310000	-1.274299
747.510000	-1.106294
747.709000	-0.617028
747.909000	-0.633064
748.109000	-0.142123
748.309000	-0.374925
748.509000	-0.884931
748.709000	-1.136559
748.909000	-0.727290
749.109000	-0.583785
749.308000	0.135082
749.508000	-0.291787
749.708000	-0.557236
749.908000	-0.203481
750.108000	-0.159719
750.308000	-0.991339
750.508000	-0.413619
750.708000	-0.964441
750.908000	-1.458737
751.107000	-0.505698
751.307000	0.182314
751.507000	-0.417197
751.707000	-0.356715
751.907000	-0.582964
752.107000	-0.419104
752.307000	-0.707916
752.507000	-0.315453
752.706000	-0.421329
752.906000	0.215668
753.106000	-0.728500
753.306000	-1.556254
753.506000	-0.318844
753.706000	-0.626673
753.906000	-0.411702
754.106000	-0.458395
754.305000	-0.566806
754.505000	-0.660947
754.705000	-0.586922
754.905000	-0.432291
755.105000	-0.214908
755.305000	-1.026137
755.505000	-0.841416
755.705000	-0.294394
755.905000	-0.609406
756.104000	-1.175849
756.304000	-1.588822
756.504000	-2.081731
756.704000	-0.885918
756.904000	-0.583929
757.104000	-0.789093
757.304000	-0.694685
757.504000	-0.012766
757.703000	-0.427578
757.903000	-0.092759
758.103000	0.147436
758.303000	-0.253917
758.503000	-0.721867
758.703000	-1.256526
758.903000	-1.160139
759.103000	-0.385622
759.303000	-0.403754
759.502000	-0.894982
759.702000	-0.470175
759.902000	-0.735119
760.102000	-0.687535
760.302000	-0.656843
760.502000	-0.589065
760.702000	-0.507521
760.902000	-0.723265
761.101000	-0.940629
761.301000	-1.290656
761.501000	-0.892797
761.701000	-0.811451
761.901000	-0.665244
762.101000	-0.448912
762.301000	-0.046902
762.501000	-0.700753
762.700000	-0.956605
762.900000	-0.687384
763.100000	-0.671300
763.300000	-0.826465
763.500000	-0.589948
763.703000	-0.520393
763.905000	-1.132935
764.108000	-0.490189
764.311000	-0.507277
764.513000	-0.916929
764.716000	-0.646845
764.919000	-0.476359
765.121000	-0.819381
765.324000	-1.096938
765.527000	-0.947225
765.729000	-0.929911
765.932000	-0.013850
766.135000	0.038077
766.337000	-0.446770
766.540000	-0.517732
766.743000	-0.241538
766.945000	-0.555484
767.148000	-1.344584
767.351000	-1.309385
767.553000	-0.277617
767.756000	-0.524163
767.958000	-1.192436
768.161000	-0.911826
768.364000	-0.950520
768.566000	-1.271314
768.769000	-0.405051
768.972000	-0.067499
769.174000	-0.744752
769.377000	-1.783231
769.580000	-1.482627
769.782000	-0.443686
769.985000	-0.911743
770.188000	-1.831420
770.390000	-0.701479
770.593000	0.509203
770.796000	0.202387
770.998000	-0.285677
771.201000	-0.847073
771.404000	-0.322632
771.606000	-0.888030
771.809000	-0.633061
772.012000	-0.506695
772.214000	-1.455616
772.417000	-1.510501
772.620000	-0.451022
772.822000	-0.527826
773.025000	-1.077841
773.228000	-1.098219
773.430000	-0.934490
773.633000	-0.530794
773.836000	-0.605341
774.038000	-0.311225
774.241000	-0.588945
774.444000	-0.962297
774.646000	0.226459
774.849000	0.264178
775.052000	-0.368298
775.254000	-0.779062
775.457000	-1.150769
775.659000	-0.724220
775.862000	-1.191140
776.065000	-1.080897
776.267000	-0.033719
776.470000	0.455359
776.673000	-0.485801
776.875000	-0.015108
777.078000	-0.241341
777.281000	-0.980384
777.483000	-0.205055
777.686000	0.136959
777.889000	-0.338958
778.091000	-0.301909
778.294000	-0.912070
778.497000	-0.913243
778.699000	-0.799248
778.902000	-0.648489
779.105000	-0.744470
779.307000	-0.265164
779.510000	-1.151612
779.713000	-0.344121
779.915000	-0.733188
780.118000	0.586348
780.321000	0.509311
780.523000	-0.853421
780.726000	-0.912255
780.929000	-1.126268
781.131000	-1.342684
781.334000	-1.484788
781.537000	-1.665729
781.739000	-0.684202
781.942000	-0.822493
782.145000	-1.400327
782.347000	-1.223090
782.550000	-1.124857
782.753000	-1.366980
782.955000	-1.111698
783.158000	-1.031398
783.361000	-0.774460
783.563000	-0.734660
783.766000	-0.976749
783.968000	1.307005
784.171000	1.313002
784.374000	-0.197371
784.576000	-0.539588
784.779000	-0.156797
784.982000	0.105134
785.184000	-0.829371
785.387000	-0.077363
785.590000	0.411027
785.792000	0.371736
785.995000	0.310936
786.198000	0.249974
786.400000	-0.304526
786.603000	-0.429070
786.806000	-0.633391
787.008000	-0.468827
787.211000	-0.821345
787.414000	-1.466086
787.616000	-0.681771
787.819000	-1.079236
788.022000	-1.247596
788.224000	-0.142220
788.427000	-1.356040
788.630000	-1.045798
788.832000	-0.792939
789.035000	-1.671317
789.238000	-1.994434
789.440000	-1.265432
789.643000	0.215396
789.846000	-0.779327
790.048000	-0.484014
790.251000	0.174117
790.454000	-0.758648
790.656000	-0.208441
790.859000	-0.656617
791.062000	-0.871336
791.264000	-0.315812
791.467000	-1.260022
791.669000	-1.948591
791.872000	-0.750548
792.075000	-1.137447
792.277000	-0.965263
792.480000	-0.970509
792.683000	-1.443146
792.885000	-1.747292
793.088000	-1.753699
793.291000	-2.171497
793.493000	-1.717694
793.696000	-0.518999
793.899000	-0.520430
794.101000	-0.938070
794.304000	-0.962158
794.507000	-0.853587
794.709000	-0.547105
794.912000	-0.770802
795.115000	-1.349279
795.317000	-1.304535
795.520000	-0.485769
795.723000	-0.756201
795.925000	-1.519095
796.128000	-1.651405
796.331000	-1.095576
796.533000	-1.683280
796.736000	-0.741831
796.939000	-0.630252
797.141000	-0.972875
797.344000	-0.291231
797.547000	-0.291357
797.749000	-0.428546
797.952000	-1.049310
798.155000	-1.641395
798.357000	-1.030325
798.560000	-0.735475
798.763000	-0.226422
798.965000	-0.734022
799.168000	-0.597265
799.371000	0.027812
799.573000	-0.041857
799.776000	-1.485836
799.978000	-1.818173
800.181000	-0.861656
800.384000	0.755115
800.586000	0.075219
800.789000	-1.475533
800.992000	-1.145816
801.194000	-1.877828
801.397000	-1.977052
801.600000	-1.534025
801.802000	-0.374595
802.005000	-0.756332
802.208000	-2.022647
802.410000	-0.710179
802.613000	-0.809061
802.816000	-0.762075
803.018000	-1.316758
803.221000	-1.271069
803.424000	0.342552
803.626000	-0.019329
803.829000	-0.795000
804.032000	0.223577
804.234000	0.952340
804.437000	-0.165914
804.640000	-0.092639
804.842000	0.029321
805.045000	-1.222887
805.248000	-1.126767
805.450000	-1.125668
805.653000	-1.207005
805.856000	-1.477461
806.058000	-0.565042
806.261000	-1.162559
806.464000	-0.964795
806.666000	-0.443313
806.869000	-0.521349
807.072000	-1.824524
807.274000	-2.477766
807.477000	-1.654677
807.679000	-1.203030
807.882000	-1.382376
808.085000	-1.239320
808.287000	-0.528758
808.490000	-1.548564
808.693000	-1.269290
808.895000	-0.913487
809.098000	-1.245803
809.301000	-1.070672
809.503000	-1.203942
809.706000	0.108636
809.909000	0.599984
810.111000	0.005180
810.314000	-0.539901
810.517000	-1.547168
810.719000	-1.816069
810.922000	-1.170551
811.125000	0.604875
811.327000	0.241236
811.530000	-1.047744
811.735000	-1.230161
811.940000	-0.995815
812.146000	-0.523812
812.351000	0.084663
812.556000	-0.313197
812.761000	-1.885148
812.967000	-0.743407
813.172000	-0.395354
813.377000	-0.744925
813.582000	0.166839
813.788000	-0.021676
813.993000	-1.264881
814.198000	-0.211020
814.403000	-0.967989
814.609000	-0.511528
814.814000	-0.705156
815.019000	0.196428
815.224000	-0.185420
815.429000	-1.421848
815.635000	-1.123429
815.840000	-1.207342
816.045000	-0.659034
816.250000	0.116488
816.456000	-1.300225
816.661000	-2.450500
816.866000	-2.204144
817.071000	-2.090941
817.277000	-2.976581
817.482000	-1.713505
817.687000	-0.867474
817.892000	-0.815736
818.097000	-0.761441
818.303000	-0.107964
818.508000	0.431014
818.713000	7.716670
818.918000	4.162931
819.124000	0.005709
819.329000	-1.485037
819.534000	-1.403201
819.739000	-1.345804
819.945000	-1.121015
820.150000	-1.156443
820.355000	-0.984014
820.560000	-0.487779
820.766000	-0.489029
820.971000	-0.901724
821.176000	-2.312612
821.381000	-3.183837
821.586000	-2.614148
821.792000	-0.644006
821.997000	-0.881160
822.202000	-1.148410
822.407000	-2.280036
822.613000	-2.314574
822.818000	-1.216982
823.023000	-0.830229
823.228000	-0.565076
823.434000	0.456507
823.639000	0.337096
823.844000	-1.110519
824.049000	-0.114758
824.255000	-0.236318
824.460000	-0.572245
824.665000	-0.908332
824.870000	-0.177389
825.075000	-0.453219
825.281000	-0.393154
825.486000	0.346050
825.691000	-2.005175
825.896000	-3.373303
826.102000	-1.265775
826.307000	-1.020061
826.512000	-1.429681
826.717000	-0.964410
826.923000	-1.720798
827.128000	-1.126635
827.333000	-1.323960
827.538000	-0.375149
827.744000	0.325070
827.949000	-0.661630
828.154000	-0.919815
828.359000	-0.536290
828.564000	-1.020213
828.770000	-1.024432
828.975000	0.684503
829.180000	-0.123316
829.385000	-2.621088
829.591000	-1.622267
829.796000	-1.041081
830.001000	-2.059899
830.206000	-1.638644
830.412000	-1.012424
830.617000	-1.739777
830.822000	-0.655671
831.027000	-0.885499
831.232000	-1.954597
831.438000	-2.135784
831.643000	-0.595826
831.848000	-0.731508
832.053000	-0.633250
832.259000	-0.667760
832.464000	-2.935569
832.669000	-2.165508
832.874000	-1.552024
833.080000	-1.660996
833.285000	0.075003
833.490000	-0.607269
833.695000	-2.431338
833.901000	-2.166757
834.106000	-2.135508
834.311000	-0.409894
834.516000	0.215698
834.721000	-1.252510
834.927000	0.042157
835.132000	-0.309758
835.337000	1.135121
835.542000	-0.524835
835.748000	-2.647400
835.953000	0.184680
836.158000	-0.598123
836.363000	-1.386924
836.569000	-0.425066
836.774000	-1.544475
836.979000	-1.437964
837.184000	-1.622541
837.390000	-1.698070
837.595000	-1.375192
837.800000	-1.268957
838.005000	-0.836478
838.210000	-1.534208
838.416000	-2.092838
838.621000	-1.137902
838.826000	-1.358740
839.031000	-1.773946
839.237000	-1.637647
839.442000	-2.651389
839.647000	-3.881400
839.852000	-3.034389
840.058000	-2.404623
840.263000	-2.378560
840.468000	-2.797999
840.673000	-1.547017
840.878000	-0.751467
841.084000	-1.672242
841.289000	-1.523349
841.494000	1.163967
841.699000	0.974471
841.905000	0.124068
842.110000	0.475565
842.315000	-1.710990
842.520000	-1.045856
842.726000	-1.439533
842.931000	-2.141914
843.136000	-1.566875
843.341000	-2.927080
843.547000	-1.812816
843.752000	-1.141242
843.957000	-1.590049
844.162000	-2.601110
844.367000	-2.003359
844.573000	-1.001952
844.778000	-0.435181
844.983000	0.008079
845.188000	-0.113682
845.394000	-2.122105
845.599000	-2.116896
845.804000	-1.303995
846.009000	0.214706
846.215000	-1.485016
846.420000	-2.029730
846.625000	-0.826220
846.830000	-0.199575
847.036000	-1.036136
847.241000	-1.460099
847.446000	0.008390
847.651000	-1.171168
847.856000	-2.669624
848.062000	-2.208547
848.267000	-0.417956
848.472000	-2.388048
848.677000	-3.424703
848.883000	-1.704468
849.088000	-0.250905
849.293000	-1.250786
849.498000	-1.552815
849.704000	-0.643744
849.909000	-1.910073
850.114000	-2.564288
850.319000	-0.734293
850.524000	-1.177813
850.730000	-1.935854
850.935000	-1.810504
851.140000	-0.569499
851.345000	-0.346989
851.551000	-0.794230
851.756000	-0.933082
851.961000	-2.149999
852.166000	-1.971106
852.372000	-0.803120
852.577000	-0.899886
852.782000	-2.326309
852.987000	-0.173520
853.193000	-0.678250
853.398000	-0.999343
853.603000	-2.655553
853.808000	-3.208561
854.013000	-1.517339
854.219000	-0.268797
854.424000	1.218934
854.629000	1.035117
854.834000	-2.149768
855.040000	-1.502196
855.245000	-0.273070
855.450000	-4.214861
855.655000	-4.942378
855.861000	-4.072039
856.066000	-3.004671
856.271000	-2.769898
856.476000	0.490489
856.682000	-1.004063
856.887000	-4.620413
857.092000	-2.165219
857.297000	-0.087346
857.502000	-1.254416
857.708000	-1.695301
857.913000	-0.917441
858.118000	-1.566147
858.323000	-2.015301
858.529000	-1.814911
858.734000	-1.720944
858.939000	-0.734053
859.144000	-1.134666
859.350000	-3.075975
859.555000	-2.586306
859.760000	-0.341366
859.965000	1.565814
860.171000	-1.149196
860.376000	-0.799697
860.581000	-2.172066
860.786000	-5.391817
860.991000	-4.391638
861.197000	-2.700898
861.402000	-1.374841
861.607000	-2.505042
861.812000	-2.722037
862.018000	-2.318466
862.223000	-1.234005
862.428000	-0.563270
862.633000	0.323505
862.839000	-0.987103
863.044000	-1.789521
863.249000	-2.735080
863.454000	-2.103557
863.659000	-3.011174
863.865000	-3.239254
864.070000	-3.140917
864.275000	-3.360197
864.480000	-3.751829
864.686000	-5.761830
864.891000	-4.632742
865.096000	-1.724912
865.301000	-1.456418
865.507000	-1.464986
865.712000	-0.262368
865.917000	-0.869180
866.122000	-0.540578
866.328000	-3.150911
866.533000	-2.594362
866.738000	0.177618
866.943000	-1.101331
867.148000	0.290864
867.354000	-2.525577
867.559000	-4.387204
867.764000	-3.331984
867.969000	-1.355500
868.175000	-1.918540
868.380000	-3.292325
868.585000	-4.665449
868.790000	-0.961492
868.996000	-2.235267
869.201000	-3.396340
869.406000	-4.687209
869.611000	-4.171013
869.817000	-3.818212
870.022000	0.885358
870.227000	-0.338664
870.432000	-2.687440
870.637000	-2.455534
870.843000	-2.351629
871.048000	-2.293650
871.253000	0.070979
871.458000	-1.058194
871.664000	-3.816966
871.869000	-4.922768
872.074000	-3.851084
872.279000	-1.737583
872.485000	-3.023933
872.690000	-3.219998
872.895000	-2.743412
873.100000	-2.930582
873.306000	-3.681881
873.511000	-2.529555
873.716000	-0.546786
873.921000	-2.156647
874.126000	-3.277363
874.332000	-2.494777
874.537000	-1.247260
874.742000	-2.499027
874.947000	-1.374620
875.153000	1.858507
875.358000	-0.114834
875.563000	-2.345543
875.768000	-6.579719
875.974000	-5.578468
876.179000	-2.112103
876.384000	-1.604717
876.589000	-2.468061
876.794000	-3.647476
877.000000	-3.650484
877.205000	-4.821940
877.410000	-1.365721
877.615000	-2.805480
877.821000	-5.475560
878.026000	-3.691866
878.231000	-4.352503
878.436000	-5.486205
878.642000	-4.656817
878.847000	-3.062421
879.052000	-0.120186
879.257000	-2.949941
879.463000	-5.381971
879.668000	-2.617593
879.873000	0.690869
880.078000	-3.313430
880.283000	-4.348770
880.489000	-4.280515
880.694000	-5.531344
880.899000	-4.262571
881.104000	-2.271521
881.310000	0.844874
881.515000	-0.470372
881.720000	0.707255
881.925000	2.872867
882.131000	2.454642
882.336000	-0.337299
882.541000	-3.243707
882.746000	-2.975016
882.952000	-3.469187
883.157000	-4.261649
883.362000	-4.767818
883.567000	-4.859450
883.772000	-4.108842
883.978000	-3.896086
884.183000	-1.800047
884.388000	-1.651014
884.593000	-5.491111
884.799000	-0.640342
885.004000	0.383729
885.209000	-1.978528
885.414000	-2.339610
885.620000	-4.801992
885.825000	-2.522741
886.030000	-2.219844
886.235000	-3.882354
886.440000	-4.292547
886.646000	-5.974938
886.851000	-6.157399
887.056000	-1.360803
887.261000	-1.744447
887.467000	-4.440324
887.672000	0.015469
887.877000	-2.394398
888.082000	-5.764613
888.288000	-6.288363
888.493000	-8.198199
888.698000	-5.966110
888.903000	-3.061735
889.109000	-4.472846
889.314000	0.567303
889.519000	-1.554151
889.724000	0.015721
889.929000	0.015739
890.135000	-2.509302
890.340000	-4.435975
890.545000	-3.162569
890.750000	-3.965922
890.956000	-4.059027
891.161000	-2.058496
891.366000	-4.144631
891.571000	-2.550360
891.777000	-2.071090
891.982000	-0.951870
892.187000	-0.307848
892.392000	0.501084
892.598000	-0.471432
892.803000	-0.803599
893.008000	-1.540070
893.213000	-3.006642
893.418000	-4.837952
893.624000	-5.110297
893.829000	-7.842489
894.034000	-3.879862
894.239000	-2.482664
894.445000	-4.887333
894.650000	-4.577820
894.855000	-4.918093
895.060000	-4.158372
895.266000	-5.361433
895.471000	-7.718966
895.676000	-2.936360
895.881000	-1.770173
896.087000	-3.813417
896.292000	-4.180923
896.497000	-0.068876
896.702000	-2.212357
896.907000	-3.761657
897.113000	0.706839
897.318000	0.448013
897.523000	0.276427
897.728000	-3.364577
897.934000	-3.526607
898.139000	-3.536331
898.344000	-1.207351
898.549000	-2.710018
898.755000	-5.269108
898.960000	-4.947020
899.165000	-6.190990
899.370000	-1.763600
899.575000	0.821542
899.781000	-4.459669
899.986000	-5.534576
900.191000	-3.496978
900.396000	-3.140106
900.602000	-3.975928
900.807000	-5.740935
901.012000	-4.214129
901.217000	-0.258272
901.423000	-4.210109
901.628000	-6.068834
901.833000	1.408901
902.038000	0.859385
902.244000	-4.918583
902.449000	-3.448290
902.654000	-2.158958
902.859000	-0.358984
903.064000	-0.645472
903.270000	-1.695693
903.475000	-4.366421
903.680000	-6.552472
903.885000	-5.068727
904.091000	-4.901823
904.296000	-6.277575
904.501000	-5.816182
904.706000	-5.932471
904.912000	-0.374782
905.117000	-1.663875
905.322000	-5.171929
905.527000	-3.855989
905.733000	-4.256308
905.938000	-4.082808
906.143000	-5.448397
906.348000	-7.479820
906.553000	-1.817017
906.759000	-0.795723
906.964000	-4.080383
907.169000	-4.103367
907.374000	-6.254455
907.580000	-4.736505
907.785000	-4.081732
907.990000	27.168673
908.195000	17.439108
908.401000	-0.510398
908.606000	-7.355907
908.811000	-10.125683
909.016000	-4.032110
909.221000	-3.509840
909.427000	-4.067907
909.632000	-5.514923
909.837000	-4.022903
910.042000	-7.104328
910.248000	-9.563539
910.453000	-4.406240
910.658000	-4.551382
910.863000	-5.438136
911.069000	-6.688229
911.274000	-3.470070
911.479000	-3.264710
911.684000	-8.584924
911.890000	-4.768502
912.095000	-5.231260
912.300000	-7.339179
912.506000	-6.652474
912.711000	-5.103967
912.917000	-2.425966
913.123000	-4.062453
913.328000	-3.500262
913.534000	-2.821154
913.740000	7.424650
913.946000	0.263922
914.151000	-7.029192
914.357000	-5.340600
914.563000	-3.217876
914.768000	-6.994541
914.974000	-8.902971
915.180000	-7.137324
915.385000	-4.066475
915.591000	-8.105102
915.797000	-3.488578
916.002000	2.551641
916.208000	-1.735357
916.414000	-6.076888
916.620000	-8.383146
916.825000	-4.319725
917.031000	-5.474115
917.237000	-11.273843
917.442000	-6.982712
917.648000	-8.083984
917.854000	-8.732258
918.059000	-1.158268
918.265000	2.918335
918.471000	-1.691165
918.676000	-7.985303
918.882000	-10.457470
919.088000	-9.937972
919.294000	-13.949808
919.499000	-9.400602
919.705000	-2.582755
919.911000	-4.780636
920.116000	-3.440991
920.322000	-9.865220
920.528000	-6.976222
920.733000	-9.062167
920.939000	-10.668425
921.145000	-7.371296
921.350000	-5.736284
921.556000	-6.800656
921.762000	-4.174513
921.968000	-5.349321
922.173000	-7.726541
922.379000	-12.373444
922.585000	-5.174511
922.790000	-4.885768
922.996000	-7.475802
923.202000	-9.845113
923.407000	-9.753858
923.613000	-5.786702
923.819000	-2.274638
924.024000	-4.551750
924.230000	-3.811934
924.436000	-6.465599
924.642000	5.042627
924.847000	0.189874
925.053000	-9.926335
925.259000	-16.112692
925.464000	-7.933688
925.670000	-7.449716
925.876000	-7.211836
926.081000	-8.545240
926.287000	-3.373572
926.493000	-5.248647
926.698000	-6.249364
926.904000	-6.375352
927.110000	-11.207243
927.316000	-7.934601
927.521000	2.381165
927.727000	-4.731814
927.933000	-6.974655
928.138000	-5.803309
928.344000	-13.860350
928.550000	-11.445605
928.755000	-4.539327
928.961000	-7.866604
929.167000	-8.267889
929.372000	0.212838
929.578000	2.362777
929.784000	-5.553501
929.990000	-9.201814
930.195000	-8.318078
930.401000	-7.099204
930.607000	-4.915394
930.812000	-9.223100
931.018000	-11.864940
931.224000	-15.227749
931.429000	-9.049092
931.635000	-12.618654
931.841000	-12.932861
932.046000	-8.380494
932.252000	-2.847213
932.458000	4.309422
932.664000	-2.708984
932.869000	-9.982628
933.075000	-11.237691
933.281000	-11.798953
933.486000	-3.618925
933.692000	-5.881733
933.898000	-9.285720
934.103000	1.070986
934.309000	-5.425377
934.515000	-2.094681
934.720000	1.544237
934.926000	-0.605573
935.132000	1.341992
935.338000	-3.456968
935.543000	-11.940068
935.749000	-13.844189
935.955000	-15.933309
936.160000	-11.792478
936.366000	-3.849239
936.572000	-5.794190
936.777000	-0.429154
936.983000	2.198602
937.189000	-8.140813
937.394000	-12.644775
937.600000	-3.629566
937.806000	0.296433
938.012000	-4.717443
938.217000	11.679212
938.423000	6.670520
938.629000	-5.296448
938.834000	-14.310488
939.040000	-13.310181
939.246000	-7.526207
939.451000	-11.855025
939.657000	-8.498146
939.863000	-14.580645
940.068000	-3.776302
940.274000	-6.832800
940.480000	-3.294341
940.686000	-1.648830
940.891000	-7.554655
941.097000	16.392887
941.303000	5.810144
941.508000	-6.596348
941.714000	-7.213998
941.920000	-21.748786
942.125000	-9.715278
942.331000	-4.106557
942.537000	-4.400801
942.742000	-2.042532
942.948000	-11.956551
943.154000	-16.142668
943.360000	-26.143136
943.565000	-8.211619
943.771000	3.464370
943.977000	3.133492
944.182000	-17.112683
944.388000	-20.883090
944.594000	-5.243769
944.799000	3.216013
945.005000	-8.928467
945.211000	1.616867
945.416000	-2.462719
945.622000	-19.878377
945.828000	-19.133002
946.034000	-2.211231
946.239000	-4.512550
946.445000	-12.169744
946.651000	-20.123509
946.856000	-17.283547
947.062000	-2.837097
947.268000	0.064932
947.473000	-18.841465
947.679000	-22.235799
947.885000	-3.881962
948.090000	-3.905805
948.296000	5.789507
948.502000	-7.232197
948.708000	-14.657616
948.913000	-18.217949
949.119000	-6.702288
949.325000	-18.561537
949.530000	-28.402849
949.736000	-29.656134
949.942000	-18.773724
950.147000	-16.199197
950.353000	-11.693435
950.559000	-11.701045
950.764000	10.927861
950.970000	8.952239
951.176000	-8.572205
951.382000	-21.903649
951.587000	-9.523730
951.793000	0.071542
951.999000	-0.634727
952.204000	-11.323141
952.410000	-33.102084
952.616000	-16.037024
952.821000	-4.863477
953.027000	-12.991811
953.233000	-26.163115
953.438000	-25.989638
953.644000	2.243285
953.850000	4.055092
954.056000	-3.219857
954.261000	-8.762368
954.467000	-0.295223
954.673000	4.492739
954.878000	0.073905
955.084000	-3.625797
955.290000	-27.786030
955.495000	-28.239802
955.701000	-22.590991
955.907000	-1.437800
956.112000	-1.816354
956.318000	7.200811
956.524000	2.731413
956.730000	-13.794809
956.935000	-13.450045
957.141000	-21.419920
957.347000	-5.764919
957.552000	-13.930291
957.758000	-29.904502
957.964000	-40.828427
958.169000	6.007713
958.375000	7.612196
958.581000	-12.270879
958.786000	-22.666837
958.992000	-32.439762
959.198000	-8.471839
959.404000	0.081171
959.609000	-13.177301
959.815000	-17.534544
960.021000	2.149064
960.226000	-8.672359
960.432000	-31.391491
960.638000	-21.053746
960.843000	-13.862055
961.049000	-7.247684
961.255000	6.071697
961.460000	-11.111099
961.666000	-38.979240
961.872000	-21.406912
962.078000	-18.532948
962.283000	-32.316481
962.489000	-26.533681
962.695000	-19.096254
962.900000	-20.273929
963.106000	-16.018772
963.312000	-15.773646
963.517000	-16.339085
963.723000	-25.307086
963.929000	-6.802411
964.134000	4.220250
964.340000	-17.069828
964.546000	-20.334770
964.752000	-30.015918
964.957000	-36.917980
965.163000	-4.687310
965.369000	-3.779686
965.574000	-7.245805
965.780000	-9.701802
966.000000	-21.479048
966.220000	-22.594175
966.440000	-21.225933
966.661000	-8.382062
966.881000	-31.929716
967.101000	-43.738394
967.321000	-44.516102
967.541000	-15.109955
967.761000	-24.517354
967.981000	-23.988013
968.202000	-16.159467
968.422000	1.158883
968.642000	-1.470404
968.862000	-5.790094
969.082000	-12.313254
969.302000	0.111528
969.522000	-7.015527
969.743000	-2.028135
969.963000	-20.073953
970.183000	-36.055153
970.403000	-25.095287
970.623000	-29.473826
970.843000	-4.959159
971.063000	-2.174505
971.284000	-22.337727
971.504000	-28.224014
971.724000	-5.731321
971.944000	-30.666759
972.164000	-45.624660
972.384000	-27.543233
972.604000	-44.652021
972.825000	-51.726487
973.045000	-43.942162
973.265000	13.482606
973.485000	12.495065
973.705000	-6.095950
973.925000	-23.868652
974.145000	-62.344965
974.365000	-23.799344
974.586000	-7.676035
974.806000	-39.589669
975.026000	-12.278495
975.246000	-23.134679
975.466000	-30.899055
975.686000	-18.070735
975.906000	-35.656723
976.127000	-70.205592
976.347000	-51.419490
976.567000	-2.580420
976.787000	-9.399921
977.007000	-35.589522
977.227000	-41.188704
977.447000	-38.858246
977.668000	-59.565870
977.888000	-42.963279
978.108000	-42.023574
978.328000	-24.788849
978.548000	15.314039
978.768000	6.769593
978.988000	-12.914377
979.209000	-26.629738
979.429000	-26.782975
979.649000	-2.859004
979.869000	-39.326236
980.089000	-54.945197
980.309000	-44.952864
980.529000	-70.148779
980.750000	-54.495034
980.970000	-59.674939
981.190000	-34.236986
981.410000	-26.099394
981.630000	-29.082182
981.850000	-30.292126
982.070000	-24.073496
982.291000	-58.775071
982.511000	-52.254922
982.731000	-10.392362
982.951000	-37.892475
983.171000	-44.314410
983.391000	-33.332501
983.611000	9.114066
983.832000	-27.206460
984.052000	-56.272973
984.272000	-36.462811
984.492000	-40.592271
984.712000	-57.589875
984.932000	-69.977317
985.152000	-50.268705
985.373000	-48.420166
985.593000	-36.486765
985.813000	-45.856551
986.033000	-36.441032
986.253000	-2.850021
986.473000	9.872444
986.693000	-32.688126
986.914000	-45.685326
987.134000	6.466478
987.354000	-36.925193
987.574000	206.705303
987.794000	122.790307
988.014000	-73.085170
988.234000	-73.401687
988.455000	-34.702588
988.675000	-4.302922
988.895000	-30.233606
989.115000	-40.095828
989.335000	-8.997522
989.555000	29.016607
989.775000	-37.254152
989.995000	-60.439509
990.216000	-53.088525
990.436000	-32.788027
990.656000	10.228761
990.876000	-47.235254
991.096000	-38.341784
991.316000	19.979051
991.536000	-15.312558
991.757000	-38.968844
991.977000	-70.760597
992.197000	-5.007187
992.417000	-33.336471
992.637000	-97.179639
992.857000	-111.932826
993.077000	-86.103152
993.298000	-38.989937
993.518000	-51.614973
993.738000	-105.180006
993.958000	-64.002197
994.178000	-56.026593
994.398000	-49.502159
994.618000	-95.623924
994.839000	-149.438053
995.059000	-29.015272
995.279000	50.387481
995.499000	0.315135
995.719000	15.484928
995.939000	-17.952176
996.159000	-40.293829
996.380000	-54.798808
996.600000	-72.278956
996.820000	-37.116479
997.040000	0.331184
997.260000	-56.991165
997.480000	-28.958985
997.700000	-109.673814
997.921000	-71.712485
998.141000	2.005222
998.361000	-16.538430
998.581000	-26.458143
998.801000	-73.878439
999.021000	-56.195592
999.241000	-7.070142
999.462000	-44.526558
999.682000	-109.662674
999.902000	-74.581699
1000.122000	-110.255536
1000.342000	-168.356558
1000.562000	-84.424867
1000.782000	-104.036377
1001.003000	-1049.576950
