Wavelength	Irradiance
(nm)	(mW/cm2/nm)

294.396000	0.000000
294.577000	0.000000
294.757000	0.000000
294.938000	0.000000
295.118000	0.000000
295.299000	0.000000
295.479000	-0.000000
295.660000	-0.000000
295.840000	-0.000000
296.021000	-0.000000
296.202000	-0.000000
296.382000	-0.000000
296.563000	-0.000000
296.743000	-0.000000
296.924000	0.000000
297.104000	-0.000000
297.285000	-0.000000
297.465000	-0.000000
297.646000	0.000000
297.826000	0.000000
298.007000	0.000000
298.187000	0.000000
298.368000	-0.000000
298.548000	0.000000
298.729000	0.000000
298.909000	-0.000000
299.090000	-0.000000
299.270000	-0.000000
299.451000	-0.000000
299.631000	-0.000000
299.812000	0.000000
299.992000	0.000000
300.173000	0.000000
300.353000	-0.000000
300.534000	0.000000
300.714000	0.000000
300.895000	0.000000
301.075000	-0.000000
301.256000	0.000000
301.436000	0.000000
301.617000	0.000000
301.797000	-0.000000
301.978000	-0.000000
302.159000	0.000000
302.339000	0.000000
302.520000	-0.000000
302.700000	-0.000000
302.881000	0.000000
303.061000	0.000000
303.242000	0.000000
303.422000	0.000000
303.603000	-0.000000
303.783000	-0.000000
303.964000	0.000000
304.144000	0.000000
304.325000	-0.000000
304.505000	0.000000
304.686000	0.000000
304.866000	0.000000
305.047000	0.000000
305.227000	-0.000000
305.408000	-0.000000
305.588000	-0.000000
305.769000	-0.000000
305.949000	-0.000000
306.130000	-0.000000
306.310000	-0.000000
306.491000	-0.000000
306.671000	0.000000
306.852000	-0.000000
307.032000	-0.000000
307.213000	-0.000000
307.393000	-0.000000
307.574000	0.000000
307.755000	0.000000
307.935000	0.000000
308.116000	-0.000000
308.296000	-0.000000
308.477000	0.000000
308.657000	0.000000
308.838000	0.000000
309.018000	0.000000
309.199000	-0.000000
309.379000	-0.000000
309.560000	0.000000
309.740000	0.000000
309.921000	0.000000
310.101000	-0.000000
310.282000	-0.000000
310.462000	-0.000000
310.643000	-0.000000
310.823000	-0.000000
311.004000	-0.000000
311.184000	-0.000000
311.365000	0.000000
311.545000	0.000000
311.726000	0.000000
311.906000	-0.000000
312.087000	-0.000000
312.267000	-0.000000
312.448000	-0.000000
312.628000	-0.000000
312.809000	-0.000000
312.989000	-0.000000
313.170000	-0.000000
313.344000	0.000000
313.518000	-0.000000
313.691000	-0.000000
313.865000	-0.000000
314.039000	-0.000000
314.213000	-0.000000
314.387000	-0.000000
314.560000	-0.000000
314.734000	-0.000000
314.908000	-0.000000
315.082000	-0.000000
315.255000	0.000000
315.429000	0.000000
315.603000	0.000000
315.777000	-0.000000
315.951000	0.000000
316.124000	-0.000000
316.298000	-0.000000
316.472000	-0.000000
316.646000	-0.000000
316.820000	-0.000000
316.993000	0.000000
317.167000	-0.000000
317.341000	-0.000000
317.515000	-0.000000
317.688000	-0.000000
317.862000	-0.000000
318.036000	-0.000000
318.210000	-0.000000
318.384000	-0.000000
318.557000	-0.000000
318.731000	-0.000000
318.905000	0.000000
319.079000	0.000000
319.253000	-0.000000
319.426000	0.000000
319.600000	0.000000
319.774000	-0.000000
319.948000	-0.000000
320.122000	0.000000
320.295000	0.000000
320.469000	-0.000000
320.643000	-0.000000
320.817000	-0.000000
320.990000	-0.000000
321.164000	-0.000000
321.338000	-0.000000
321.512000	-0.000000
321.686000	-0.000000
321.859000	-0.000000
322.033000	-0.000000
322.207000	0.000000
322.381000	-0.000000
322.555000	0.000000
322.728000	0.000000
322.902000	-0.000000
323.076000	-0.000000
323.250000	-0.000000
323.423000	-0.000000
323.597000	-0.000000
323.771000	-0.000000
323.945000	-0.000000
324.119000	-0.000000
324.292000	0.000000
324.466000	-0.000000
324.640000	0.000000
324.814000	0.000000
324.988000	-0.000000
325.161000	-0.000000
325.335000	-0.000000
325.509000	-0.000000
325.683000	0.000000
325.856000	-0.000000
326.030000	-0.000000
326.204000	-0.000000
326.378000	-0.000000
326.552000	-0.000000
326.725000	-0.000000
326.899000	-0.000000
327.073000	-0.000000
327.247000	-0.000000
327.421000	0.000000
327.594000	0.000000
327.768000	0.000000
327.942000	-0.000000
328.116000	0.000000
328.289000	-0.000000
328.463000	0.000000
328.637000	0.000000
328.811000	-0.000000
328.985000	-0.000000
329.158000	-0.000000
329.332000	-0.000000
329.506000	0.000000
329.680000	-0.000000
329.854000	-0.000000
330.027000	-0.000000
330.201000	0.000000
330.375000	0.000000
330.549000	0.000000
330.723000	0.000000
330.896000	-0.000000
331.070000	-0.000000
331.244000	-0.000000
331.418000	-0.000000
331.591000	-0.000000
331.765000	-0.000000
331.939000	0.000000
332.113000	0.000000
332.287000	0.000000
332.460000	0.000000
332.634000	0.000000
332.808000	-0.000000
332.982000	-0.000000
333.156000	-0.000000
333.329000	-0.000000
333.503000	-0.000000
333.677000	-0.000000
333.851000	-0.000000
334.024000	0.000000
334.198000	-0.000000
334.372000	-0.000000
334.546000	-0.000000
334.720000	-0.000000
334.893000	-0.000000
335.067000	-0.000000
335.241000	-0.000000
335.415000	-0.000000
335.589000	-0.000000
335.762000	-0.000000
335.936000	-0.000000
336.110000	-0.000000
336.284000	-0.000000
336.458000	-0.000000
336.631000	-0.000000
336.805000	-0.000000
336.979000	-0.000000
337.153000	-0.000000
337.326000	-0.000000
337.500000	0.000000
337.674000	-0.000000
337.848000	0.000000
338.022000	0.000000
338.195000	-0.000000
338.369000	-0.000000
338.543000	0.000000
338.717000	0.000000
338.891000	0.000000
339.064000	0.000000
339.238000	-0.000000
339.412000	-0.000000
339.586000	-0.000000
339.759000	-0.000000
339.933000	-0.000000
340.107000	0.000000
340.281000	0.000000
340.455000	-0.000000
340.628000	-0.000000
340.802000	-0.000000
340.976000	0.000000
341.150000	-0.000000
341.324000	-0.000000
341.497000	-0.000000
341.671000	-0.000000
341.845000	-0.000000
342.019000	-0.000000
342.192000	0.000000
342.366000	-0.000000
342.540000	-0.000000
342.714000	-0.000000
342.888000	-0.000000
343.061000	0.000000
343.235000	-0.000000
343.409000	-0.000000
343.583000	-0.000000
343.757000	0.000000
343.930000	-0.000000
344.104000	-0.000000
344.278000	0.000000
344.452000	0.000000
344.626000	-0.000000
344.799000	-0.000000
344.973000	-0.000000
345.147000	-0.000000
345.321000	-0.000000
345.494000	-0.000000
345.668000	0.000000
345.842000	0.000000
346.016000	-0.000000
346.190000	0.000000
346.363000	0.000000
346.537000	-0.000000
346.711000	0.000000
346.885000	-0.000000
347.059000	-0.000000
347.232000	0.000000
347.406000	0.000000
347.580000	-0.000000
347.754000	-0.000000
347.927000	0.000000
348.101000	0.000000
348.275000	-0.000000
348.449000	-0.000000
348.623000	-0.000000
348.796000	0.000000
348.970000	0.000000
349.144000	-0.000000
349.318000	-0.000000
349.492000	-0.000000
349.665000	-0.000000
349.839000	-0.000000
350.013000	-0.000000
350.187000	-0.000000
350.361000	-0.000000
350.534000	0.000000
350.708000	-0.000000
350.882000	-0.000000
351.056000	0.000000
351.229000	0.000000
351.403000	-0.000000
351.577000	-0.000000
351.751000	-0.000000
351.925000	-0.000000
352.098000	-0.000000
352.272000	-0.000000
352.446000	-0.000000
352.620000	-0.000000
352.794000	-0.000000
352.967000	-0.000000
353.141000	0.000000
353.315000	0.000000
353.489000	-0.000000
353.662000	-0.000000
353.836000	-0.000000
354.010000	0.000000
354.184000	0.000000
354.358000	-0.000000
354.531000	-0.000000
354.705000	-0.000000
354.879000	0.000000
355.053000	-0.000000
355.227000	-0.000000
355.400000	-0.000000
355.574000	0.000000
355.748000	0.000000
355.922000	-0.000000
356.095000	-0.000000
356.269000	0.000000
356.443000	-0.000000
356.617000	-0.000000
356.791000	-0.000000
356.964000	-0.000000
357.138000	-0.000000
357.312000	-0.000000
357.486000	-0.000000
357.660000	0.000000
357.833000	0.000000
358.007000	0.000000
358.181000	-0.000000
358.355000	-0.000000
358.529000	-0.000000
358.702000	-0.000000
358.876000	-0.000000
359.050000	-0.000000
359.224000	-0.000000
359.397000	0.000000
359.571000	-0.000000
359.745000	-0.000000
359.919000	0.000000
360.093000	0.025438
360.266000	0.082543
360.440000	0.182537
360.614000	0.267617
360.788000	0.085188
360.962000	-0.223418
361.135000	-0.182763
361.309000	-0.200885
361.483000	-0.253181
361.657000	-0.269095
361.830000	-0.179735
362.004000	-0.078569
362.178000	-0.359287
362.352000	-0.133761
362.526000	0.014455
362.699000	-0.060932
362.873000	-0.447904
363.047000	-0.361317
363.221000	-0.377657
363.395000	-0.277590
363.568000	-0.304616
363.742000	-0.209936
363.916000	-0.090010
364.090000	-0.262946
364.263000	-0.245314
364.437000	-0.244262
364.611000	0.075426
364.785000	-0.181195
364.959000	-0.269823
365.132000	-0.241244
365.306000	-0.335123
365.480000	-0.098273
365.656000	-0.164828
365.831000	-0.171097
366.007000	-0.166956
366.183000	-0.115511
366.358000	-0.201622
366.534000	-0.218748
366.710000	-0.403521
366.886000	-0.165107
367.061000	-0.136584
367.237000	0.002065
367.413000	-0.011720
367.588000	-0.251509
367.764000	-0.186570
367.940000	-0.303712
368.115000	-0.284248
368.291000	-0.214724
368.467000	-0.212529
368.643000	0.071950
368.818000	-0.089660
368.994000	-0.206158
369.170000	-0.175882
369.345000	-0.214465
369.521000	-0.229328
369.697000	-0.143048
369.872000	-0.291809
370.048000	-0.487593
370.224000	-0.412788
370.399000	-0.391162
370.575000	-0.158894
370.751000	-0.427595
370.927000	-0.308998
371.102000	-0.224342
371.278000	-0.368642
371.454000	-0.298308
371.629000	0.088838
371.805000	-0.069991
371.981000	0.082504
372.156000	0.422684
372.332000	0.087291
372.508000	-0.041160
372.683000	-0.062449
372.859000	-0.294229
373.035000	-0.260854
373.211000	0.134172
373.386000	0.016823
373.562000	-0.282025
373.738000	-0.370741
373.913000	-0.606855
374.089000	-0.310434
374.265000	0.089787
374.440000	-0.064071
374.616000	-0.078630
374.792000	-0.269518
374.968000	0.173972
375.143000	0.038197
375.319000	-0.194992
375.495000	-0.314810
375.670000	-0.285103
375.846000	0.002173
376.022000	-0.202721
376.197000	-0.092179
376.373000	-0.340456
376.549000	-0.417530
376.724000	-0.501546
376.900000	-0.359957
377.076000	-0.168831
377.252000	0.085894
377.427000	0.191848
377.603000	-0.097459
377.779000	-0.161543
377.954000	-0.397368
378.130000	-0.200659
378.306000	-0.266142
378.481000	-0.201775
378.657000	-0.193753
378.833000	-0.214376
379.009000	-0.189066
379.184000	-0.019032
379.360000	0.037033
379.536000	0.009159
379.711000	-0.241370
379.887000	-0.301336
380.063000	-0.249262
380.238000	-0.370548
380.414000	-0.081797
380.590000	-0.167297
380.765000	-0.300485
380.941000	-0.164917
381.117000	-0.101638
381.293000	-0.177278
381.468000	-0.441328
381.644000	-0.302531
381.820000	-0.094926
381.995000	0.086061
382.171000	0.304394
382.347000	0.156577
382.522000	-0.347004
382.698000	-0.116012
382.874000	-0.004855
383.050000	-0.291168
383.225000	0.036947
383.401000	0.330821
383.577000	0.058463
383.752000	-0.170625
383.928000	-0.039287
384.104000	0.051575
384.279000	-0.224143
384.455000	-0.231553
384.631000	-0.156200
384.806000	-0.347337
384.982000	-0.218384
385.158000	-0.289755
385.334000	-0.155320
385.509000	-0.162838
385.685000	-0.451539
385.861000	-0.284072
386.036000	-0.424711
386.212000	-0.619945
386.388000	-0.359702
386.563000	-0.284081
386.739000	-0.218240
386.915000	-0.382986
387.090000	-0.191925
387.266000	0.043499
387.442000	-0.025523
387.618000	-0.189568
387.793000	-0.349954
387.969000	-0.577439
388.145000	-0.458838
388.320000	-0.282270
388.496000	-0.282852
388.672000	-0.413388
388.847000	0.145067
389.023000	0.029474
389.199000	-0.404460
389.375000	-0.140596
389.550000	-0.206935
389.726000	-0.099337
389.902000	-0.347317
390.077000	-0.151672
390.253000	-0.079525
390.429000	-0.291937
390.604000	-0.276337
390.780000	-0.133090
390.956000	-0.172283
391.131000	-0.285698
391.307000	-0.058251
391.483000	-0.232246
391.659000	-0.273296
391.834000	-0.145088
392.010000	-0.305139
392.186000	-0.352247
392.361000	-0.219038
392.537000	-0.342977
392.713000	-0.083633
392.888000	0.265782
393.064000	0.028460
393.240000	-0.143263
393.416000	-0.253926
393.591000	-0.328457
393.767000	-0.382538
393.943000	-0.384283
394.118000	-0.082680
394.294000	0.249176
394.470000	0.118752
394.645000	0.034283
394.821000	0.197135
394.997000	-0.043319
395.172000	-0.126699
395.348000	-0.094728
395.524000	-0.448038
395.700000	-0.491113
395.875000	-0.208765
396.051000	-0.163861
396.227000	-0.120118
396.402000	-0.056181
396.578000	-0.017391
396.754000	-0.241510
396.929000	-0.144769
397.105000	0.091062
397.281000	0.040105
397.457000	-0.156781
397.632000	-0.217934
397.808000	-0.541668
397.984000	-0.606635
398.159000	-0.487050
398.335000	-0.257878
398.511000	0.216926
398.686000	-0.105506
398.862000	-0.311871
399.038000	-0.311068
399.213000	-0.197473
399.389000	-0.587963
399.565000	-0.123269
399.741000	0.170634
399.916000	0.008204
400.092000	0.209120
400.268000	-0.135152
400.443000	-0.369954
400.619000	-0.042148
400.795000	-0.143324
400.970000	-0.259803
401.146000	-0.248310
401.322000	0.033374
401.497000	0.429764
401.673000	0.109418
401.849000	-0.168311
402.025000	-0.060888
402.200000	-0.236002
402.376000	-0.304729
402.552000	0.190379
402.727000	0.058160
402.903000	-0.347600
403.079000	-0.285386
403.254000	0.008125
403.430000	-0.066430
403.606000	-0.172257
403.782000	-0.140987
403.957000	-0.315786
404.133000	-0.547653
404.309000	-0.366447
404.484000	-0.091440
404.660000	-0.141598
404.841000	-0.216584
405.023000	0.057730
405.204000	-0.110198
405.385000	-0.467200
405.566000	-0.452647
405.748000	-0.167974
405.929000	0.008219
406.110000	-0.079369
406.292000	-0.103325
406.473000	0.020468
406.654000	-0.229437
406.835000	-0.185040
407.017000	-0.109860
407.198000	-0.262073
407.379000	-0.316436
407.560000	-0.262168
407.742000	-0.227078
407.923000	-0.091460
408.104000	-0.183908
408.286000	0.008034
408.467000	0.032671
408.648000	-0.313498
408.829000	-0.447952
409.011000	-0.300447
409.192000	-0.456453
409.373000	-0.158956
409.555000	0.032786
409.736000	0.001843
409.917000	-0.133835
410.098000	-0.169709
410.280000	-0.150233
410.461000	-0.174252
410.642000	-0.198905
410.823000	0.080871
411.005000	-0.004262
411.186000	-0.150480
411.367000	-0.217684
411.549000	-0.144408
411.730000	0.123657
411.911000	0.020068
412.092000	-0.137631
412.274000	-0.250924
412.455000	-0.239384
412.636000	-0.076649
412.818000	-0.226628
412.999000	-0.278831
413.180000	-0.328569
413.361000	-0.347880
413.543000	-0.376006
413.724000	-0.428877
413.905000	-0.381037
414.087000	-0.261949
414.268000	-0.371720
414.449000	-0.271441
414.630000	-0.284422
414.812000	-0.492117
414.993000	-0.251910
415.174000	-0.074960
415.355000	-0.277342
415.537000	-0.607215
415.718000	-0.169864
415.899000	-0.263773
416.081000	-0.350838
416.262000	-0.056887
416.443000	-0.243941
416.624000	-0.272559
416.806000	-0.138588
416.987000	-0.033491
417.168000	-0.179302
417.350000	-0.377789
417.531000	-0.520618
417.712000	-0.352274
417.893000	0.019145
418.075000	0.111547
418.256000	-0.230118
418.437000	-0.097190
418.618000	0.013337
418.800000	0.059634
418.981000	-0.274797
419.162000	-0.250133
419.344000	0.059343
419.525000	-0.061980
419.706000	-0.247616
419.887000	-0.032988
420.069000	0.209859
420.250000	0.007514
420.431000	-0.061693
420.613000	-0.183638
420.794000	-0.439360
420.975000	0.047675
421.156000	-0.084599
421.338000	-0.262792
421.519000	-0.268487
421.700000	-0.223154
421.882000	-0.234644
422.063000	-0.130550
422.244000	0.327872
422.425000	0.128088
422.607000	-0.247829
422.788000	-0.223572
422.969000	-0.193340
423.150000	-0.245258
423.332000	-0.296096
423.513000	-0.095949
423.694000	-0.056024
423.876000	-0.257389
424.057000	-0.159525
424.238000	0.036418
424.419000	-0.044641
424.601000	-0.264912
424.782000	-0.096708
424.963000	0.064894
425.145000	-0.073133
425.326000	-0.072819
425.507000	0.070422
425.688000	-0.073082
425.870000	-0.339134
426.051000	-0.399930
426.232000	-0.296624
426.413000	-0.286826
426.595000	-0.325511
426.776000	-0.308146
426.957000	-0.297950
427.139000	-0.210609
427.320000	-0.176956
427.501000	-0.090848
427.682000	-0.078888
427.864000	-0.130638
428.045000	0.163341
428.226000	0.077039
428.408000	-0.258675
428.589000	-0.263337
428.770000	-0.165003
428.951000	-0.141765
429.133000	-0.393127
429.314000	-0.164001
429.495000	-0.197629
429.677000	-0.204045
429.858000	-0.244318
430.039000	-0.118579
430.220000	-0.032658
430.402000	0.041694
430.583000	-0.307427
430.764000	-0.266288
430.945000	-0.123977
431.127000	-0.020988
431.308000	-0.128174
431.489000	-0.026685
431.671000	0.041617
431.852000	-0.105895
432.033000	-0.134224
432.214000	-0.060480
432.396000	-0.082870
432.577000	-0.218650
432.758000	-0.428829
432.940000	-0.298219
433.121000	-0.043527
433.302000	-0.065919
433.483000	0.024179
433.665000	0.147963
433.846000	-0.020812
434.027000	-0.210728
434.208000	-0.344427
434.390000	-0.278463
434.571000	0.153023
434.752000	0.591441
434.934000	0.355799
435.115000	0.162534
435.296000	0.112573
435.477000	0.029305
435.659000	-0.124192
435.840000	-0.102621
436.026000	-0.189861
436.211000	-0.162326
436.397000	-0.346834
436.582000	-0.319624
436.768000	-0.232312
436.953000	-0.329794
437.139000	-0.117643
437.325000	0.077185
437.510000	-0.068539
437.696000	0.082352
437.881000	0.125214
438.067000	-0.126634
438.252000	-0.116034
438.438000	-0.169386
438.624000	-0.228174
438.809000	-0.152737
438.995000	-0.009037
439.180000	0.033385
439.366000	-0.083111
439.551000	-0.172873
439.737000	-0.114488
439.923000	-0.030112
440.108000	-0.119762
440.294000	-0.093097
440.479000	0.033019
440.665000	0.121324
440.850000	-0.039872
441.036000	-0.050342
441.222000	0.017199
441.407000	-0.117906
441.593000	-0.112227
441.778000	0.073786
441.964000	0.188102
442.149000	-0.225586
442.335000	-0.347720
442.521000	-0.244726
442.706000	-0.044455
442.892000	-0.039260
443.077000	-0.105897
443.263000	0.057568
443.448000	0.001521
443.634000	-0.099981
443.820000	0.046899
444.005000	-0.023686
444.191000	-0.205539
444.376000	-0.300072
444.562000	0.016485
444.747000	0.142113
444.933000	0.076612
445.119000	-0.023478
445.304000	-0.108197
445.490000	-0.048384
445.675000	-0.018447
445.861000	-0.178464
446.046000	-0.148146
446.232000	-0.018430
446.418000	0.011444
446.603000	-0.003483
446.789000	-0.043237
446.974000	-0.068291
447.160000	-0.281619
447.345000	-0.240615
447.531000	-0.358879
447.717000	-0.217043
447.902000	-0.038403
448.088000	0.095693
448.273000	-0.116904
448.459000	-0.106738
448.644000	-0.146167
448.830000	-0.270209
449.016000	-0.289727
449.201000	-0.240030
449.387000	-0.102254
449.572000	0.114753
449.758000	-0.028054
449.943000	-0.205533
450.129000	-0.185077
450.315000	-0.135729
450.500000	-0.135847
450.686000	-0.121356
450.871000	-0.195242
451.057000	-0.126175
451.243000	-0.165260
451.428000	-0.155661
451.614000	-0.116102
451.799000	-0.160096
451.985000	-0.013213
452.170000	0.128583
452.356000	-0.140216
452.542000	-0.076796
452.727000	-0.032670
452.913000	-0.169478
453.098000	-0.037604
453.284000	0.133272
453.469000	0.050341
453.655000	0.225900
453.841000	0.059918
454.026000	-0.207098
454.212000	-0.124289
454.397000	-0.134142
454.583000	-0.320938
454.768000	-0.309472
454.954000	-0.027525
455.140000	-0.046762
455.325000	-0.171710
455.511000	-0.312705
455.696000	-0.370738
455.882000	-0.148059
456.067000	0.141375
456.253000	-0.085410
456.439000	-0.186716
456.624000	-0.219763
456.810000	-0.243137
456.995000	-0.161830
457.181000	-0.242822
457.366000	-0.112931
457.552000	-0.155177
457.738000	-0.069680
457.923000	-0.074552
458.109000	0.187183
458.294000	0.201270
458.480000	0.153878
458.665000	0.063173
458.851000	-0.069700
459.037000	-0.262344
459.222000	-0.177578
459.408000	-0.149320
459.593000	-0.176725
459.779000	-0.068688
459.964000	0.080979
460.150000	0.310893
460.336000	0.235626
460.521000	-0.021865
460.707000	-0.082149
460.892000	-0.336761
461.078000	-0.165757
461.263000	0.061476
461.449000	-0.105300
461.635000	-0.123723
461.820000	-0.030984
462.006000	0.019801
462.191000	0.015140
462.377000	-0.145009
462.562000	0.129870
462.748000	0.340100
462.934000	-0.090281
463.119000	-0.281455
463.305000	-0.071313
463.490000	-0.111649
463.676000	0.010423
463.861000	-0.076011
464.047000	-0.084844
464.233000	-0.079780
464.418000	-0.084196
464.604000	-0.209804
464.789000	-0.061594
464.975000	0.014789
465.160000	-0.048034
465.346000	-0.012114
465.532000	-0.061556
465.717000	-0.061456
465.903000	0.144662
466.088000	0.001342
466.274000	-0.078772
466.459000	-0.190251
466.645000	0.041494
466.831000	0.032366
467.016000	0.085430
467.202000	0.059135
467.387000	0.010198
467.573000	-0.170894
467.758000	-0.003078
467.944000	-0.152514
468.130000	-0.219571
468.315000	-0.069399
468.501000	0.032153
468.686000	0.010106
468.872000	0.093621
469.057000	0.102384
469.243000	-0.016281
469.429000	-0.130593
469.614000	-0.196078
469.800000	-0.358390
469.985000	-0.173608
470.171000	0.005664
470.356000	-0.086145
470.542000	-0.108424
470.728000	-0.011811
470.913000	0.040480
471.099000	0.110049
471.284000	-0.029351
471.470000	-0.086426
471.655000	-0.055724
471.841000	-0.156146
472.027000	-0.190115
472.212000	0.057910
472.398000	0.162943
472.583000	0.049416
472.769000	-0.046880
472.954000	-0.016186
473.140000	-0.129366
473.326000	-0.216759
473.511000	0.070946
473.697000	0.158181
473.882000	-0.073072
474.068000	-0.099515
474.253000	-0.168930
474.439000	-0.169199
474.625000	-0.116521
474.810000	-0.134073
474.996000	-0.094768
475.181000	-0.185789
475.367000	-0.024827
475.552000	0.185289
475.738000	-0.077096
475.924000	-0.103462
476.109000	0.014400
476.295000	-0.160234
476.480000	-0.221587
476.666000	-0.256162
476.851000	-0.234218
477.037000	-0.068835
477.223000	-0.182112
477.408000	-0.252056
477.594000	-0.356561
477.779000	-0.204230
477.965000	-0.248049
478.151000	-0.274241
478.336000	-0.086244
478.522000	-0.182122
478.707000	-0.199571
478.893000	-0.094960
479.078000	-0.231187
479.264000	-0.213694
479.450000	-0.178662
479.635000	-0.064442
479.821000	-0.108469
480.006000	-0.086446
480.192000	-0.024989
480.377000	0.014499
480.563000	-0.011851
480.749000	-0.183149
480.934000	-0.139079
481.120000	-0.024916
481.305000	0.092980
481.491000	-0.042515
481.676000	-0.170005
481.862000	-0.077934
482.048000	-0.099409
482.233000	-0.086169
482.419000	-0.108284
482.604000	-0.156668
482.790000	-0.231277
482.975000	-0.253455
483.161000	0.001314
483.347000	-0.055530
483.532000	-0.077408
483.718000	-0.314605
483.903000	-0.249138
484.089000	-0.134569
484.274000	-0.200004
484.460000	-0.090775
484.646000	-0.099553
484.831000	-0.204956
485.017000	-0.199938
485.202000	-0.112224
485.388000	0.097313
485.573000	0.088411
485.759000	-0.086015
485.945000	0.127958
486.130000	-0.016146
486.316000	-0.042346
486.501000	-0.042234
486.687000	-0.242175
486.872000	-0.268505
487.058000	-0.077078
487.244000	-0.042266
487.429000	-0.198554
487.615000	-0.007387
487.800000	0.092544
487.986000	-0.041984
488.171000	-0.033405
488.357000	-0.072204
488.543000	-0.033171
488.728000	0.031458
488.914000	-0.028891
489.099000	-0.162467
489.285000	-0.102061
489.470000	-0.003007
489.656000	0.048577
489.842000	0.035543
490.027000	0.180594
490.213000	-0.002994
490.398000	-0.315962
490.584000	-0.161061
490.769000	-0.071345
490.955000	0.078046
491.141000	0.035320
491.326000	-0.007209
491.512000	0.204721
491.697000	0.073177
491.883000	-0.108752
492.068000	-0.142622
492.254000	-0.151356
492.440000	-0.163977
492.625000	-0.108571
492.811000	-0.150511
492.996000	-0.019788
493.182000	-0.023922
493.367000	-0.268097
493.553000	-0.293431
493.739000	-0.108032
493.924000	-0.099739
494.110000	-0.153959
494.295000	-0.191132
494.481000	-0.044806
494.666000	0.022209
494.852000	0.147686
495.038000	-0.103127
495.223000	-0.220360
495.409000	-0.136411
495.594000	-0.157529
495.780000	-0.094605
495.965000	-0.144762
496.151000	0.034584
496.337000	0.051204
496.522000	-0.139747
496.708000	-0.161064
496.893000	-0.077822
497.079000	-0.127439
497.264000	-0.127196
497.450000	-0.110666
497.636000	0.051027
497.821000	-0.035999
498.007000	0.063310
498.192000	0.159071
498.378000	-0.065092
498.563000	-0.094144
498.749000	-0.114998
498.935000	-0.147987
499.120000	0.026052
499.306000	-0.106427
499.491000	-0.147439
499.677000	-0.023533
499.862000	-0.027767
500.048000	-0.044422
500.234000	-0.201673
500.419000	-0.085878
500.605000	0.051074
500.790000	-0.036086
500.976000	-0.119233
501.161000	-0.202267
501.347000	-0.027826
501.533000	0.134233
501.718000	-0.015367
501.904000	-0.186088
502.089000	-0.069627
502.275000	0.017881
502.460000	-0.060949
502.646000	-0.027811
502.832000	0.013705
503.017000	-0.086144
503.203000	-0.186283
503.388000	-0.124069
503.574000	-0.057081
503.759000	-0.061231
503.945000	-0.061335
504.131000	-0.044645
504.316000	-0.057128
504.502000	-0.078007
504.687000	-0.069850
504.873000	-0.090814
505.058000	-0.161938
505.244000	-0.308318
505.430000	-0.178969
505.615000	-0.053297
505.801000	-0.002943
505.986000	-0.170286
506.172000	-0.095033
506.358000	-0.078465
506.543000	-0.082617
506.729000	0.169109
506.914000	0.009673
507.100000	0.081443
507.285000	-0.045229
507.471000	-0.218291
507.657000	-0.015621
507.842000	-0.108350
508.028000	-0.302487
508.213000	-0.201739
508.399000	-0.130109
508.584000	0.018242
508.770000	-0.070721
508.956000	-0.274208
509.141000	-0.252792
509.327000	-0.130263
509.512000	-0.100164
509.698000	-0.083385
509.883000	-0.032683
510.069000	-0.122147
510.255000	-0.037043
510.440000	0.005542
510.626000	-0.130810
510.811000	-0.237675
510.997000	-0.105419
511.182000	0.188846
511.368000	0.112236
511.554000	-0.259191
511.739000	-0.241954
511.925000	0.009821
512.110000	-0.071241
512.296000	0.180901
512.481000	0.189223
512.667000	0.014111
512.853000	-0.127020
513.038000	-0.045826
513.224000	-0.050121
513.409000	-0.157199
513.595000	-0.054486
513.780000	-0.290303
513.966000	-0.238270
514.152000	-0.212630
514.337000	-0.246956
514.523000	-0.174211
514.708000	-0.114403
514.894000	-0.011601
515.079000	-0.075753
515.265000	-0.084602
515.451000	-0.170563
515.636000	-0.247714
515.822000	-0.119068
516.007000	-0.252361
516.193000	-0.110380
516.378000	0.052918
516.564000	-0.003007
516.750000	-0.024496
516.935000	-0.054606
517.121000	-0.071791
517.306000	0.027108
517.492000	0.048695
517.677000	-0.188102
517.863000	-0.226884
518.049000	-0.127904
518.234000	-0.196661
518.420000	-0.007325
518.605000	0.195115
518.791000	0.164882
518.976000	-0.046246
519.162000	-0.162644
519.348000	-0.119528
519.533000	-0.076266
519.719000	0.178134
519.904000	0.070384
520.090000	0.001293
520.275000	0.208278
520.461000	0.143880
520.647000	-0.197420
520.832000	-0.375550
521.018000	-0.162878
521.203000	-0.149426
521.389000	-0.338654
521.574000	-0.222698
521.760000	-0.041838
521.946000	-0.007355
522.131000	-0.072312
522.317000	-0.188931
522.502000	-0.201815
522.688000	-0.119759
522.873000	-0.128527
523.059000	-0.137279
523.245000	-0.076580
523.430000	-0.171981
523.616000	-0.046340
523.801000	-0.176497
523.987000	-0.168126
524.172000	-0.046479
524.358000	-0.050845
524.544000	-0.063778
524.729000	0.061878
524.915000	0.062026
525.100000	-0.102758
525.286000	-0.111594
525.471000	-0.037884
525.657000	-0.033564
525.843000	-0.369635
526.028000	-0.147172
526.214000	-0.168945
526.399000	-0.274507
526.585000	-0.318353
526.770000	-0.322694
526.956000	-0.240101
527.142000	-0.257612
527.327000	0.032074
527.513000	-0.135053
527.698000	-0.223285
527.884000	-0.122436
528.069000	-0.082489
528.255000	-0.016343
528.441000	-0.153453
528.626000	-0.087386
528.812000	0.183053
528.997000	-0.025315
529.183000	-0.225074
529.368000	-0.168140
529.554000	-0.137283
529.740000	-0.025561
529.925000	-0.079390
530.111000	-0.083968
530.296000	-0.052614
530.482000	0.073480
530.667000	-0.021196
530.853000	-0.071030
531.039000	-0.093856
531.224000	0.005926
531.410000	-0.025975
531.595000	-0.062490
531.781000	0.037865
531.967000	-0.127074
532.152000	-0.026230
532.338000	-0.053948
532.523000	-0.206502
532.709000	-0.295365
532.894000	-0.240903
533.080000	-0.157198
533.266000	-0.236675
533.451000	-0.312522
533.637000	-0.233626
533.822000	0.062768
534.008000	-0.083461
534.193000	-0.050641
534.379000	-0.017574
534.565000	-0.141638
534.750000	-0.204389
534.936000	0.092733
535.121000	-0.080448
535.307000	0.011099
535.492000	0.006283
535.678000	-0.178444
535.864000	-0.047397
536.049000	0.143994
536.235000	-0.047723
536.420000	-0.067712
536.606000	-0.162081
536.791000	-0.182987
536.977000	-0.153454
537.163000	0.066738
537.348000	0.057034
537.534000	0.047254
537.719000	-0.237880
537.905000	-0.315511
538.090000	-0.029263
538.276000	0.099433
538.462000	0.063575
538.647000	0.079402
538.833000	-0.061051
539.018000	0.059240
539.204000	0.080265
539.389000	-0.114620
539.575000	0.165466
539.761000	-0.056847
539.946000	-0.350700
540.132000	-0.132359
540.317000	-0.218725
540.503000	-0.036084
540.688000	0.093759
540.874000	0.306051
541.060000	0.333121
541.245000	0.078075
541.431000	-0.069602
541.616000	-0.080784
541.802000	-0.086353
541.987000	0.056814
542.173000	0.029346
542.359000	-0.087033
542.544000	0.095764
542.730000	-0.120598
542.915000	-0.254592
543.101000	-0.081940
543.286000	-0.126797
543.472000	-0.071382
543.658000	-0.009562
543.843000	-0.139272
544.029000	0.086547
544.214000	0.030019
544.400000	-0.264803
544.585000	-0.151730
544.771000	-0.038199
544.957000	0.041710
545.142000	0.144675
545.328000	0.167990
545.513000	0.271697
545.699000	0.319020
545.884000	0.082552
546.070000	0.053712
546.261000	0.019129
546.451000	-0.178505
546.642000	-0.376849
546.833000	-0.231634
547.023000	-0.289914
547.214000	-0.291087
547.405000	0.083738
547.595000	0.365287
547.786000	0.260747
547.977000	-0.069053
548.167000	-0.193157
548.358000	-0.134679
548.549000	0.144703
548.740000	0.019651
548.930000	-0.194791
549.121000	-0.093792
549.312000	-0.112142
549.502000	-0.136458
549.693000	-0.142355
549.884000	-0.190464
550.074000	-0.052457
550.265000	-0.252028
550.456000	-0.149645
550.646000	0.020040
550.837000	0.001822
551.028000	-0.132004
551.218000	0.038314
551.409000	-0.120330
551.600000	-0.224359
551.790000	0.057078
551.981000	-0.243645
552.172000	-0.330179
552.362000	-0.004302
552.553000	0.125396
552.744000	-0.004321
552.934000	-0.090822
553.125000	-0.084795
553.316000	-0.159169
553.506000	0.132190
553.697000	0.001869
553.888000	-0.047881
554.079000	0.207231
554.269000	0.238586
554.460000	-0.148010
554.651000	-0.223181
554.841000	-0.298534
555.032000	-0.261382
555.223000	-0.192702
555.413000	-0.135607
555.604000	-0.092252
555.795000	-0.224630
555.985000	-0.017024
556.176000	0.039650
556.367000	-0.300139
556.557000	-0.238008
556.748000	-0.314378
556.939000	-0.358104
557.129000	-0.383044
557.320000	-0.149650
557.511000	-0.168279
557.701000	-0.249817
557.892000	-0.156052
558.083000	0.083936
558.273000	0.027142
558.464000	-0.200108
558.655000	-0.130557
558.845000	-0.086153
559.036000	-0.004405
559.227000	-0.149255
559.418000	-0.035963
559.608000	0.052346
559.799000	-0.174480
559.990000	-0.117164
560.180000	-0.142412
560.371000	-0.481922
560.562000	-0.280430
560.752000	-0.086027
560.943000	-0.337356
561.134000	-0.530678
561.324000	-0.204630
561.515000	0.145536
561.706000	0.001876
561.896000	-0.278909
562.087000	-0.234967
562.278000	-0.303407
562.468000	-0.521980
562.659000	-0.340195
562.850000	-0.023026
563.040000	-0.010580
563.231000	-0.284626
563.422000	-0.153329
563.612000	-0.246716
563.803000	-0.283486
563.994000	-0.306820
564.185000	-0.460383
564.375000	-0.066021
564.566000	-0.065941
564.757000	-0.090844
564.947000	-0.152462
565.138000	-0.078126
565.329000	-0.139361
565.519000	-0.403140
565.710000	-0.268417
565.901000	-0.157966
566.091000	-0.035009
566.282000	-0.139103
566.473000	-0.077583
566.663000	-0.108002
566.854000	-0.344601
567.045000	-0.155789
567.235000	-0.076971
567.426000	-0.173879
567.617000	-0.082703
567.807000	-0.088778
567.998000	-0.106678
568.189000	-0.221137
568.379000	-0.166484
568.570000	-0.046214
568.761000	-0.171891
568.951000	-0.195537
569.142000	-0.207775
569.333000	-0.303574
569.524000	-0.499289
569.714000	-0.517138
569.905000	-0.575796
570.096000	-0.170860
570.286000	0.007729
570.477000	0.209300
570.668000	-0.004147
570.858000	-0.169999
571.049000	-0.299257
571.240000	-0.393896
571.430000	-0.192857
571.621000	-0.162789
571.812000	-0.021656
572.002000	-0.009968
572.193000	-0.226539
572.384000	-0.109418
572.574000	-0.056802
572.765000	-0.015782
572.956000	-0.143926
573.146000	0.147644
573.337000	-0.033197
573.528000	-0.126163
573.718000	0.059727
573.909000	0.187033
574.100000	-0.027118
574.290000	-0.245586
574.481000	-0.262253
574.672000	-0.187866
574.863000	-0.004006
575.053000	-0.175340
575.244000	-0.100852
575.435000	-0.197525
575.625000	-0.173984
575.816000	-0.134147
576.007000	-0.128488
576.197000	-0.162705
576.388000	-0.179014
576.579000	0.012984
576.769000	0.069356
576.960000	-0.336375
577.155000	-0.459060
577.350000	-0.133003
577.545000	0.074500
577.740000	-0.193796
577.935000	0.124286
578.130000	0.040717
578.326000	-0.287488
578.521000	0.023900
578.716000	0.056985
578.911000	-0.169661
579.106000	-0.124978
579.301000	-0.069708
579.496000	-0.260994
579.691000	-0.523182
579.886000	-0.320070
580.081000	-0.047365
580.276000	0.007060
580.471000	-0.215570
580.666000	-0.329028
580.861000	-0.334331
581.057000	-0.421303
581.252000	-0.177347
581.447000	-0.209417
581.642000	-0.215190
581.837000	-0.263618
582.032000	-0.208891
582.227000	0.039174
582.422000	0.028389
582.617000	-0.201018
582.812000	-0.253684
583.007000	-0.242916
583.202000	-0.433472
583.397000	-0.077721
583.592000	0.170474
583.788000	-0.129947
583.983000	-0.203408
584.178000	-0.061398
584.373000	-0.160620
584.568000	-0.144621
584.763000	-0.207474
584.958000	-0.364230
585.153000	-0.275413
585.348000	-0.149906
585.543000	-0.061174
585.738000	-0.076825
585.933000	-0.348674
586.128000	-0.092494
586.324000	0.001572
586.519000	-0.066491
586.714000	0.111605
586.909000	-0.014172
587.104000	-0.008953
587.299000	-0.071944
587.494000	-0.029892
587.689000	-0.093006
587.884000	-0.177613
588.079000	-0.146001
588.274000	-0.077623
588.469000	-0.088008
588.664000	-0.014247
588.859000	0.001585
589.055000	-0.083062
589.250000	-0.263067
589.445000	-0.210390
589.640000	-0.162825
589.835000	0.054759
590.030000	0.145096
590.225000	0.107912
590.420000	-0.158100
590.615000	-0.280785
590.810000	-0.211285
591.005000	-0.148024
591.200000	-0.222929
591.395000	-0.383252
591.591000	-0.211840
591.786000	0.022926
591.981000	-0.083953
592.176000	-0.159139
592.371000	-0.100237
592.566000	-0.185867
592.761000	-0.062661
592.956000	-0.041308
593.151000	0.039182
593.346000	0.017761
593.541000	0.060757
593.736000	-0.122426
593.931000	-0.257369
594.126000	-0.144275
594.322000	-0.036203
594.517000	-0.052402
594.712000	-0.279419
594.907000	-0.291273
595.102000	-0.063545
595.297000	0.121037
595.492000	0.072342
595.687000	-0.172769
595.882000	-0.265556
596.077000	-0.178655
596.272000	0.078112
596.467000	0.078137
596.662000	-0.025707
596.857000	0.018121
597.053000	0.001650
597.248000	-0.042336
597.443000	-0.014865
597.638000	-0.070088
597.833000	-0.385023
598.028000	-0.103168
598.223000	0.034825
598.418000	-0.120167
598.613000	-0.164447
598.808000	-0.009420
599.003000	-0.048260
599.198000	-0.198284
599.393000	-0.242644
599.589000	-0.120817
599.784000	-0.254617
599.979000	-0.165717
600.174000	0.035176
600.369000	-0.110111
600.564000	-0.071077
600.759000	0.214603
600.954000	0.309336
601.149000	-0.037593
601.344000	-0.346545
601.539000	-0.105153
601.734000	-0.093784
601.929000	-0.251660
602.124000	-0.308217
602.320000	-0.060396
602.515000	0.238798
602.710000	0.182721
602.905000	-0.128396
603.100000	-0.258073
603.295000	-0.179343
603.490000	-0.145814
603.685000	-0.236633
603.880000	-0.134653
604.075000	-0.294481
604.270000	-0.238025
604.465000	-0.157992
604.660000	-0.335077
604.856000	-0.312013
605.051000	-0.072581
605.246000	-0.118204
605.441000	-0.369731
605.636000	-0.375553
605.831000	-0.192989
606.026000	-0.221530
606.221000	-0.302083
606.416000	-0.176201
606.611000	-0.044238
606.806000	-0.061418
607.001000	0.018966
607.196000	-0.147844
607.391000	-0.297829
607.587000	0.019049
607.782000	-0.061846
607.977000	-0.251991
608.172000	0.088501
608.367000	0.048010
608.562000	-0.015649
608.757000	-0.085172
608.952000	-0.131830
609.147000	0.227950
609.342000	0.077263
609.537000	-0.225231
609.732000	-0.114834
609.927000	-0.021525
610.122000	-0.202216
610.318000	-0.033249
610.513000	0.159330
610.708000	-0.074201
610.903000	-0.009944
611.098000	0.154161
611.293000	0.089708
611.488000	0.083856
611.683000	0.101626
611.878000	0.060524
612.073000	0.089930
612.268000	0.137102
612.463000	0.019461
612.658000	-0.098488
612.854000	0.001773
613.049000	-0.051439
613.244000	0.102345
613.439000	0.043203
613.634000	-0.217738
613.829000	-0.122847
614.024000	-0.164779
614.219000	-0.218286
614.414000	-0.069636
614.609000	-0.182991
614.804000	-0.171115
614.999000	-0.141175
615.194000	-0.045986
615.389000	0.067566
615.585000	-0.357617
615.780000	-0.303959
615.975000	-0.226472
616.170000	-0.160508
616.365000	0.116141
616.560000	0.248768
616.755000	0.164940
616.950000	0.050168
617.145000	0.062314
617.340000	-0.173799
617.535000	-0.434187
617.730000	-0.125522
617.925000	-0.307937
618.120000	-0.362715
618.316000	0.014004
618.511000	-0.046928
618.706000	-0.187762
618.901000	-0.040956
619.096000	-0.090202
619.291000	-0.261785
619.486000	-0.139610
619.681000	-0.404387
619.876000	-0.385756
620.071000	-0.318359
620.266000	-0.010494
620.461000	0.212106
620.656000	-0.004337
620.852000	-0.078582
621.047000	-0.264855
621.242000	-0.345945
621.437000	0.008093
621.632000	0.170325
621.827000	0.058075
622.022000	-0.210605
622.217000	-0.079582
622.412000	-0.016937
622.607000	-0.035791
622.802000	-0.375061
622.997000	-0.237673
623.192000	-0.098970
623.387000	-0.206178
623.583000	-0.358208
623.778000	0.103262
623.973000	0.109669
624.168000	0.059095
624.363000	0.078037
624.558000	0.001907
624.753000	-0.380632
624.948000	-0.253592
625.143000	-0.113144
625.338000	-0.068513
625.533000	-0.267092
625.728000	-0.126316
625.923000	0.168744
626.119000	0.014791
626.314000	-0.204059
626.509000	-0.295084
626.704000	-0.315285
626.899000	-0.250761
627.094000	-0.199201
627.289000	-0.219169
627.484000	-0.219685
627.679000	-0.076339
627.874000	-0.017639
628.069000	0.106645
628.264000	-0.043796
628.459000	-0.089763
628.654000	-0.122635
628.850000	-0.281009
629.045000	-0.103437
629.240000	-0.083755
629.435000	-0.017829
629.630000	0.035065
629.825000	-0.070789
630.020000	-0.110919
630.215000	-0.349834
630.410000	-0.191271
630.605000	-0.284807
630.800000	-0.204737
630.995000	0.048793
631.190000	0.316828
631.385000	0.048927
631.581000	0.022155
631.776000	-0.051729
631.971000	-0.206911
632.166000	-0.139621
632.361000	-0.301783
632.556000	-0.180512
632.751000	-0.065791
632.946000	-0.242218
633.141000	-0.188511
633.336000	-0.175174
633.531000	-0.237249
633.726000	-0.277928
633.921000	-0.340309
634.117000	-0.416549
634.312000	-0.444446
634.507000	-0.410543
634.702000	-0.287275
634.897000	-0.266987
635.092000	-0.129350
635.287000	-0.157336
635.482000	-0.227241
635.677000	-0.053527
635.872000	0.057704
636.067000	0.043900
636.262000	0.009094
636.457000	-0.388069
636.652000	-0.395626
636.848000	-0.410478
637.043000	-0.398136
637.238000	-0.399178
637.433000	-0.505163
637.628000	-0.519234
637.823000	-0.082550
638.018000	0.065743
638.213000	-0.182084
638.408000	-0.324084
638.603000	-0.324550
638.798000	-0.325021
638.993000	-0.240137
639.188000	-0.197451
639.383000	-0.233289
639.579000	0.194560
639.774000	-0.062176
639.969000	-0.290989
640.164000	-0.363314
640.359000	-0.342185
640.554000	-0.098407
640.749000	-0.156300
640.944000	-0.106110
641.139000	-0.012246
641.334000	-0.221550
641.529000	-0.626926
641.724000	-0.352582
641.919000	-0.164692
642.115000	-0.019636
642.310000	0.016703
642.505000	-0.201092
642.700000	-0.245093
642.895000	-0.391738
643.090000	-0.267640
643.285000	0.002188
643.480000	0.075295
643.675000	0.031461
643.870000	0.339405
644.065000	0.141755
644.260000	-0.350257
644.455000	-0.166995
644.650000	-0.226408
644.846000	-0.152663
645.041000	-0.322153
645.236000	-0.345106
645.431000	-0.316000
645.626000	-0.463730
645.821000	-0.219576
646.016000	-0.301780
646.211000	-0.020058
646.406000	-0.094523
646.601000	-0.153913
646.796000	-0.250520
646.991000	-0.399259
647.186000	-0.280920
647.381000	-0.027588
647.577000	-0.087322
647.772000	-0.057471
647.967000	-0.259501
648.162000	-0.214802
648.357000	-0.275047
648.552000	-0.005244
648.747000	0.182149
648.942000	0.144763
649.137000	-0.012790
649.332000	-0.231275
649.527000	-0.201057
649.722000	-0.148295
649.917000	0.032464
650.113000	-0.367229
650.308000	-0.405507
650.503000	-0.141134
650.698000	0.070393
650.893000	0.055294
651.088000	0.093227
651.283000	-0.005317
651.478000	-0.407908
651.673000	-0.149491
651.868000	-0.271447
652.063000	-0.028189
652.258000	0.070908
652.453000	0.352078
652.648000	0.063202
652.844000	-0.089157
653.039000	-0.066408
653.234000	-0.555102
653.429000	-0.670831
653.624000	-0.395168
653.819000	-0.028343
654.014000	-0.158599
654.209000	-0.281926
654.404000	-0.074437
654.599000	-0.251577
654.794000	-0.151300
654.989000	0.187181
655.184000	-0.043958
655.380000	-0.506267
655.575000	-0.421552
655.770000	-0.291022
655.965000	-0.074897
656.160000	-0.082662
656.355000	-0.152160
656.550000	-0.191365
656.745000	-0.098461
656.940000	-0.416667
657.135000	-0.346750
657.330000	-0.176162
657.525000	-0.308309
657.720000	0.025673
657.915000	0.072283
658.111000	-0.013218
658.306000	0.375848
658.501000	0.166128
658.696000	-0.332902
658.891000	0.033540
659.086000	-0.239360
659.281000	-0.224133
659.476000	-0.302656
659.671000	-0.568503
659.866000	-0.240175
660.061000	0.143263
660.256000	0.088503
660.451000	-0.052522
660.646000	-0.193881
660.842000	-0.256972
661.037000	-0.485052
661.232000	-0.304674
661.427000	-0.052705
661.622000	-0.202541
661.817000	-0.320669
662.012000	-0.202994
662.207000	-0.400734
662.402000	-0.417590
662.597000	-0.124491
662.792000	-0.457103
662.987000	-0.638786
663.182000	-0.251454
663.378000	-0.037312
663.573000	-0.379603
663.768000	-0.362933
663.963000	-0.220224
664.158000	-0.347112
664.353000	0.090124
664.548000	0.273466
664.743000	-0.021551
664.938000	-0.364730
665.133000	-0.365302
665.328000	0.066444
665.523000	-0.013636
665.718000	-0.174076
665.913000	-0.254678
666.109000	-0.206936
666.304000	0.018514
666.499000	-0.037808
666.694000	0.058890
666.889000	0.308938
667.084000	0.123828
667.279000	-0.054193
667.474000	-0.207992
667.669000	-0.118939
667.864000	-0.086677
668.059000	-0.013792
668.254000	-0.095043
668.449000	-0.298463
668.644000	-0.046398
668.840000	0.221930
669.035000	-0.217361
669.230000	-0.348796
669.425000	-0.030244
669.620000	-0.357180
669.815000	-0.325661
670.010000	-0.276187
670.205000	-0.194394
670.400000	-0.071233
670.595000	0.002464
670.790000	-0.244241
670.985000	-0.236265
671.180000	-0.187078
671.376000	-0.401713
671.571000	-0.485273
671.766000	-0.420108
671.961000	-0.552896
672.156000	-0.445690
672.351000	-0.213350
672.546000	-0.346904
672.741000	-0.205032
672.936000	-0.196988
673.131000	0.419215
673.326000	0.044295
673.521000	-0.457551
673.716000	-0.457541
673.911000	-0.583425
674.107000	0.036061
674.302000	0.329808
674.497000	0.086537
674.692000	-0.199261
674.887000	-0.351794
675.082000	-0.352326
675.277000	0.053304
675.472000	0.002542
675.667000	-0.277459
675.862000	-0.328537
676.057000	-0.150362
676.252000	-0.193244
676.447000	-0.287590
676.643000	-0.108291
676.838000	0.122165
677.033000	-0.100094
677.228000	0.071185
677.423000	0.225698
677.618000	-0.255566
677.813000	-0.453214
678.008000	-0.049177
678.203000	0.192598
678.398000	-0.378110
678.593000	-0.248408
678.788000	-0.023445
678.983000	-0.335638
679.178000	-0.118877
679.374000	-0.232017
679.569000	-0.328311
679.764000	-0.556377
679.959000	-0.505179
680.154000	-0.514039
680.349000	-0.559757
680.544000	-0.602885
680.739000	-0.366136
680.934000	-0.366505
681.129000	-0.279394
681.324000	-0.403283
681.519000	-0.138983
681.714000	-0.218731
681.909000	-0.519186
682.105000	-0.662562
682.300000	-0.121986
682.495000	0.073866
682.690000	0.127552
682.885000	-0.059810
683.080000	-0.230058
683.275000	-0.095831
683.470000	0.182031
683.665000	0.245339
683.860000	0.416804
684.055000	0.119798
684.250000	-0.448105
684.445000	-0.402383
684.641000	0.129114
684.836000	-0.241474
685.031000	-0.324035
685.226000	-0.324473
685.421000	0.112108
685.616000	-0.179555
685.811000	-0.408393
686.006000	-0.024666
686.201000	0.075926
686.396000	-0.346189
686.591000	-0.346884
686.786000	0.058059
686.981000	0.021198
687.176000	0.132119
687.372000	-0.283958
687.567000	-0.117521
687.762000	-0.136403
687.957000	-0.154955
688.152000	-0.294764
688.347000	-0.295295
688.542000	-0.296029
688.737000	-0.613265
688.932000	-0.782610
689.127000	-0.643252
689.322000	-0.353999
689.517000	-0.494742
689.712000	-0.468229
689.908000	-0.364966
690.103000	-0.318429
690.298000	-0.280680
690.493000	-0.309841
690.688000	-0.462015
690.883000	-0.320810
691.078000	0.098085
691.273000	0.107620
691.468000	-0.273866
691.663000	-0.428167
691.858000	-0.131251
692.053000	-0.064186
692.248000	0.127543
692.443000	0.185074
692.639000	-0.112428
692.834000	-0.112707
693.029000	0.658188
693.224000	0.545123
693.419000	-0.384750
693.614000	-0.482577
693.809000	-0.346894
694.004000	-0.405959
694.199000	-0.376655
694.394000	-0.133790
694.589000	-0.632512
694.784000	-0.515722
694.979000	-0.359158
695.174000	-0.311012
695.370000	0.120473
695.565000	0.042219
695.760000	-0.252909
695.955000	0.150929
696.150000	0.180580
696.345000	-0.492329
696.540000	-0.165720
696.740000	-0.254852
696.940000	-0.284818
697.140000	0.122694
697.340000	0.082937
697.539000	0.172960
697.739000	-0.087015
697.939000	-0.057049
698.139000	-0.367699
698.339000	-0.640607
698.539000	-0.399020
698.739000	-0.430326
698.939000	-0.422084
699.138000	-0.493753
699.338000	0.275841
699.538000	0.560885
699.738000	-0.108844
699.938000	-0.373638
700.138000	-0.404865
700.338000	-0.620813
700.538000	-0.304514
700.737000	-0.294164
700.937000	-0.702062
701.137000	-0.508677
701.337000	0.033951
701.537000	0.075268
701.737000	-0.285248
701.937000	-0.337499
702.137000	-0.399446
702.337000	-0.637911
702.536000	-0.628853
702.736000	-0.598492
702.936000	-0.775968
703.136000	-0.173989
703.336000	-0.048956
703.536000	-0.028202
703.736000	-0.625261
703.936000	-0.623966
704.135000	-0.696779
704.335000	-0.290177
704.535000	-0.269961
704.735000	-0.396418
704.935000	-0.028330
705.135000	0.108602
705.335000	-0.155513
705.535000	-0.303820
705.735000	-0.388440
705.934000	-0.261296
706.134000	-0.515361
706.334000	-0.590835
706.534000	-0.719157
706.734000	-0.496475
706.934000	-0.379511
707.134000	-0.443409
707.334000	-0.486977
707.533000	-0.402471
707.733000	-0.220825
707.933000	-0.306475
708.133000	-0.498085
708.333000	-0.093274
708.533000	-0.136410
708.733000	-0.114910
708.933000	-0.394481
709.132000	-0.492176
709.332000	-0.493008
709.532000	-0.461662
709.732000	-0.309844
709.932000	-0.938251
710.132000	-0.688918
710.332000	-0.645362
710.532000	-0.191515
710.732000	0.024954
710.931000	-0.257329
711.131000	-0.400038
711.331000	-0.345803
711.531000	-0.597714
711.731000	-0.500627
711.931000	-0.216164
712.131000	-0.281663
712.331000	-0.205011
712.530000	-0.325210
712.730000	-0.369981
712.930000	-0.314982
713.130000	-0.514328
713.330000	-0.823722
713.530000	-0.439386
713.730000	0.335503
713.930000	-0.007748
714.129000	-0.626968
714.329000	-0.584608
714.529000	0.103088
714.729000	0.125515
714.929000	-0.096638
715.129000	-0.630860
715.329000	-0.598035
715.529000	-0.153197
715.729000	0.427474
715.928000	0.115249
716.128000	-0.321330
716.328000	-0.468266
716.528000	-0.592465
716.728000	-0.412689
716.928000	-0.491452
717.128000	-0.233313
717.328000	-0.233275
717.527000	-0.312539
717.727000	-0.132140
717.927000	-0.053253
718.127000	-0.246009
718.327000	-0.734821
718.527000	-0.836617
718.727000	-0.292007
718.927000	-0.394981
719.127000	-0.682283
719.326000	-0.474636
719.526000	0.026227
719.726000	-0.202258
719.926000	-0.604453
720.126000	-0.524250
720.326000	-0.570051
720.526000	-0.719293
720.726000	-0.491333
720.925000	-0.468619
721.125000	-0.736157
721.325000	-0.169676
721.525000	-0.054382
721.725000	-0.216394
721.925000	-0.286630
722.125000	-0.576789
722.325000	-0.124164
722.524000	-0.450445
722.724000	-0.788967
722.924000	-0.847184
723.124000	-0.486540
723.324000	-0.019855
723.524000	-0.008183
723.724000	-0.721939
723.924000	-0.513158
724.124000	-0.254906
724.323000	0.109387
724.523000	-0.125744
724.723000	0.133081
724.923000	-0.008246
725.123000	0.038917
725.323000	0.204382
725.523000	0.027224
725.723000	-0.303881
725.922000	-0.623836
726.122000	-0.446775
726.322000	-0.507394
726.522000	-0.579257
726.722000	0.443150
726.922000	0.229141
727.122000	-0.020254
727.322000	0.242161
727.521000	-0.080121
727.721000	-0.607184
727.921000	-0.439541
728.121000	-0.499298
728.321000	-0.752126
728.521000	-0.441367
728.721000	-0.213228
728.921000	0.160166
729.121000	0.944485
729.320000	0.414198
729.520000	-0.455297
729.720000	-0.806854
729.920000	-0.555455
730.120000	-0.263080
730.320000	-0.190806
730.520000	-0.652897
730.720000	-0.362237
730.919000	0.052435
731.119000	0.015882
731.319000	-0.791703
731.519000	-0.730421
731.719000	-0.228965
731.919000	-0.755867
732.119000	-1.088437
732.319000	-0.759497
732.519000	-0.205679
732.718000	-0.477258
732.918000	-0.564068
733.118000	-0.194266
733.318000	0.040950
733.518000	-0.380994
733.718000	-0.853768
733.918000	-1.102962
734.118000	-0.903691
734.317000	-0.458054
734.517000	-0.706695
734.717000	-0.484671
734.917000	-0.171964
735.117000	-0.184713
735.317000	-0.260040
735.517000	0.293498
735.717000	0.483872
735.916000	-0.400550
736.116000	-0.741068
736.316000	-0.326456
736.516000	0.016508
736.716000	-0.021599
736.916000	-0.787097
737.116000	-0.560189
737.316000	0.003845
737.516000	-0.047516
737.715000	0.016706
737.915000	-0.394687
738.115000	-0.395940
738.315000	-0.370420
738.515000	-0.912320
738.715000	-0.852779
738.915000	-0.022095
739.115000	-0.373639
739.314000	-0.412323
739.514000	0.304153
739.714000	0.278747
739.914000	-0.009187
740.114000	-0.390542
740.314000	-0.088167
740.514000	0.201646
740.714000	-0.379533
740.913000	-1.002526
741.113000	-0.685756
741.313000	-0.208247
741.513000	-0.195532
741.713000	0.017338
741.913000	-0.049581
742.113000	-0.317103
742.313000	-0.867526
742.513000	-0.385181
742.712000	-0.426822
742.912000	-0.575082
743.112000	-0.441891
743.312000	-0.835168
743.512000	-0.375792
743.712000	-0.254508
743.912000	-0.854727
744.112000	-1.100807
744.311000	-1.117460
744.511000	-0.612495
744.711000	-0.037089
744.911000	-0.463583
745.111000	-0.491705
745.311000	-0.078659
745.511000	-0.465694
745.711000	-0.466133
745.911000	-0.189742
746.110000	-0.827227
746.310000	-1.138749
746.510000	-0.983301
746.710000	-0.163471
746.910000	-0.051742
747.110000	-0.598092
747.310000	-1.006046
747.510000	-0.784521
747.709000	-0.531426
747.909000	-0.546921
748.109000	-0.165907
748.309000	-0.251500
748.509000	-0.593447
748.709000	-0.752771
748.909000	-0.466945
749.109000	-0.253854
749.308000	0.190942
749.508000	-0.312681
749.708000	-0.442513
749.908000	-0.010092
750.108000	-0.284865
750.308000	-0.822752
750.508000	-0.039279
750.708000	-0.475870
750.908000	-0.826916
751.107000	0.238453
751.307000	0.866474
751.507000	-0.039619
751.707000	-0.215428
751.907000	-0.362867
752.107000	-0.378835
752.307000	-0.720286
752.507000	-0.277302
752.706000	-0.469760
752.906000	0.598471
753.106000	-0.189254
753.306000	-1.221223
753.506000	-0.280283
753.706000	-0.596227
753.906000	-0.641382
754.106000	-0.356461
754.305000	-0.085842
754.505000	-0.070968
754.705000	-0.025809
754.905000	-0.086665
755.105000	-0.071567
755.305000	-0.803582
755.505000	-0.484761
755.705000	0.019905
755.905000	-0.548256
756.104000	-0.948364
756.304000	-1.151266
756.504000	-1.431625
756.704000	-0.600773
756.904000	-0.228071
757.104000	-0.646063
757.304000	-0.863792
757.504000	-0.322977
757.703000	-0.260518
757.903000	0.364353
758.103000	0.318091
758.303000	-0.168135
758.503000	-0.310374
758.703000	-0.374266
758.903000	-0.737807
759.103000	-0.217043
759.303000	-0.234003
759.502000	-0.202805
759.702000	0.483671
759.902000	0.068990
760.102000	0.004825
760.302000	-0.124254
760.502000	-0.043439
760.702000	-0.349626
760.902000	-0.624848
761.101000	-0.804761
761.301000	-1.081924
761.501000	-0.611719
761.701000	-0.824310
761.901000	-0.338305
762.101000	0.086805
762.301000	-0.420925
762.501000	-0.781893
762.700000	-0.736092
762.900000	-0.736355
763.100000	-0.357877
763.300000	-0.144067
763.500000	-0.392846
763.703000	-0.639340
763.905000	-0.708103
764.108000	-0.244641
764.311000	-0.477696
764.513000	-0.861557
764.716000	-0.463477
764.919000	-0.263045
765.121000	-0.698931
765.324000	-0.701032
765.527000	-0.485059
765.729000	-0.366741
765.932000	0.275929
766.135000	-0.011846
766.337000	-0.604468
766.540000	-0.793316
766.743000	-0.405596
766.945000	-0.695151
767.148000	-1.210281
767.351000	-1.312808
767.553000	-0.286909
767.756000	-0.476398
767.958000	-0.751497
768.161000	-0.511186
768.364000	-0.806744
768.566000	-1.120141
768.769000	-0.064271
768.972000	-0.064262
769.174000	-0.830987
769.377000	-1.235198
769.580000	-0.992716
769.782000	-0.117203
769.985000	-0.679141
770.188000	-1.929687
770.390000	-1.019998
770.593000	0.464342
770.796000	0.270331
770.998000	-0.100771
771.201000	-0.401736
771.404000	-0.083296
771.606000	-0.475072
771.809000	-0.581640
772.012000	-0.458011
772.214000	-1.546334
772.417000	-1.671362
772.620000	-0.528132
772.822000	-0.818945
773.025000	-0.872864
773.228000	-0.641056
773.430000	-0.588165
773.633000	-0.373030
773.836000	-0.553994
774.038000	-0.574201
774.241000	-0.737025
774.444000	-1.084411
774.646000	0.223241
774.849000	0.005457
775.052000	-0.285545
775.254000	-0.030980
775.457000	-0.431507
775.659000	-0.907059
775.862000	-1.053315
776.065000	-0.597922
776.267000	-0.012822
776.470000	0.373486
776.673000	-0.289054
776.875000	0.541026
777.078000	0.411117
777.281000	-0.697667
777.483000	-0.439983
777.686000	-0.050218
777.889000	0.191780
778.091000	0.323225
778.294000	-0.833966
778.497000	-1.003166
778.699000	-0.947880
778.902000	-0.650962
779.105000	-0.257026
779.307000	0.343817
779.510000	-0.747542
779.713000	-0.410196
779.915000	-0.828791
780.118000	0.138584
780.321000	0.537908
780.523000	-0.489624
780.726000	-1.004433
780.929000	-0.985019
781.131000	-1.062871
781.334000	-1.449877
781.537000	-1.549966
781.739000	-0.609403
781.942000	-0.821531
782.145000	-1.289918
782.347000	-1.290732
782.550000	-0.981741
782.753000	-1.023822
782.955000	-0.714922
783.158000	-0.792376
783.361000	-0.403997
783.563000	-0.462623
783.766000	-0.561675
783.968000	1.554329
784.171000	1.325174
784.374000	-0.250092
784.576000	-0.348451
784.779000	0.281074
784.982000	0.302462
785.184000	-0.490937
785.387000	0.005972
785.590000	0.742109
785.792000	0.265616
785.995000	0.206018
786.198000	0.226388
786.400000	-0.376223
786.603000	-0.256158
786.806000	-0.737951
787.008000	-0.375976
787.211000	-0.498402
787.414000	-1.289751
787.616000	-0.725559
787.819000	-0.543924
788.022000	-1.503420
788.224000	-0.586913
788.427000	-1.303398
788.630000	-0.815172
788.832000	-0.363046
789.035000	-0.976820
789.238000	-1.824631
789.440000	-1.235242
789.643000	0.398505
789.846000	-0.118029
790.048000	0.026984
790.251000	0.151562
790.454000	-0.594675
790.656000	0.151817
790.859000	-0.368956
791.062000	-0.703713
791.264000	-0.077199
791.467000	-1.229926
791.669000	-1.861224
791.872000	0.048503
792.075000	-0.351766
792.277000	-0.688899
792.480000	-0.798552
792.683000	-1.197725
792.885000	-1.093162
793.088000	-1.182059
793.291000	-1.206290
793.493000	-0.931411
793.696000	0.198295
793.899000	0.198842
794.101000	-0.272167
794.304000	-0.466092
794.507000	-0.187144
794.709000	-0.403368
794.912000	-0.946422
795.115000	-1.208630
795.317000	-0.774439
795.520000	-0.429220
795.723000	-0.671582
795.925000	-1.439331
796.128000	-2.071989
796.331000	-1.047083
796.533000	-1.203600
796.736000	-0.524106
796.939000	-0.458859
797.141000	-0.637875
797.344000	0.295883
797.547000	0.229241
797.749000	0.207283
797.952000	-0.598122
798.155000	-1.222689
798.357000	-1.544874
798.560000	-1.350067
798.763000	-0.286905
798.965000	-0.828301
799.168000	-0.604364
799.371000	0.052122
799.573000	-0.629825
799.776000	-1.541626
799.978000	-1.638381
800.181000	-1.000479
800.384000	0.763557
800.586000	-0.108023
800.789000	-1.624235
800.992000	-1.416512
801.194000	-1.258579
801.397000	-0.869672
801.600000	-0.687471
801.802000	0.285135
802.005000	-0.341856
802.208000	-1.765470
802.410000	-0.715369
802.613000	-0.601503
802.816000	-0.485044
803.018000	-0.838752
803.221000	-0.416628
803.424000	0.761869
803.626000	-0.630758
803.829000	-0.680167
804.032000	0.244747
804.234000	1.479906
804.437000	0.221869
804.640000	-0.278892
804.842000	-0.351204
805.045000	-1.217321
805.248000	-1.003102
805.450000	-1.002123
805.653000	-0.524794
805.856000	-1.079848
806.058000	-0.307744
806.261000	-1.377185
806.464000	-1.281310
806.666000	-0.163157
806.869000	-0.188710
807.072000	-1.487466
807.274000	-1.905305
807.477000	-1.123683
807.679000	-1.026183
807.882000	-1.768500
808.085000	-1.258960
808.287000	-0.961932
808.490000	-1.561469
808.693000	-0.515872
808.895000	-0.815845
809.098000	-0.616548
809.301000	-0.468341
809.503000	-0.772215
809.706000	0.235205
809.909000	0.614466
810.111000	0.387429
810.314000	-0.093906
810.517000	-0.422467
810.719000	-0.526608
810.922000	-0.171170
811.125000	0.619475
811.327000	0.417909
811.530000	-0.507082
811.735000	-1.534372
811.940000	-1.692358
812.146000	-1.026930
812.351000	-0.199193
812.556000	-0.381499
812.761000	-0.747196
812.967000	-0.044450
813.172000	0.321270
813.377000	-0.280344
813.582000	-0.176287
813.788000	-0.442437
813.993000	-1.075569
814.198000	-0.283043
814.403000	-1.525470
814.609000	-0.417688
814.814000	-0.473020
815.019000	0.328108
815.224000	-0.071987
815.429000	-1.146018
815.635000	-0.395770
815.840000	-0.288390
816.045000	-0.154328
816.250000	0.414918
816.456000	-0.535154
816.661000	-1.329013
816.866000	-1.085787
817.071000	-1.631754
817.277000	-2.137436
817.482000	-1.149101
817.687000	-0.680209
817.892000	-0.711755
818.097000	-0.102788
818.303000	0.202796
818.508000	1.006456
818.713000	7.798364
818.918000	4.184571
819.124000	0.594548
819.329000	-0.804507
819.534000	-1.003710
819.739000	-0.497679
819.945000	-0.528277
820.150000	-0.076709
820.355000	-0.019926
820.560000	-0.616047
820.766000	-0.845321
820.971000	-0.850197
821.176000	-2.631395
821.381000	-3.110223
821.586000	-1.891136
821.792000	-0.106875
821.997000	-0.106975
822.202000	-0.222842
822.407000	-1.762014
822.613000	-2.114784
822.818000	-0.982865
823.023000	-0.283247
823.228000	-0.343855
823.434000	0.302470
823.639000	0.626838
823.844000	-0.197694
824.049000	0.186029
824.255000	0.542118
824.460000	-0.169644
824.665000	-1.063988
824.870000	-0.230265
825.075000	0.098810
825.281000	-0.321349
825.486000	1.006017
825.691000	-0.989385
825.896000	-2.840574
826.102000	-0.931268
826.307000	-0.294961
826.512000	-0.814939
826.717000	-0.970533
826.923000	-1.065416
827.128000	-0.206165
827.333000	-1.043683
827.538000	-0.394790
827.744000	0.102832
827.949000	-1.265863
828.154000	-0.490284
828.359000	0.165427
828.564000	-0.367020
828.770000	-0.274041
828.975000	0.640879
829.180000	0.548936
829.385000	-0.529696
829.591000	-1.137107
829.796000	-1.046756
830.001000	-1.144972
830.206000	-1.116413
830.412000	-0.954572
830.617000	-1.150186
830.822000	-0.119802
831.027000	-0.345682
831.232000	-0.932829
831.438000	-1.103079
831.643000	-0.579313
831.848000	-0.744781
832.053000	0.108686
832.259000	-0.187962
832.464000	-2.767822
832.669000	-2.611885
832.874000	-1.514221
833.080000	-1.054989
833.285000	0.543352
833.490000	0.276872
833.695000	-1.433772
833.901000	-1.069424
834.106000	-1.206205
834.311000	0.010189
834.516000	0.452425
834.721000	-0.537079
834.927000	-0.161446
835.132000	-0.127345
835.337000	1.113343
835.542000	-0.266988
835.748000	-2.066010
835.953000	0.357680
836.158000	0.219312
836.363000	0.464850
836.569000	-0.271210
836.774000	-1.012650
836.979000	-1.367149
837.184000	-1.901657
837.390000	-1.195583
837.595000	-1.198786
837.800000	-0.880653
838.005000	-0.814302
838.210000	-1.029983
838.416000	-0.997946
838.621000	-0.856136
838.826000	-1.036121
839.031000	-1.150302
839.237000	-1.158899
839.442000	-2.076172
839.647000	-2.255882
839.852000	-1.935132
840.058000	-1.241928
840.263000	-0.877694
840.468000	-2.027770
840.673000	-0.544995
840.878000	0.270899
841.084000	-0.735413
841.289000	-0.886962
841.494000	2.347804
841.699000	2.393383
841.905000	0.693746
842.110000	0.659380
842.315000	-1.058018
842.520000	-0.904327
842.726000	-0.829992
842.931000	-1.020406
843.136000	-1.066280
843.341000	-2.160099
843.547000	-1.420347
843.752000	-1.731940
843.957000	-1.941440
844.162000	-1.911406
844.367000	-1.640233
844.573000	-0.304177
844.778000	0.327013
844.983000	-0.422605
845.188000	0.369194
845.394000	-1.910714
845.599000	-1.906024
845.804000	-1.511577
846.009000	-1.481653
846.215000	-1.488519
846.420000	-0.516491
846.625000	-0.110163
846.830000	0.296776
847.036000	-1.294985
847.241000	-2.203016
847.446000	-0.767065
847.651000	-1.223407
847.856000	-2.148925
848.062000	-1.529971
848.267000	1.055032
848.472000	-0.782511
848.677000	-2.631042
848.883000	-0.824920
849.088000	0.689461
849.293000	-1.133815
849.498000	-1.429245
849.704000	0.055289
849.909000	-0.498887
850.114000	-1.309086
850.319000	-0.371809
850.524000	-0.416825
850.730000	-0.894559
850.935000	-0.464262
851.140000	-0.247969
851.345000	0.143541
851.551000	0.536626
851.756000	0.100885
851.961000	-1.745987
852.166000	-1.394875
852.372000	-0.472046
852.577000	0.013332
852.782000	-0.479102
852.987000	-0.120551
853.193000	-0.658697
853.398000	-1.420880
853.603000	-2.097897
853.808000	-1.289962
854.013000	0.646822
854.219000	1.010514
854.424000	2.424634
854.629000	1.062264
854.834000	-1.959720
855.040000	-1.279438
855.245000	-0.262398
855.450000	-2.693923
855.655000	-3.444574
855.861000	-2.863189
856.066000	-2.044367
856.271000	-2.141373
856.476000	-0.079932
856.682000	-1.024230
856.887000	-4.418705
857.092000	-2.726715
857.297000	1.010620
857.502000	0.347044
857.708000	-0.414407
857.913000	1.445783
858.118000	0.688623
858.323000	-0.613371
858.529000	-0.226645
858.734000	-0.517382
858.939000	0.063045
859.144000	-1.591186
859.350000	-3.002753
859.555000	-2.377493
859.760000	1.340030
859.965000	1.045215
860.171000	-2.695794
860.376000	-0.430554
860.581000	-1.573000
860.786000	-4.619227
860.991000	-4.038805
861.197000	-2.535843
861.402000	0.616969
861.607000	0.115442
861.812000	-1.799569
862.018000	-2.919704
862.223000	-2.063358
862.428000	-0.902622
862.633000	0.525493
862.839000	0.220756
863.044000	-0.760988
863.249000	-2.514255
863.454000	-0.346247
863.659000	0.015551
863.865000	-2.120196
864.070000	-3.222586
864.275000	-3.227977
864.480000	-2.559510
864.686000	-3.940488
864.891000	-2.518311
865.096000	0.175022
865.301000	0.812985
865.507000	0.336728
865.712000	0.443596
865.917000	-0.952064
866.122000	-0.361366
866.328000	-2.858503
866.533000	-2.477086
866.738000	0.776094
866.943000	0.451410
867.148000	1.329027
867.354000	-1.471750
867.559000	-2.574929
867.764000	-1.368556
867.969000	0.183771
868.175000	-1.093354
868.380000	-1.264273
868.585000	-2.548570
868.790000	0.016788
868.996000	0.129558
869.201000	-2.468058
869.406000	-3.499680
869.611000	-2.993422
869.817000	-1.458168
870.022000	3.149493
870.227000	0.530962
870.432000	-1.704001
870.637000	-0.442283
870.843000	-0.675946
871.048000	-0.329466
871.253000	1.231874
871.458000	-1.203250
871.664000	-3.492304
871.869000	-3.454095
872.074000	-2.756255
872.279000	-1.280127
872.485000	-1.169632
872.690000	-1.890258
872.895000	-1.419062
873.100000	-1.121006
873.306000	-2.630814
873.511000	-2.527902
873.716000	-0.103282
873.921000	-1.496708
874.126000	-3.259155
874.332000	-1.084831
874.537000	-0.597453
874.742000	-1.455045
874.947000	-0.906324
875.153000	1.138866
875.358000	-0.605076
875.563000	-2.162545
875.768000	-4.862677
875.974000	-5.825258
876.179000	-1.492210
876.384000	-0.044288
876.589000	-1.640731
876.794000	-0.747798
877.000000	-1.771887
877.205000	-5.475029
877.410000	-1.649954
877.615000	-3.313555
877.821000	-5.670716
878.026000	-2.697664
878.231000	-3.279150
878.436000	-4.645164
878.642000	-4.807745
878.847000	-1.876383
879.052000	0.084872
879.257000	-2.680241
879.463000	-3.936887
879.668000	-2.618792
879.873000	-1.370900
880.078000	-2.702045
880.283000	-4.245466
880.489000	-5.311716
880.694000	-3.393653
880.899000	-0.721618
881.104000	-0.859977
881.310000	0.900583
881.515000	-0.656062
881.720000	0.833914
881.925000	4.247629
882.131000	5.338847
882.336000	0.638995
882.541000	-3.926444
882.746000	-3.528265
882.952000	-3.385143
883.157000	-2.139218
883.362000	-2.979966
883.567000	-4.464132
883.772000	-3.868999
883.978000	-3.306765
884.183000	-2.178766
884.388000	-2.173674
884.593000	-4.157855
884.799000	1.017433
885.004000	1.176112
885.209000	-1.927342
885.414000	-0.913609
885.620000	-2.586752
885.825000	0.751681
886.030000	0.240359
886.235000	-2.029950
886.440000	-0.864555
886.646000	-5.612330
886.851000	-5.342509
887.056000	-0.127076
887.261000	-1.623390
887.467000	-4.108794
887.672000	-0.733581
887.877000	-1.649474
888.082000	-3.413984
888.288000	-4.771269
888.493000	-8.314322
888.698000	-6.210632
888.903000	-1.597153
889.109000	-2.671808
889.314000	1.332811
889.519000	-0.821206
889.724000	0.561067
889.929000	-1.285037
890.135000	-1.288494
890.340000	-3.319120
890.545000	-4.483043
890.750000	-5.193747
890.956000	-2.945369
891.161000	-0.990773
891.366000	-3.340597
891.571000	-1.466412
891.777000	-0.447398
891.982000	0.339160
892.187000	-0.451511
892.392000	0.181755
892.598000	0.103318
892.803000	-0.938078
893.008000	-3.340095
893.213000	-1.813426
893.418000	-2.550255
893.624000	-2.563050
893.829000	-3.939261
894.034000	-1.921140
894.239000	-0.545779
894.445000	-3.145181
894.650000	-2.915993
894.855000	-2.510718
895.060000	-3.078049
895.266000	-1.207863
895.471000	-2.441817
895.676000	0.107254
895.881000	1.189950
896.087000	-2.471912
896.292000	-3.241929
896.497000	-0.143110
896.702000	-0.394070
896.907000	-2.745952
897.113000	0.952413
897.318000	0.614964
897.523000	0.869977
897.728000	-2.009497
897.934000	-3.101724
898.139000	-1.754298
898.344000	-0.230972
898.549000	-1.006578
898.755000	-1.955699
898.960000	-2.314520
899.165000	-4.223513
899.370000	-1.976974
899.575000	2.732917
899.781000	0.201392
899.986000	-3.213676
900.191000	-2.441075
900.396000	-1.914542
900.602000	-1.659764
900.807000	-3.906111
901.012000	-2.672016
901.217000	1.019149
901.423000	-3.028990
901.628000	-4.391860
901.833000	0.661607
902.038000	1.580105
902.244000	-2.340881
902.449000	-3.728984
902.654000	-3.953460
902.859000	-0.157029
903.064000	1.234412
903.270000	2.263464
903.475000	-3.327886
903.680000	-6.583795
903.885000	-4.758971
904.091000	-5.443897
904.296000	-6.412771
904.501000	-4.441134
904.706000	-3.215157
904.912000	1.861199
905.117000	0.513248
905.322000	-4.851984
905.527000	-7.453145
905.733000	-5.027129
905.938000	-4.569365
906.143000	-5.713503
906.348000	-6.114488
906.553000	0.129755
906.759000	2.224398
906.964000	0.531293
907.169000	-1.381077
907.374000	-6.708908
907.580000	-4.924495
907.785000	-6.037971
907.990000	23.889841
908.195000	17.577983
908.401000	1.278831
908.606000	-5.718410
908.811000	-9.368037
909.016000	-2.680488
909.221000	-1.851940
909.427000	-1.757259
909.632000	-6.337095
909.837000	-6.488146
910.042000	-5.434957
910.248000	-7.077900
910.453000	-2.890257
910.658000	-4.112110
910.863000	-2.146528
911.069000	-2.701140
911.274000	-3.602263
911.479000	-2.737721
911.684000	-5.836037
911.890000	-1.639695
912.095000	-2.200124
912.300000	-5.927582
912.506000	-5.480554
912.711000	-6.346424
912.917000	-2.246610
913.123000	-1.107187
913.328000	-3.181297
913.534000	-3.789988
913.740000	6.804471
913.946000	4.492538
914.151000	-4.720720
914.357000	-4.971554
914.563000	-0.434387
914.768000	-3.040918
914.974000	-6.540803
915.180000	-2.378559
915.385000	-4.206432
915.591000	-9.991845
915.797000	-3.153385
916.002000	1.272171
916.208000	-3.774751
916.414000	-4.810658
916.620000	-6.066669
916.825000	-6.085672
917.031000	-4.589616
917.237000	-9.253054
917.442000	-5.926508
917.648000	-5.077707
917.854000	-6.735981
918.059000	0.939484
918.265000	3.251943
918.471000	-0.736361
918.676000	-6.880833
918.882000	-7.189100
919.088000	-5.753909
919.294000	-10.044103
919.499000	-7.307935
919.705000	-1.168651
919.911000	-0.765634
920.116000	2.889692
920.322000	-5.408841
920.528000	-5.300808
920.733000	-6.069221
920.939000	-7.488816
921.145000	-6.497872
921.350000	-6.299343
921.556000	-3.651558
921.762000	-3.217210
921.968000	-4.079180
922.173000	-5.108102
922.379000	-9.340949
922.585000	-7.516588
922.790000	-7.238616
922.996000	-8.028897
923.202000	-9.462923
923.407000	-7.728344
923.613000	-5.792826
923.819000	-1.157128
924.024000	-1.448685
924.230000	0.796544
924.436000	-4.491890
924.642000	5.405251
924.847000	3.450078
925.053000	-2.271887
925.259000	-8.929688
925.464000	-3.847538
925.670000	-4.933934
925.876000	-8.452444
926.081000	-7.231805
926.287000	-3.124158
926.493000	-1.404041
926.698000	-4.477792
926.904000	-3.647023
927.110000	-7.709526
927.316000	-7.579739
927.521000	2.836530
927.727000	-1.780766
927.933000	-6.134353
928.138000	-7.504239
928.344000	-11.157756
928.550000	-4.881294
928.755000	-1.152621
928.961000	-7.331238
929.167000	-8.066884
929.372000	1.786265
929.578000	2.327773
929.784000	-5.059856
929.990000	-10.396520
930.195000	-9.180963
930.401000	-6.029037
930.607000	-1.918879
930.812000	-2.118720
931.018000	-5.764270
931.224000	-10.632621
931.429000	-7.163549
931.635000	-8.810390
931.841000	-10.015655
932.046000	-7.427218
932.252000	-3.893757
932.458000	4.991855
932.664000	-2.437649
932.869000	-7.628020
933.075000	-6.519268
933.281000	-5.434832
933.486000	0.059638
933.692000	-0.539159
933.898000	-9.059547
934.103000	-3.363078
934.309000	-7.340381
934.515000	-0.146295
934.720000	0.482336
934.926000	-3.743019
935.132000	-2.899472
935.338000	-2.716953
935.543000	-10.351018
935.749000	-13.514637
935.955000	-15.337185
936.160000	-11.730758
936.366000	-0.380851
936.572000	-1.073690
936.777000	-0.629425
936.983000	2.173111
937.189000	-6.287855
937.394000	-11.862545
937.600000	-2.805556
937.806000	2.246301
938.012000	-4.097373
938.217000	6.995168
938.423000	0.572567
938.629000	-8.390570
938.834000	-10.958266
939.040000	-7.608812
939.246000	-5.289251
939.451000	-11.306965
939.657000	-5.408883
939.863000	-8.400283
940.068000	-2.060243
940.274000	-4.768266
940.480000	-3.739790
940.686000	0.639317
940.891000	-3.500449
941.097000	21.661028
941.303000	8.521545
941.508000	-9.250317
941.714000	-7.025245
941.920000	-12.880311
942.125000	-3.098884
942.331000	0.378253
942.537000	8.228043
942.742000	6.549453
942.948000	-13.130176
943.154000	-13.407549
943.360000	-29.361165
943.565000	-4.703637
943.771000	8.861637
943.977000	6.698436
944.182000	-8.306228
944.388000	-7.739953
944.594000	1.617522
944.799000	4.408530
945.005000	3.728462
945.211000	1.611340
945.416000	-2.685838
945.622000	-6.716162
945.828000	-6.475785
946.034000	-1.176433
946.239000	0.735378
946.445000	3.557200
946.651000	-9.305521
946.856000	-5.559862
947.062000	6.399230
947.268000	4.221994
947.473000	-6.916505
947.679000	-15.616804
947.885000	-3.763529
948.090000	2.038963
948.296000	9.643194
948.502000	6.260532
948.708000	-3.828382
948.913000	-8.178136
949.119000	2.085156
949.325000	-5.862013
949.530000	-24.093087
949.736000	-26.652240
949.942000	-16.678782
950.147000	-11.829707
950.353000	-5.158253
950.559000	-0.230135
950.764000	21.336856
950.970000	6.782137
951.176000	-14.431414
951.382000	-15.244195
951.587000	-3.370421
951.793000	6.050899
951.999000	9.067983
952.204000	-6.162447
952.410000	-19.219756
952.616000	-2.636266
952.821000	-0.585810
953.027000	-8.181075
953.233000	-11.842084
953.438000	-12.635259
953.644000	7.181728
953.850000	-2.017891
954.056000	-6.332385
954.261000	1.187951
954.467000	2.994878
954.673000	-0.252052
954.878000	-10.008318
955.084000	-7.126623
955.290000	-16.598975
955.495000	-13.004714
955.701000	-13.333309
955.907000	6.770272
956.112000	4.920975
956.318000	7.077464
956.524000	-1.372451
956.730000	-16.464717
956.935000	-10.845924
957.141000	-14.150284
957.347000	-15.120360
957.552000	-15.485019
957.758000	-24.633142
957.964000	-27.575577
958.169000	15.574380
958.375000	11.746042
958.581000	-11.959237
958.786000	-27.286864
958.992000	-29.691732
959.198000	-7.447253
959.404000	-1.071455
959.609000	-1.846251
959.815000	-15.101922
960.021000	6.182691
960.226000	6.645103
960.432000	-29.438611
960.638000	-21.355829
960.843000	-16.818543
961.049000	-13.371785
961.255000	1.797754
961.460000	-15.454094
961.666000	-29.582166
961.872000	-8.020768
962.078000	-8.973849
962.283000	-30.699197
962.489000	-26.341146
962.695000	-24.299637
962.900000	-10.690784
963.106000	-2.493798
963.312000	-10.946870
963.517000	-9.683773
963.723000	-10.250088
963.929000	5.527725
964.134000	13.141898
964.340000	-14.830959
964.546000	-17.049111
964.752000	-16.882517
964.957000	-18.419974
965.163000	2.010973
965.369000	-5.069732
965.574000	2.537120
965.780000	0.143730
966.000000	-12.322936
966.220000	-19.149687
966.440000	-18.766105
966.661000	-4.732095
966.881000	-22.363035
967.101000	-39.268254
967.321000	-45.438508
967.541000	-22.161267
967.761000	-18.405683
967.981000	-5.362563
968.202000	-10.619078
968.422000	-0.360541
968.642000	-3.953754
968.862000	-7.705829
969.082000	-11.986820
969.302000	-0.926918
969.522000	1.768498
969.743000	14.768616
969.963000	-11.574040
970.183000	-29.215060
970.403000	-27.769130
970.623000	-22.872955
970.843000	8.430570
971.063000	13.596379
971.284000	-9.963701
971.504000	-17.146974
971.724000	-2.115780
971.944000	-19.138329
972.164000	-36.525792
972.384000	-21.694546
972.604000	-37.180833
972.825000	-44.109212
973.045000	-22.530778
973.265000	34.026373
973.485000	24.374312
973.705000	5.656378
973.925000	-1.667017
974.145000	-50.924262
974.365000	-14.986689
974.586000	-7.441851
974.806000	-33.636271
975.026000	-10.025986
975.246000	-20.605524
975.466000	-26.274467
975.686000	-2.987233
975.906000	-13.169564
976.127000	-51.711189
976.347000	-49.547223
976.567000	3.519028
976.787000	0.865822
977.007000	-22.604857
977.227000	-13.496641
977.447000	-17.443677
977.668000	-49.832513
977.888000	-26.483645
978.108000	-35.953502
978.328000	-41.376681
978.548000	7.981279
978.768000	15.324789
978.988000	-2.781032
979.209000	-12.495231
979.429000	-21.597408
979.649000	-10.814058
979.869000	-10.169822
980.089000	-32.698429
980.309000	-76.377660
980.529000	-77.105067
980.750000	-39.059240
980.970000	-53.525958
981.190000	-32.615795
981.410000	-28.750761
981.630000	-32.558277
981.850000	-18.469299
982.070000	-11.599923
982.291000	-62.326650
982.511000	-48.445031
982.731000	-9.214170
982.951000	-31.769870
983.171000	-23.706999
983.391000	-24.745610
983.611000	3.756822
983.832000	-25.619924
984.052000	-45.882218
984.272000	-25.452964
984.492000	-35.974926
984.712000	-49.840817
984.932000	-49.530953
985.152000	-52.925074
985.373000	-52.002524
985.593000	-22.368253
985.813000	-11.454125
986.033000	-16.621273
986.253000	17.217744
986.473000	20.157853
986.693000	-18.222080
986.914000	-26.210536
987.134000	-2.753468
987.354000	-31.850926
987.574000	220.949259
987.794000	154.994242
988.014000	-20.763758
988.234000	2.508697
988.455000	-8.482855
988.675000	-7.418137
988.895000	-0.802063
989.115000	-46.048253
989.335000	-22.219520
989.555000	8.218813
989.775000	-13.837256
989.995000	-22.645550
990.216000	-39.328268
990.436000	-31.944082
990.656000	12.562803
990.876000	-27.735786
991.096000	-30.064828
991.316000	12.420447
991.536000	-14.845395
991.757000	-8.566753
991.977000	-47.197113
992.197000	2.963318
992.417000	-21.098741
992.637000	-76.091287
992.857000	-94.773398
993.077000	-71.990279
993.298000	-48.957149
993.518000	-27.119285
993.738000	-67.431145
993.958000	-41.051362
994.178000	-69.784547
994.398000	-67.735138
994.618000	-93.352398
994.839000	-125.925906
995.059000	-19.165170
995.279000	38.710383
995.499000	-10.322425
995.719000	0.445318
995.939000	0.446269
996.159000	8.419822
996.380000	3.541277
996.600000	-98.293768
996.820000	-47.274673
997.040000	26.391709
997.260000	-65.748344
997.480000	-45.001344
997.700000	-107.068536
997.921000	-56.848714
998.141000	42.971168
998.361000	25.246420
998.581000	-68.277638
998.801000	-63.207109
999.021000	-16.760502
999.241000	-17.646413
999.462000	-33.798522
999.682000	-88.807701
999.902000	-60.827068
1000.122000	-49.115295
1000.342000	-121.305353
1000.562000	-86.049711
1000.782000	-66.655067
1001.003000	-934.673219
