Wavelength	Irradiance
(nm)	(mW/cm2/nm)

294.396000	0.000000
294.577000	0.000000
294.757000	-0.000000
294.938000	-0.000000
295.118000	-0.000000
295.299000	0.000000
295.479000	-0.000000
295.660000	-0.000000
295.840000	-0.000000
296.021000	-0.000000
296.202000	-0.000000
296.382000	-0.000000
296.563000	-0.000000
296.743000	-0.000000
296.924000	0.000000
297.104000	-0.000000
297.285000	-0.000000
297.465000	-0.000000
297.646000	-0.000000
297.826000	-0.000000
298.007000	0.000000
298.187000	0.000000
298.368000	-0.000000
298.548000	-0.000000
298.729000	0.000000
298.909000	-0.000000
299.090000	-0.000000
299.270000	-0.000000
299.451000	-0.000000
299.631000	-0.000000
299.812000	-0.000000
299.992000	0.000000
300.173000	0.000000
300.353000	-0.000000
300.534000	0.000000
300.714000	0.000000
300.895000	0.000000
301.075000	-0.000000
301.256000	0.000000
301.436000	0.000000
301.617000	0.000000
301.797000	-0.000000
301.978000	-0.000000
302.159000	0.000000
302.339000	0.000000
302.520000	-0.000000
302.700000	-0.000000
302.881000	0.000000
303.061000	0.000000
303.242000	0.000000
303.422000	0.000000
303.603000	-0.000000
303.783000	-0.000000
303.964000	-0.000000
304.144000	-0.000000
304.325000	-0.000000
304.505000	-0.000000
304.686000	-0.000000
304.866000	0.000000
305.047000	-0.000000
305.227000	-0.000000
305.408000	-0.000000
305.588000	-0.000000
305.769000	-0.000000
305.949000	-0.000000
306.130000	-0.000000
306.310000	-0.000000
306.491000	-0.000000
306.671000	-0.000000
306.852000	-0.000000
307.032000	-0.000000
307.213000	-0.000000
307.393000	-0.000000
307.574000	0.000000
307.755000	0.000000
307.935000	0.000000
308.116000	-0.000000
308.296000	-0.000000
308.477000	0.000000
308.657000	0.000000
308.838000	0.000000
309.018000	0.000000
309.199000	-0.000000
309.379000	-0.000000
309.560000	0.000000
309.740000	-0.000000
309.921000	0.000000
310.101000	-0.000000
310.282000	-0.000000
310.462000	-0.000000
310.643000	-0.000000
310.823000	-0.000000
311.004000	-0.000000
311.184000	-0.000000
311.365000	0.000000
311.545000	0.000000
311.726000	0.000000
311.906000	0.000000
312.087000	0.000000
312.267000	-0.000000
312.448000	-0.000000
312.628000	-0.000000
312.809000	-0.000000
312.989000	-0.000000
313.170000	-0.000000
313.344000	-0.000000
313.518000	-0.000000
313.691000	-0.000000
313.865000	-0.000000
314.039000	-0.000000
314.213000	-0.000000
314.387000	-0.000000
314.560000	-0.000000
314.734000	-0.000000
314.908000	-0.000000
315.082000	-0.000000
315.255000	0.000000
315.429000	0.000000
315.603000	0.000000
315.777000	-0.000000
315.951000	0.000000
316.124000	-0.000000
316.298000	-0.000000
316.472000	-0.000000
316.646000	-0.000000
316.820000	-0.000000
316.993000	-0.000000
317.167000	-0.000000
317.341000	-0.000000
317.515000	-0.000000
317.688000	-0.000000
317.862000	-0.000000
318.036000	-0.000000
318.210000	-0.000000
318.384000	-0.000000
318.557000	-0.000000
318.731000	-0.000000
318.905000	0.000000
319.079000	0.000000
319.253000	-0.000000
319.426000	0.000000
319.600000	0.000000
319.774000	-0.000000
319.948000	-0.000000
320.122000	0.000000
320.295000	0.000000
320.469000	-0.000000
320.643000	-0.000000
320.817000	-0.000000
320.990000	-0.000000
321.164000	-0.000000
321.338000	-0.000000
321.512000	-0.000000
321.686000	-0.000000
321.859000	-0.000000
322.033000	0.000000
322.207000	-0.000000
322.381000	-0.000000
322.555000	0.000000
322.728000	0.000000
322.902000	-0.000000
323.076000	-0.000000
323.250000	-0.000000
323.423000	-0.000000
323.597000	-0.000000
323.771000	-0.000000
323.945000	-0.000000
324.119000	-0.000000
324.292000	0.000000
324.466000	-0.000000
324.640000	0.000000
324.814000	0.000000
324.988000	-0.000000
325.161000	-0.000000
325.335000	-0.000000
325.509000	-0.000000
325.683000	-0.000000
325.856000	-0.000000
326.030000	-0.000000
326.204000	-0.000000
326.378000	-0.000000
326.552000	-0.000000
326.725000	-0.000000
326.899000	-0.000000
327.073000	-0.000000
327.247000	-0.000000
327.421000	0.000000
327.594000	-0.000000
327.768000	-0.000000
327.942000	-0.000000
328.116000	0.000000
328.289000	-0.000000
328.463000	-0.000000
328.637000	0.000000
328.811000	-0.000000
328.985000	-0.000000
329.158000	-0.000000
329.332000	-0.000000
329.506000	-0.000000
329.680000	-0.000000
329.854000	-0.000000
330.027000	-0.000000
330.201000	0.000000
330.375000	0.000000
330.549000	0.000000
330.723000	-0.000000
330.896000	-0.000000
331.070000	-0.000000
331.244000	0.000000
331.418000	-0.000000
331.591000	-0.000000
331.765000	-0.000000
331.939000	-0.000000
332.113000	-0.000000
332.287000	-0.000000
332.460000	0.000000
332.634000	0.000000
332.808000	-0.000000
332.982000	-0.000000
333.156000	-0.000000
333.329000	-0.000000
333.503000	-0.000000
333.677000	-0.000000
333.851000	-0.000000
334.024000	-0.000000
334.198000	-0.000000
334.372000	-0.000000
334.546000	-0.000000
334.720000	-0.000000
334.893000	-0.000000
335.067000	-0.000000
335.241000	-0.000000
335.415000	-0.000000
335.589000	-0.000000
335.762000	-0.000000
335.936000	-0.000000
336.110000	-0.000000
336.284000	-0.000000
336.458000	-0.000000
336.631000	-0.000000
336.805000	-0.000000
336.979000	-0.000000
337.153000	-0.000000
337.326000	-0.000000
337.500000	-0.000000
337.674000	-0.000000
337.848000	-0.000000
338.022000	-0.000000
338.195000	-0.000000
338.369000	-0.000000
338.543000	-0.000000
338.717000	-0.000000
338.891000	-0.000000
339.064000	-0.000000
339.238000	-0.000000
339.412000	-0.000000
339.586000	0.000000
339.759000	-0.000000
339.933000	-0.000000
340.107000	0.000000
340.281000	-0.000000
340.455000	-0.000000
340.628000	-0.000000
340.802000	-0.000000
340.976000	-0.000000
341.150000	-0.000000
341.324000	-0.000000
341.497000	-0.000000
341.671000	-0.000000
341.845000	-0.000000
342.019000	-0.000000
342.192000	-0.000000
342.366000	-0.000000
342.540000	-0.000000
342.714000	-0.000000
342.888000	-0.000000
343.061000	-0.000000
343.235000	-0.000000
343.409000	-0.000000
343.583000	-0.000000
343.757000	-0.000000
343.930000	-0.000000
344.104000	-0.000000
344.278000	0.000000
344.452000	0.000000
344.626000	-0.000000
344.799000	-0.000000
344.973000	-0.000000
345.147000	-0.000000
345.321000	-0.000000
345.494000	-0.000000
345.668000	0.000000
345.842000	0.000000
346.016000	-0.000000
346.190000	0.000000
346.363000	0.000000
346.537000	0.000000
346.711000	-0.000000
346.885000	-0.000000
347.059000	-0.000000
347.232000	0.000000
347.406000	0.000000
347.580000	-0.000000
347.754000	-0.000000
347.927000	-0.000000
348.101000	0.000000
348.275000	-0.000000
348.449000	-0.000000
348.623000	-0.000000
348.796000	-0.000000
348.970000	0.000000
349.144000	-0.000000
349.318000	-0.000000
349.492000	-0.000000
349.665000	-0.000000
349.839000	-0.000000
350.013000	-0.000000
350.187000	-0.000000
350.361000	-0.000000
350.534000	0.000000
350.708000	-0.000000
350.882000	-0.000000
351.056000	0.000000
351.229000	0.000000
351.403000	-0.000000
351.577000	-0.000000
351.751000	-0.000000
351.925000	-0.000000
352.098000	-0.000000
352.272000	-0.000000
352.446000	-0.000000
352.620000	-0.000000
352.794000	-0.000000
352.967000	-0.000000
353.141000	0.000000
353.315000	0.000000
353.489000	-0.000000
353.662000	-0.000000
353.836000	-0.000000
354.010000	-0.000000
354.184000	-0.000000
354.358000	-0.000000
354.531000	-0.000000
354.705000	-0.000000
354.879000	-0.000000
355.053000	-0.000000
355.227000	-0.000000
355.400000	-0.000000
355.574000	0.000000
355.748000	0.000000
355.922000	-0.000000
356.095000	-0.000000
356.269000	-0.000000
356.443000	-0.000000
356.617000	-0.000000
356.791000	-0.000000
356.964000	-0.000000
357.138000	-0.000000
357.312000	-0.000000
357.486000	-0.000000
357.660000	-0.000000
357.833000	-0.000000
358.007000	-0.000000
358.181000	-0.000000
358.355000	-0.000000
358.529000	-0.000000
358.702000	-0.000000
358.876000	-0.000000
359.050000	-0.000000
359.224000	-0.000000
359.397000	0.000000
359.571000	-0.000000
359.745000	-0.000000
359.919000	-0.000000
360.093000	-0.119354
360.266000	-0.081822
360.440000	0.034332
360.614000	0.087134
360.788000	0.031722
360.962000	-0.204009
361.135000	-0.048667
361.309000	-0.218619
361.483000	-0.386602
361.657000	-0.256904
361.830000	-0.212868
362.004000	0.046863
362.178000	-0.302517
362.352000	-0.300037
362.526000	-0.122081
362.699000	-0.070197
362.873000	-0.444625
363.047000	-0.458337
363.221000	-0.351761
363.395000	-0.232966
363.568000	-0.186314
363.742000	-0.192120
363.916000	-0.275450
364.090000	-0.396903
364.263000	-0.321609
364.437000	-0.473715
364.611000	-0.289857
364.785000	-0.264158
364.959000	-0.432081
365.132000	-0.300240
365.306000	-0.272582
365.480000	-0.230139
365.656000	-0.269764
365.831000	-0.269633
366.007000	-0.284777
366.183000	-0.284800
366.358000	-0.315604
366.534000	-0.185798
366.710000	-0.324295
366.886000	-0.260723
367.061000	-0.176277
367.237000	0.052138
367.413000	-0.097722
367.588000	-0.358770
367.764000	-0.334883
367.940000	-0.369562
368.115000	-0.292803
368.291000	-0.371921
368.467000	-0.253893
368.643000	-0.020432
368.818000	-0.301280
368.994000	-0.301157
369.170000	-0.293195
369.345000	-0.287641
369.521000	-0.276171
369.697000	-0.190065
369.872000	-0.295214
370.048000	-0.388382
370.224000	-0.342857
370.399000	-0.502064
370.575000	-0.405839
370.751000	-0.540322
370.927000	-0.471833
371.102000	-0.432424
371.278000	-0.343012
371.454000	-0.283822
371.629000	-0.042794
371.805000	-0.248398
371.981000	-0.119923
372.156000	0.250674
372.332000	0.005855
372.508000	-0.075279
372.683000	-0.128667
372.859000	-0.238021
373.035000	-0.158375
373.211000	0.269993
373.386000	-0.004937
373.562000	-0.425771
373.738000	-0.548045
373.913000	-0.722679
374.089000	-0.517451
374.265000	-0.076100
374.440000	-0.076775
374.616000	-0.049052
374.792000	-0.224658
374.968000	0.161622
375.143000	-0.069728
375.319000	-0.333568
375.495000	-0.350649
375.670000	-0.209518
375.846000	-0.135257
376.022000	-0.284870
376.197000	-0.255307
376.373000	-0.470535
376.549000	-0.506264
376.724000	-0.571322
376.900000	-0.414802
377.076000	-0.191805
377.252000	0.089560
377.427000	0.169185
377.603000	-0.090168
377.779000	-0.202285
377.954000	-0.467276
378.130000	-0.308855
378.306000	-0.248317
378.481000	-0.220933
378.657000	-0.319482
378.833000	-0.392266
379.009000	-0.227835
379.184000	0.021676
379.360000	-0.088564
379.536000	-0.226681
379.711000	-0.300281
379.887000	-0.295867
380.063000	-0.345092
380.238000	-0.326427
380.414000	-0.062396
380.590000	-0.311830
380.765000	-0.379476
380.941000	-0.135169
381.117000	-0.108379
381.293000	-0.201249
381.468000	-0.316672
381.644000	-0.243513
381.820000	-0.191758
381.995000	-0.120170
382.171000	0.200879
382.347000	0.169040
382.522000	-0.297956
382.698000	-0.077631
382.874000	0.047341
383.050000	-0.381765
383.225000	-0.072675
383.401000	0.273294
383.577000	-0.094563
383.752000	-0.367328
383.928000	-0.304471
384.104000	-0.158435
384.279000	-0.179774
384.455000	-0.148929
384.631000	-0.273005
384.806000	-0.425950
384.982000	-0.293992
385.158000	-0.291319
385.334000	-0.102121
385.509000	-0.190149
385.685000	-0.439151
385.861000	-0.245510
386.036000	-0.355704
386.212000	-0.635153
386.388000	-0.449969
386.563000	-0.357145
386.739000	-0.319615
386.915000	-0.603361
387.090000	-0.300879
387.266000	-0.061624
387.442000	-0.102955
387.618000	-0.148335
387.793000	-0.439513
387.969000	-0.620384
388.145000	-0.417391
388.320000	-0.319331
388.496000	-0.330164
388.672000	-0.535805
388.847000	-0.168053
389.023000	-0.271953
389.199000	-0.588603
389.375000	-0.254193
389.550000	-0.363484
389.726000	-0.323859
389.902000	-0.483187
390.077000	-0.300170
390.253000	-0.193206
390.429000	-0.394319
390.604000	-0.325391
390.780000	-0.141366
390.956000	-0.260939
391.131000	-0.340730
391.307000	-0.114996
391.483000	-0.275583
391.659000	-0.382246
391.834000	-0.129877
392.010000	-0.304972
392.186000	-0.385499
392.361000	-0.290879
392.537000	-0.462223
392.713000	-0.039018
392.888000	0.297273
393.064000	0.060065
393.240000	-0.148050
393.416000	-0.240639
393.591000	-0.430728
393.767000	-0.546459
393.943000	-0.407033
394.118000	-0.033690
394.294000	0.181027
394.470000	-0.038448
394.645000	-0.062583
394.821000	0.229828
394.997000	-0.106196
395.172000	-0.182814
395.348000	-0.318500
395.524000	-0.547331
395.700000	-0.330382
395.875000	-0.124014
396.051000	-0.181235
396.227000	-0.259667
396.402000	-0.256203
396.578000	-0.197579
396.754000	-0.403104
396.929000	-0.372604
397.105000	-0.152353
397.281000	-0.185726
397.457000	-0.247072
397.632000	-0.202075
397.808000	-0.483045
397.984000	-0.560520
398.159000	-0.532930
398.335000	-0.408200
398.511000	0.019447
398.686000	-0.146414
398.862000	-0.352502
399.038000	-0.562832
399.213000	-0.214449
399.389000	-0.484270
399.565000	-0.191943
399.741000	0.094224
399.916000	0.019405
400.092000	0.108799
400.268000	-0.219077
400.443000	-0.311499
400.619000	0.047652
400.795000	-0.032674
400.970000	-0.265877
401.146000	-0.356046
401.322000	-0.032587
401.497000	0.359133
401.673000	0.057397
401.849000	-0.297381
402.025000	-0.201966
402.200000	-0.309401
402.376000	-0.299879
402.552000	0.075869
402.727000	-0.173072
402.903000	-0.430131
403.079000	-0.247761
403.254000	0.028594
403.430000	-0.046097
403.606000	-0.144118
403.782000	-0.167228
403.957000	-0.433973
404.133000	-0.519396
404.309000	-0.275772
404.484000	-0.074179
404.660000	-0.153917
404.841000	-0.252317
405.023000	-0.018157
405.204000	-0.102260
405.385000	-0.417009
405.566000	-0.443152
405.748000	-0.306222
405.929000	-0.056429
406.110000	-0.102648
406.292000	-0.254754
406.473000	-0.106526
406.654000	-0.355877
406.835000	-0.177096
407.017000	-0.260219
407.198000	-0.298745
407.379000	-0.215293
407.560000	-0.110055
407.742000	-0.213001
407.923000	-0.237515
408.104000	-0.352490
408.286000	-0.203465
408.467000	-0.161352
408.648000	-0.454016
408.829000	-0.517117
409.011000	-0.249396
409.192000	-0.380429
409.373000	-0.199004
409.555000	-0.022734
409.736000	-0.077883
409.917000	-0.216942
410.098000	-0.256861
410.280000	-0.191137
410.461000	-0.227226
410.642000	-0.209398
410.823000	0.073422
411.005000	0.018721
411.186000	-0.150328
411.367000	-0.292226
411.549000	-0.273736
411.730000	-0.031523
411.911000	0.096235
412.092000	-0.090491
412.274000	-0.198122
412.455000	-0.130697
412.636000	-0.103657
412.818000	-0.283585
412.999000	-0.420486
413.180000	-0.332924
413.361000	-0.288945
413.543000	-0.309890
413.724000	-0.452654
413.905000	-0.555854
414.087000	-0.480589
414.268000	-0.368608
414.449000	-0.422753
414.630000	-0.545142
414.812000	-0.584203
414.993000	-0.216365
415.174000	-0.101373
415.355000	-0.231168
415.537000	-0.496208
415.718000	-0.239259
415.899000	-0.282803
416.081000	-0.374198
416.262000	-0.127115
416.443000	-0.306681
416.624000	-0.297218
416.806000	-0.218847
416.987000	-0.026000
417.168000	-0.117831
417.350000	-0.319252
417.531000	-0.321686
417.712000	-0.369539
417.893000	-0.182308
418.075000	-0.068922
418.256000	-0.351697
418.437000	-0.235264
418.618000	-0.169180
418.800000	-0.090753
418.981000	-0.271772
419.162000	-0.179872
419.344000	0.004753
419.525000	-0.125554
419.706000	-0.264868
419.887000	-0.095057
420.069000	0.074145
420.250000	-0.142614
420.431000	-0.194159
420.613000	-0.199424
420.794000	-0.478391
420.975000	-0.146040
421.156000	-0.318974
421.338000	-0.353216
421.519000	-0.167733
421.700000	-0.284997
421.882000	-0.380072
422.063000	-0.176414
422.244000	0.223588
422.425000	-0.003877
422.607000	-0.360862
422.788000	-0.315860
422.969000	-0.365310
423.150000	-0.434659
423.332000	-0.506427
423.513000	-0.314133
423.694000	-0.307120
423.876000	-0.232773
424.057000	-0.202574
424.238000	-0.125296
424.419000	-0.021306
424.601000	-0.208249
424.782000	-0.242784
424.963000	-0.051255
425.145000	-0.107541
425.326000	-0.055475
425.507000	0.000429
425.688000	-0.129044
425.870000	-0.281215
426.051000	-0.434214
426.232000	-0.378239
426.413000	-0.328523
426.595000	-0.378471
426.776000	-0.386904
426.957000	-0.323739
427.139000	-0.283634
427.320000	-0.220042
427.501000	-0.047305
427.682000	-0.094579
427.864000	-0.077261
428.045000	0.099996
428.226000	0.117731
428.408000	-0.259977
428.589000	-0.211333
428.770000	-0.275532
428.951000	-0.408507
429.133000	-0.484541
429.314000	-0.282431
429.495000	-0.272950
429.677000	-0.213904
429.858000	-0.274214
430.039000	-0.231572
430.220000	-0.089809
430.402000	-0.106663
430.583000	-0.454700
430.764000	-0.303209
430.945000	-0.166683
431.127000	-0.110187
431.308000	-0.262135
431.489000	-0.063448
431.671000	0.004703
431.852000	-0.131236
432.033000	-0.203459
432.214000	-0.063165
432.396000	-0.050314
432.577000	-0.253820
432.758000	-0.428688
432.940000	-0.339104
433.121000	-0.198838
433.302000	-0.210856
433.483000	-0.037533
433.665000	0.118567
433.846000	-0.045983
434.027000	-0.251113
434.208000	-0.363826
434.390000	-0.402987
434.571000	-0.062639
434.752000	0.413536
434.934000	0.220369
435.115000	0.017058
435.296000	0.175098
435.477000	0.058471
435.659000	-0.171927
435.840000	-0.098368
436.026000	-0.151424
436.211000	-0.331620
436.397000	-0.559046
436.582000	-0.440641
436.768000	-0.150568
436.953000	-0.146289
437.139000	-0.235422
437.325000	0.085416
437.510000	0.028738
437.696000	0.101325
437.881000	0.052799
438.067000	-0.356258
438.252000	-0.272306
438.438000	-0.288144
438.624000	-0.304188
438.809000	-0.227110
438.995000	-0.131163
439.180000	-0.234094
439.366000	-0.253701
439.551000	-0.178028
439.737000	-0.181624
439.923000	-0.142240
440.108000	-0.134139
440.294000	-0.106115
440.479000	-0.034984
440.665000	0.012106
440.850000	-0.108352
441.036000	-0.081352
441.222000	-0.171602
441.407000	-0.295675
441.593000	-0.181916
441.778000	0.004257
441.964000	0.109208
442.149000	-0.243524
442.335000	-0.384829
442.521000	-0.253576
442.706000	-0.041772
442.892000	-0.129635
443.077000	-0.202969
443.263000	-0.064573
443.448000	-0.208823
443.634000	-0.288905
443.820000	0.060893
444.005000	-0.048758
444.191000	-0.351865
444.376000	-0.214499
444.562000	0.195202
444.747000	0.120897
444.933000	-0.037179
445.119000	-0.097034
445.304000	-0.205300
445.490000	-0.037036
445.675000	-0.051976
445.861000	-0.292066
446.046000	-0.216607
446.232000	-0.059401
446.418000	-0.033213
446.603000	-0.070522
446.789000	-0.048082
446.974000	-0.096829
447.160000	-0.387040
447.345000	-0.270136
447.531000	-0.255091
447.717000	-0.051777
447.902000	0.004115
448.088000	0.033839
448.273000	-0.084719
448.459000	-0.128750
448.644000	-0.180494
448.830000	-0.255266
449.016000	-0.373511
449.201000	-0.299051
449.387000	-0.158939
449.572000	-0.091975
449.758000	-0.150977
449.943000	-0.210338
450.129000	-0.279456
450.315000	-0.312005
450.500000	-0.304920
450.686000	-0.135973
450.871000	-0.287330
451.057000	-0.176374
451.243000	-0.150426
451.428000	-0.124848
451.614000	-0.117204
451.799000	-0.157526
451.985000	-0.032666
452.170000	0.015034
452.356000	-0.157194
452.542000	-0.260102
452.727000	-0.050833
452.913000	-0.190113
453.098000	-0.003296
453.284000	0.212722
453.469000	0.018695
453.655000	0.150397
453.841000	0.033247
454.026000	-0.174238
454.212000	-0.130214
454.397000	-0.101333
454.583000	-0.263418
454.768000	-0.400444
454.954000	-0.202456
455.140000	-0.086413
455.325000	-0.255761
455.511000	-0.420122
455.696000	-0.362158
455.882000	-0.144322
456.067000	0.058263
456.253000	-0.111829
456.439000	-0.267409
456.624000	-0.234069
456.810000	-0.269393
456.995000	-0.338186
457.181000	-0.398358
457.366000	-0.139019
457.552000	-0.085062
457.738000	-0.038751
457.923000	-0.024574
458.109000	0.232550
458.294000	0.139533
458.480000	-0.017508
458.665000	-0.063767
458.851000	-0.124108
459.037000	-0.268114
459.222000	-0.225741
459.408000	-0.257541
459.593000	-0.150826
459.779000	-0.013668
459.964000	0.102160
460.150000	0.313355
460.336000	0.242770
460.521000	-0.013607
460.707000	-0.159774
460.892000	-0.225473
461.078000	-0.013581
461.263000	0.062747
461.449000	-0.152732
461.635000	-0.152568
461.820000	-0.096768
462.006000	0.010706
462.191000	-0.044388
462.377000	-0.301569
462.562000	0.086389
462.748000	0.319616
462.934000	-0.119955
463.119000	-0.276779
463.305000	-0.074606
463.490000	-0.131877
463.676000	-0.162802
463.861000	-0.228373
464.047000	-0.214039
464.233000	-0.090935
464.418000	-0.077330
464.604000	-0.181613
464.789000	-0.030010
464.975000	-0.029915
465.160000	-0.154539
465.346000	-0.093882
465.532000	-0.164786
465.717000	-0.245264
465.903000	-0.013100
466.088000	-0.066762
466.274000	-0.243324
466.459000	-0.280364
466.645000	0.090684
466.831000	0.073489
467.016000	0.076688
467.202000	-0.019675
467.387000	-0.079475
467.573000	-0.271244
467.758000	0.010224
467.944000	-0.115045
468.130000	-0.238236
468.315000	-0.049397
468.501000	0.053185
468.686000	-0.088646
468.872000	-0.078787
469.057000	-0.022740
469.243000	-0.088777
469.429000	-0.144773
469.614000	-0.233254
469.800000	-0.253001
469.985000	-0.127582
470.171000	-0.058488
470.356000	-0.157095
470.542000	-0.114898
470.728000	-0.071851
470.913000	-0.153107
471.099000	-0.038822
471.284000	-0.111380
471.470000	-0.151025
471.655000	-0.104977
471.841000	-0.150569
472.027000	-0.156290
472.212000	0.075436
472.398000	0.131381
472.583000	-0.068549
472.769000	-0.081820
472.954000	-0.065289
473.140000	-0.225083
473.326000	-0.251540
473.511000	0.039499
473.697000	0.108178
473.882000	0.029863
474.068000	-0.062142
474.253000	-0.264854
474.439000	-0.143950
474.625000	0.000327
474.810000	-0.035702
474.996000	-0.071731
475.181000	-0.257473
475.367000	-0.048673
475.552000	0.167877
475.738000	-0.198947
475.924000	-0.183023
476.109000	-0.055310
476.295000	-0.166674
476.480000	-0.143901
476.666000	-0.120771
476.851000	-0.143606
477.037000	-0.039131
477.223000	-0.101210
477.408000	-0.225737
477.594000	-0.382638
477.779000	-0.219427
477.965000	-0.052169
478.151000	-0.288347
478.336000	-0.229511
478.522000	-0.209310
478.707000	-0.209288
478.893000	-0.117824
479.078000	-0.345135
479.264000	-0.378133
479.450000	-0.226839
479.635000	-0.088443
479.821000	-0.203874
480.006000	-0.131315
480.192000	-0.183798
480.377000	-0.128181
480.563000	-0.065509
480.749000	-0.210489
480.934000	-0.187231
481.120000	-0.130810
481.305000	-0.074973
481.491000	-0.085140
481.676000	-0.032617
481.862000	0.023446
482.048000	-0.150756
482.233000	-0.150578
482.419000	-0.141054
482.604000	-0.246522
482.790000	-0.243236
482.975000	-0.164394
483.161000	-0.006241
483.347000	-0.065259
483.532000	-0.055432
483.718000	-0.279393
483.903000	-0.233649
484.089000	-0.177198
484.274000	-0.298365
484.460000	-0.121362
484.646000	-0.078612
484.831000	-0.180708
485.017000	-0.189985
485.202000	-0.199449
485.388000	0.069057
485.573000	0.059122
485.759000	-0.147033
485.945000	0.033081
486.130000	-0.097859
486.316000	-0.091349
486.501000	-0.055187
486.687000	-0.270327
486.872000	-0.277099
487.058000	-0.127048
487.244000	-0.100982
487.429000	-0.266875
487.615000	-0.097448
487.800000	0.036170
487.986000	-0.204186
488.171000	-0.038719
488.357000	-0.077501
488.543000	-0.093373
488.728000	0.000323
488.914000	-0.083762
489.099000	-0.138657
489.285000	-0.145017
489.470000	0.006766
489.656000	-0.006126
489.842000	0.019592
490.027000	0.083573
490.213000	-0.115144
490.398000	-0.346936
490.584000	-0.086191
490.769000	-0.108620
490.955000	-0.102035
491.141000	-0.060320
491.326000	-0.050568
491.512000	0.073433
491.697000	-0.031407
491.883000	-0.142499
492.068000	-0.215521
492.254000	-0.203186
492.440000	-0.117263
492.625000	-0.142261
492.811000	-0.189404
492.996000	-0.097572
493.182000	-0.075228
493.367000	-0.245896
493.553000	-0.362789
493.739000	-0.242442
493.924000	-0.135405
494.110000	-0.046880
494.295000	-0.194164
494.481000	-0.106467
494.666000	-0.125399
494.852000	0.031692
495.038000	-0.099891
495.223000	-0.234890
495.409000	-0.215567
495.594000	-0.215924
495.780000	-0.121590
495.965000	-0.181162
496.151000	0.053439
496.337000	0.090856
496.522000	-0.176965
496.708000	-0.115179
496.893000	-0.040264
497.079000	-0.114882
497.264000	-0.148844
497.450000	-0.170662
497.636000	-0.080586
497.821000	-0.238647
498.007000	-0.012103
498.192000	0.043921
498.378000	-0.074317
498.563000	-0.133440
498.749000	-0.127349
498.935000	-0.186227
499.120000	-0.064820
499.306000	-0.139453
499.491000	-0.256780
499.677000	-0.120454
499.862000	-0.002797
500.048000	0.012766
500.234000	-0.095971
500.419000	-0.177045
500.605000	-0.061974
500.790000	-0.089903
500.976000	-0.189754
501.161000	-0.289383
501.347000	-0.155432
501.533000	-0.049558
501.718000	-0.105599
501.904000	-0.171413
502.089000	-0.090369
502.275000	0.009668
502.460000	-0.086759
502.646000	-0.065066
502.832000	0.068839
503.017000	0.019039
503.203000	-0.218476
503.388000	-0.303593
503.574000	-0.084058
503.759000	-0.040300
503.945000	0.003442
504.131000	-0.124860
504.316000	-0.162313
504.502000	-0.093545
504.687000	-0.112617
504.873000	-0.222535
505.058000	-0.269582
505.244000	-0.253829
505.430000	-0.194581
505.615000	-0.075225
505.801000	-0.018604
505.986000	-0.222480
506.172000	-0.166098
506.358000	-0.144448
506.543000	-0.160096
506.729000	0.066406
506.914000	-0.009147
507.100000	0.101593
507.285000	-0.075769
507.471000	-0.253019
507.657000	0.019315
507.842000	-0.116676
508.028000	-0.240155
508.213000	-0.215378
508.399000	-0.171325
508.584000	-0.018772
508.770000	-0.145783
508.956000	-0.250792
509.141000	-0.206108
509.327000	-0.079240
509.512000	-0.132812
509.698000	-0.174283
509.883000	-0.079267
510.069000	-0.120976
510.255000	-0.101869
510.440000	-0.060430
510.626000	-0.143486
510.811000	-0.214100
510.997000	-0.118116
511.182000	0.156981
511.368000	0.067534
511.554000	-0.233464
511.739000	-0.185306
511.925000	-0.015692
512.110000	-0.073267
512.296000	0.077300
512.481000	0.170109
512.667000	0.022770
512.853000	-0.195341
513.038000	-0.128162
513.224000	-0.153896
513.409000	-0.237405
513.595000	-0.163781
513.780000	-0.305204
513.966000	-0.233885
514.152000	-0.201827
514.337000	-0.301418
514.523000	-0.205137
514.708000	-0.067164
514.894000	-0.070571
515.079000	-0.185850
515.265000	-0.212256
515.451000	-0.141456
515.636000	-0.260486
515.822000	-0.183438
516.007000	-0.202813
516.193000	-0.105978
516.378000	-0.022264
516.564000	-0.102783
516.750000	-0.128604
516.935000	-0.054499
517.121000	-0.067385
517.306000	0.061638
517.492000	0.077890
517.677000	-0.193375
517.863000	-0.248303
518.049000	-0.086884
518.234000	-0.177188
518.420000	-0.064307
518.605000	0.084313
518.791000	0.068127
518.976000	-0.061266
519.162000	-0.268234
519.348000	-0.145310
519.533000	-0.109552
519.719000	0.113544
519.904000	0.061856
520.090000	0.019715
520.275000	0.145859
520.461000	0.097540
520.647000	-0.126033
520.832000	-0.288810
521.018000	-0.177891
521.203000	-0.199916
521.389000	-0.345001
521.574000	-0.251666
521.760000	-0.099959
521.946000	-0.022389
522.131000	-0.129577
522.317000	-0.122892
522.502000	-0.210350
522.688000	-0.087225
522.873000	-0.135992
523.059000	-0.236774
523.245000	-0.197614
523.430000	-0.230355
523.616000	-0.165329
523.801000	-0.272877
523.987000	-0.276625
524.172000	-0.103927
524.358000	-0.042045
524.544000	-0.110309
524.729000	0.000325
524.915000	0.000325
525.100000	-0.194784
525.286000	-0.120170
525.471000	-0.068256
525.657000	-0.006211
525.843000	-0.215693
526.028000	-0.107759
526.214000	-0.163379
526.399000	-0.268925
526.585000	-0.314959
526.770000	-0.334625
526.956000	-0.193902
527.142000	-0.318943
527.327000	-0.134776
527.513000	-0.151440
527.698000	-0.187943
527.884000	-0.178682
528.069000	-0.254416
528.255000	-0.112302
528.441000	-0.152236
528.626000	-0.132743
528.812000	0.110031
528.997000	-0.056293
529.183000	-0.226073
529.368000	-0.140154
529.554000	-0.157294
529.740000	-0.117378
529.925000	-0.137587
530.111000	-0.124269
530.296000	-0.090725
530.482000	-0.006424
530.667000	-0.141720
530.853000	-0.070917
531.039000	-0.132283
531.224000	-0.071454
531.410000	0.014013
531.595000	-0.078341
531.781000	0.003764
531.967000	-0.123518
532.152000	-0.016912
532.338000	-0.137984
532.523000	-0.276837
532.709000	-0.277861
532.894000	-0.132450
533.080000	-0.055626
533.266000	-0.192211
533.451000	-0.242123
533.637000	-0.249961
533.822000	-0.077517
534.008000	-0.172934
534.193000	-0.159377
534.379000	-0.102952
534.565000	-0.185632
534.750000	-0.215039
534.936000	0.000360
535.121000	-0.082736
535.307000	-0.014115
535.492000	-0.032263
535.678000	-0.269489
535.864000	-0.175540
536.049000	0.110944
536.235000	-0.099260
536.420000	-0.147903
536.606000	-0.226393
536.791000	-0.310006
536.977000	-0.292037
537.163000	-0.041021
537.348000	-0.033691
537.534000	-0.056781
537.719000	-0.156252
537.905000	-0.294928
538.090000	-0.088174
538.276000	0.019706
538.462000	0.070166
538.647000	0.058773
538.833000	-0.128756
539.018000	-0.007471
539.204000	-0.097971
539.389000	-0.296718
539.575000	0.055904
539.761000	0.072122
539.946000	-0.239805
540.132000	-0.104092
540.317000	-0.140667
540.503000	-0.044028
540.688000	-0.109340
540.874000	0.024870
541.060000	0.155285
541.245000	0.086401
541.431000	-0.090017
541.616000	-0.020196
541.802000	-0.061465
541.987000	0.070742
542.173000	0.112540
542.359000	-0.082737
542.544000	-0.012040
542.730000	-0.132964
542.915000	-0.108215
543.101000	0.088211
543.286000	-0.137829
543.472000	-0.210352
543.658000	-0.041763
543.843000	-0.067240
544.029000	0.131942
544.214000	-0.067542
544.400000	-0.429100
544.585000	-0.216939
544.771000	-0.144957
544.957000	0.051852
545.142000	0.159114
545.328000	0.159533
545.513000	0.181371
545.699000	0.164846
545.884000	-0.012556
546.070000	-0.094862
546.261000	-0.016955
546.451000	-0.147834
546.642000	-0.322826
546.833000	-0.148345
547.023000	-0.288310
547.214000	-0.293869
547.405000	-0.140100
547.595000	0.211520
547.786000	0.141704
547.977000	-0.145631
548.167000	-0.398276
548.358000	-0.275440
548.549000	0.210355
548.740000	-0.021884
548.930000	-0.383774
549.121000	-0.272864
549.312000	-0.183955
549.502000	-0.355723
549.693000	-0.260833
549.884000	-0.134737
550.074000	-0.076424
550.265000	-0.248855
550.456000	-0.208564
550.646000	-0.136184
550.837000	-0.136232
551.028000	-0.223099
551.218000	-0.077084
551.409000	-0.256083
551.600000	-0.123336
551.790000	0.014270
551.981000	-0.312534
552.172000	-0.276225
552.362000	0.060384
552.553000	0.167246
552.744000	-0.064354
552.934000	-0.180254
553.125000	-0.259491
553.316000	-0.273591
553.506000	0.019084
553.697000	-0.055596
553.888000	-0.060162
554.079000	0.182494
554.269000	0.154645
554.460000	-0.200937
554.651000	-0.285540
554.841000	-0.492393
555.032000	-0.394424
555.223000	-0.230207
555.413000	-0.065148
555.604000	-0.140732
555.795000	-0.193012
555.985000	-0.004256
556.176000	-0.211937
556.367000	-0.518637
556.557000	-0.406728
556.748000	-0.284174
556.939000	-0.203210
557.129000	-0.311893
557.320000	-0.259994
557.511000	-0.297324
557.701000	-0.211904
557.892000	-0.122725
558.083000	0.166137
558.273000	0.057283
558.464000	-0.198372
558.655000	-0.283347
558.845000	-0.225917
559.036000	-0.065605
559.227000	-0.145949
559.418000	-0.051578
559.608000	0.024123
559.799000	-0.311325
559.990000	-0.394254
560.180000	-0.286549
560.371000	-0.503756
560.562000	-0.474756
560.752000	-0.206748
560.943000	-0.385887
561.134000	-0.483531
561.324000	-0.163798
561.515000	0.047315
561.706000	-0.154297
561.896000	-0.444102
562.087000	-0.256625
562.278000	-0.307924
562.468000	-0.490642
562.659000	-0.372690
562.850000	-0.022870
563.040000	0.051809
563.231000	-0.433945
563.422000	-0.292847
563.612000	-0.405031
563.803000	-0.264722
563.994000	-0.328273
564.185000	-0.424791
564.375000	-0.212410
564.566000	-0.212152
564.757000	-0.208108
564.947000	-0.434701
565.138000	-0.364023
565.329000	-0.298828
565.519000	-0.335490
565.710000	-0.280548
565.901000	-0.142446
566.091000	-0.091669
566.282000	-0.270699
566.473000	-0.251535
566.663000	-0.297006
566.854000	-0.368760
567.045000	-0.276874
567.235000	-0.185913
567.426000	-0.131318
567.617000	-0.148955
567.807000	-0.194314
567.998000	-0.180358
568.189000	-0.297812
568.379000	-0.238456
568.570000	-0.062570
568.761000	-0.102865
568.951000	-0.246215
569.142000	-0.277981
569.333000	-0.268995
569.524000	-0.335096
569.714000	-0.420063
569.905000	-0.544386
570.096000	-0.111178
570.286000	-0.012931
570.477000	0.076042
570.668000	-0.052868
570.858000	-0.043981
571.049000	-0.265170
571.240000	-0.305166
571.430000	-0.127834
571.621000	-0.246387
571.812000	-0.122472
572.002000	-0.140279
572.193000	-0.289320
572.384000	-0.262866
572.574000	-0.280645
572.765000	-0.201223
572.956000	-0.213704
573.146000	-0.069591
573.337000	-0.222335
573.528000	-0.182704
573.718000	-0.069150
573.909000	-0.012594
574.100000	-0.073133
574.290000	-0.331714
574.481000	-0.313756
574.672000	-0.279645
574.863000	-0.171238
575.053000	-0.260868
575.244000	-0.114954
575.435000	-0.247191
575.625000	-0.309856
575.816000	-0.326453
576.007000	-0.173628
576.197000	-0.105872
576.388000	-0.164755
576.579000	0.046997
576.769000	0.008881
576.960000	-0.316513
577.155000	-0.387279
577.350000	-0.113221
577.545000	-0.045792
577.740000	-0.280222
577.935000	0.071478
578.130000	0.033884
578.326000	-0.270667
578.521000	0.021260
578.716000	0.025311
578.911000	-0.256563
579.106000	-0.156498
579.301000	0.012762
579.496000	-0.155529
579.691000	-0.487511
579.886000	-0.343107
580.081000	-0.138420
580.276000	-0.134008
580.471000	-0.260232
580.666000	-0.410201
580.861000	-0.381608
581.057000	-0.288324
581.252000	-0.162297
581.447000	-0.259336
581.642000	-0.276033
581.837000	-0.316260
582.032000	-0.287023
582.227000	-0.023746
582.422000	-0.019685
582.617000	-0.283531
582.812000	-0.322689
583.007000	-0.294608
583.202000	-0.417423
583.397000	-0.047187
583.592000	0.115189
583.788000	-0.295537
583.983000	-0.311024
584.178000	-0.184588
584.373000	-0.313523
584.568000	-0.336361
584.763000	-0.368044
584.958000	-0.434646
585.153000	-0.395482
585.348000	-0.332587
585.543000	-0.152543
585.738000	-0.148554
585.933000	-0.411274
586.128000	-0.234763
586.324000	-0.203941
586.519000	-0.109553
586.714000	0.027901
586.909000	0.027951
587.104000	0.039894
587.299000	-0.102009
587.494000	-0.172668
587.689000	-0.236063
587.884000	-0.082614
588.079000	-0.165634
588.274000	-0.138217
588.469000	-0.098416
588.664000	-0.086672
588.859000	-0.059054
589.055000	-0.082929
589.250000	-0.150456
589.445000	-0.269876
589.640000	-0.270094
589.835000	-0.059411
590.030000	0.100052
590.225000	0.147914
590.420000	-0.107396
590.615000	-0.271328
590.810000	-0.235101
591.005000	-0.179953
591.200000	-0.268237
591.395000	-0.396481
591.591000	-0.331767
591.786000	-0.167544
591.981000	-0.268302
592.176000	-0.208568
592.371000	-0.168447
592.566000	-0.200463
592.761000	-0.015665
592.956000	-0.128350
593.151000	-0.039853
593.346000	-0.068220
593.541000	0.064924
593.736000	-0.019820
593.931000	-0.286910
594.126000	-0.153597
594.322000	-0.173853
594.517000	-0.279162
594.712000	-0.368461
594.907000	-0.357583
595.102000	-0.219557
595.297000	-0.105433
595.492000	-0.068942
595.687000	-0.175358
595.882000	-0.249061
596.077000	-0.183982
596.272000	0.004506
596.467000	-0.024179
596.662000	-0.147266
596.857000	-0.123143
597.053000	-0.102723
597.248000	-0.061442
597.443000	-0.102815
597.638000	-0.202400
597.833000	-0.389028
598.028000	-0.094755
598.223000	-0.057627
598.418000	-0.207247
598.613000	-0.257052
598.808000	-0.174132
599.003000	-0.145197
599.198000	-0.320337
599.393000	-0.341062
599.589000	-0.154084
599.784000	-0.338050
599.979000	-0.263223
600.174000	-0.041458
600.369000	-0.225952
600.564000	-0.154887
600.759000	0.084468
600.954000	0.159842
601.149000	-0.016412
601.344000	-0.328150
601.539000	-0.193578
601.734000	-0.227020
601.929000	-0.476718
602.124000	-0.405275
602.320000	-0.096944
602.515000	0.123210
602.710000	-0.008061
602.905000	-0.309254
603.100000	-0.308756
603.295000	-0.292351
603.490000	-0.122977
603.685000	-0.097462
603.880000	-0.148715
604.075000	-0.307154
604.270000	-0.277838
604.465000	-0.213461
604.660000	-0.444819
604.856000	-0.217753
605.051000	-0.016717
605.246000	-0.145186
605.441000	-0.436734
605.636000	-0.466869
605.831000	-0.227206
606.026000	-0.368788
606.221000	-0.425181
606.416000	-0.253541
606.611000	-0.072821
606.806000	-0.064144
607.001000	0.112504
607.196000	-0.193722
607.391000	-0.397057
607.587000	-0.112129
607.782000	-0.155627
607.977000	-0.358525
608.172000	-0.025596
608.367000	0.091536
608.562000	-0.090850
608.757000	-0.151658
608.952000	-0.291391
609.147000	0.209245
609.342000	0.091931
609.537000	-0.309474
609.732000	-0.213783
609.927000	-0.304987
610.122000	-0.279285
610.318000	-0.034562
610.513000	0.140508
610.708000	0.017966
610.903000	0.048694
611.098000	0.035610
611.293000	-0.034740
611.488000	0.009236
611.683000	-0.025994
611.878000	-0.083294
612.073000	0.070974
612.268000	0.022507
612.463000	0.071211
612.658000	0.000442
612.854000	0.004876
613.049000	-0.092679
613.244000	0.098056
613.439000	0.106971
613.634000	-0.257637
613.829000	-0.106378
614.024000	-0.302938
614.219000	-0.200294
614.414000	0.112042
614.609000	-0.164960
614.804000	-0.325983
614.999000	-0.316750
615.194000	-0.236948
615.389000	-0.201352
615.585000	-0.376935
615.780000	-0.215379
615.975000	-0.269874
616.170000	-0.238508
616.365000	0.000451
616.560000	0.099839
616.755000	0.027641
616.950000	-0.044880
617.145000	-0.017696
617.340000	-0.167592
617.535000	-0.417383
617.730000	-0.181461
617.925000	-0.254640
618.120000	-0.327628
618.316000	0.000457
618.511000	-0.072677
618.706000	-0.274763
618.901000	-0.224190
619.096000	-0.096185
619.291000	-0.220249
619.486000	-0.207109
619.681000	-0.576575
619.876000	-0.594784
620.071000	-0.345915
620.266000	-0.018055
620.461000	0.032929
620.656000	-0.073880
620.852000	-0.152678
621.047000	-0.222832
621.242000	-0.381502
621.437000	-0.046226
621.632000	0.023864
621.827000	-0.186870
622.022000	-0.397931
622.217000	-0.178120
622.412000	-0.051282
622.607000	-0.070170
622.802000	-0.348204
622.997000	-0.382515
623.192000	-0.117723
623.387000	-0.103562
623.583000	-0.359630
623.778000	0.019480
623.973000	0.048020
624.168000	-0.013821
624.363000	-0.028074
624.558000	-0.013823
624.753000	-0.300776
624.948000	-0.080964
625.143000	-0.119377
625.338000	-0.105171
625.533000	-0.196476
625.728000	-0.191879
625.923000	-0.013955
626.119000	-0.153862
626.314000	-0.438856
626.509000	-0.449890
626.704000	-0.358823
626.899000	-0.242499
627.094000	-0.315834
627.289000	-0.267783
627.484000	-0.312416
627.679000	-0.346950
627.874000	-0.308199
628.069000	0.088816
628.264000	-0.077950
628.459000	-0.250125
628.654000	-0.211004
628.850000	-0.320331
629.045000	-0.256451
629.240000	-0.207245
629.435000	-0.232278
629.630000	-0.153325
629.825000	-0.138435
630.020000	-0.069241
630.215000	-0.323115
630.410000	-0.294405
630.605000	-0.284641
630.800000	-0.134546
630.995000	-0.109783
631.190000	0.126095
631.385000	0.040717
631.581000	-0.090132
631.776000	-0.049882
631.971000	-0.307839
632.166000	-0.171491
632.361000	-0.166588
632.556000	-0.166821
632.751000	-0.152100
632.946000	-0.279365
633.141000	-0.249590
633.336000	-0.367559
633.531000	-0.353309
633.726000	-0.311901
633.921000	-0.364103
634.117000	-0.457552
634.312000	-0.607421
634.507000	-0.551344
634.702000	-0.423162
634.897000	-0.340978
635.092000	-0.264061
635.287000	-0.124240
635.482000	-0.207957
635.677000	-0.171528
635.872000	-0.062049
636.067000	0.000523
636.262000	-0.183107
636.457000	-0.485435
636.652000	-0.559424
636.848000	-0.539670
637.043000	-0.352318
637.238000	-0.384921
637.433000	-0.586010
637.628000	-0.453889
637.823000	-0.094721
638.018000	-0.010074
638.213000	-0.291724
638.408000	-0.430280
638.603000	-0.388288
638.798000	-0.340845
638.993000	-0.336156
639.188000	-0.336272
639.383000	-0.443571
639.579000	-0.010156
639.774000	-0.224583
639.969000	-0.417716
640.164000	-0.418671
640.359000	-0.456784
640.554000	-0.274209
640.749000	-0.215542
640.944000	-0.151045
641.139000	-0.204764
641.334000	-0.329619
641.529000	-0.715325
641.724000	-0.450139
641.919000	-0.266083
642.115000	-0.010363
642.310000	0.000545
642.505000	-0.043013
642.700000	-0.157638
642.895000	-0.327725
643.090000	-0.070556
643.285000	0.006017
643.480000	-0.059761
643.675000	-0.026888
643.870000	0.291940
644.065000	0.110723
644.260000	-0.291330
644.455000	-0.187042
644.650000	-0.320253
644.846000	-0.071353
645.041000	-0.397530
645.236000	-0.681160
645.431000	-0.571131
645.626000	-0.665086
645.821000	-0.459668
646.016000	-0.399840
646.211000	0.028415
646.406000	-0.099919
646.601000	-0.194622
646.796000	-0.317238
646.991000	-0.557067
647.186000	-0.396231
647.381000	-0.167207
647.577000	-0.133781
647.772000	-0.089006
647.967000	-0.089180
648.162000	-0.122931
648.357000	-0.218651
648.552000	0.006180
648.747000	0.068025
648.942000	-0.027565
649.137000	-0.140502
649.332000	-0.332788
649.527000	-0.247933
649.722000	-0.033310
649.917000	0.096826
650.113000	-0.203032
650.308000	-0.395879
650.503000	-0.282458
650.698000	-0.118646
650.893000	-0.175539
651.088000	-0.238184
651.283000	-0.170340
651.478000	-0.449496
651.673000	-0.238465
651.868000	-0.341590
652.063000	0.000571
652.258000	0.103503
652.453000	0.205886
652.648000	-0.096517
652.844000	-0.170884
653.039000	-0.188347
653.234000	-0.663718
653.429000	-0.716534
653.624000	-0.331918
653.819000	-0.097094
654.014000	-0.183308
654.209000	-0.339348
654.404000	-0.143310
654.599000	-0.316779
654.794000	-0.270151
654.989000	0.041018
655.184000	-0.115101
655.380000	-0.427091
655.575000	-0.357780
655.770000	-0.346794
655.965000	-0.288971
656.160000	-0.364446
656.355000	-0.115278
656.550000	-0.208603
656.745000	-0.232003
656.940000	-0.389316
657.135000	-0.325224
657.330000	-0.232231
657.525000	-0.511972
657.720000	-0.168622
657.915000	-0.075198
658.111000	-0.226846
658.306000	-0.011089
658.501000	-0.192451
658.696000	-0.391180
658.891000	-0.204163
659.086000	-0.245013
659.281000	-0.022843
659.476000	-0.345474
659.671000	-0.802903
659.866000	-0.556822
660.061000	-0.240141
660.256000	-0.034657
660.451000	-0.081723
660.646000	-0.370296
660.842000	-0.305891
661.037000	-0.364968
661.232000	-0.306446
661.427000	-0.182305
661.622000	-0.407248
661.817000	-0.489867
662.012000	-0.188974
662.207000	-0.331376
662.402000	-0.474841
662.597000	-0.308650
662.792000	-0.611385
662.987000	-0.622757
663.182000	-0.302815
663.378000	-0.350690
663.573000	-0.632076
663.768000	-0.618852
663.963000	-0.476423
664.158000	-0.368757
664.353000	0.221920
664.548000	0.293597
664.743000	-0.095183
664.938000	-0.328616
665.133000	-0.401073
665.328000	0.006604
665.523000	-0.035493
665.718000	-0.336320
665.913000	-0.324774
666.109000	-0.228877
666.304000	-0.089952
666.499000	-0.168326
666.694000	0.109512
666.889000	0.303090
667.084000	-0.169353
667.279000	-0.369443
667.474000	-0.302883
667.669000	-0.132896
667.864000	-0.284941
668.059000	-0.334054
668.254000	-0.249183
668.449000	-0.359253
668.644000	-0.280217
668.840000	-0.005487
669.035000	-0.322989
669.230000	-0.636533
669.425000	-0.238478
669.620000	-0.397843
669.815000	-0.534633
670.010000	-0.466526
670.205000	-0.226998
670.400000	-0.245016
670.595000	-0.122573
670.790000	-0.190582
670.985000	-0.221653
671.180000	-0.215717
671.376000	-0.562357
671.571000	-0.545002
671.766000	-0.390899
671.961000	-0.428350
672.156000	-0.428883
672.351000	-0.254650
672.546000	-0.267665
672.741000	-0.260855
672.936000	-0.254963
673.131000	0.388170
673.326000	0.094649
673.521000	-0.563992
673.716000	-0.545159
673.911000	-0.620883
674.107000	-0.074847
674.302000	0.164275
674.497000	-0.119093
674.692000	-0.415547
674.887000	-0.410637
675.082000	-0.449279
675.277000	-0.113588
675.472000	-0.215401
675.667000	-0.355733
675.862000	-0.445052
676.057000	-0.266955
676.252000	-0.318598
676.447000	-0.485788
676.643000	-0.133658
676.838000	0.051899
677.033000	-0.345839
677.228000	0.019940
677.423000	0.032825
677.618000	-0.425298
677.813000	-0.592747
678.008000	-0.322885
678.203000	-0.258452
678.398000	-0.421155
678.593000	-0.220062
678.788000	-0.149138
678.983000	-0.493700
679.178000	-0.305219
679.374000	-0.390389
679.569000	-0.306322
679.764000	-0.477550
679.959000	-0.616590
680.154000	-0.616715
680.349000	-0.862702
680.544000	-0.775984
680.739000	-0.572253
680.934000	-0.500319
681.129000	-0.422396
681.324000	-0.555286
681.519000	-0.318023
681.714000	-0.371267
681.909000	-0.476953
682.105000	-0.657906
682.300000	-0.273133
682.495000	0.034041
682.690000	-0.126437
682.885000	-0.253747
683.080000	-0.449150
683.275000	-0.449376
683.470000	-0.073306
683.665000	0.148956
683.860000	0.534059
684.055000	0.210098
684.250000	-0.357718
684.445000	-0.485425
684.641000	0.068394
684.836000	-0.128198
685.031000	-0.319270
685.226000	-0.435585
685.421000	0.000684
685.616000	-0.245406
685.811000	-0.369336
686.006000	-0.074683
686.201000	-0.225719
686.396000	-0.694903
686.591000	-0.613488
686.786000	-0.137546
686.981000	-0.109909
687.176000	-0.054741
687.372000	-0.249042
687.567000	0.000694
687.762000	0.035493
687.957000	-0.082813
688.152000	-0.299180
688.347000	-0.194923
688.542000	-0.391514
688.737000	-0.874393
688.932000	-0.910941
689.127000	-0.371485
689.322000	0.014789
689.517000	-0.302056
689.712000	-0.493902
689.908000	-0.423672
690.103000	-0.566228
690.298000	-0.346598
690.493000	-0.297760
690.688000	-0.618313
690.883000	-0.513344
691.078000	-0.077849
691.273000	0.000714
691.468000	-0.228302
691.663000	-0.214802
691.858000	-0.049578
692.053000	-0.035206
692.248000	0.036681
692.443000	-0.035241
692.639000	-0.244315
692.834000	-0.020952
693.029000	0.448830
693.224000	0.334771
693.419000	-0.326360
693.614000	-0.414365
693.809000	-0.640587
694.004000	-0.714810
694.199000	-0.444541
694.394000	-0.211672
694.589000	-0.534507
694.784000	-0.659821
694.979000	-0.278176
695.174000	-0.389256
695.370000	0.096231
695.565000	-0.021355
695.760000	-0.368293
695.955000	0.082123
696.150000	0.000740
696.345000	-0.393021
696.540000	-0.140664
696.740000	-0.348810
696.940000	-0.036471
697.140000	0.045636
697.340000	-0.306517
697.539000	0.015746
697.739000	-0.186782
697.939000	-0.194418
698.139000	-0.427562
698.339000	-0.783663
698.539000	-0.647527
698.739000	-0.535891
698.939000	-0.523050
699.138000	-0.493499
699.338000	0.122007
699.538000	0.289824
699.738000	-0.357811
699.938000	-0.533732
700.138000	-0.473448
700.338000	-0.574533
700.538000	-0.229923
700.737000	-0.122227
700.937000	-0.673704
701.137000	-0.705444
701.337000	-0.246143
701.537000	-0.262150
701.737000	-0.524413
701.937000	-0.494638
702.137000	-0.595298
702.337000	-0.743626
702.536000	-0.752914
702.736000	-0.598233
702.936000	-0.505626
703.136000	-0.132054
703.336000	-0.147649
703.536000	-0.469244
703.736000	-0.886834
703.936000	-0.775255
704.135000	-0.712188
704.335000	-0.344913
704.535000	-0.527054
704.735000	-0.787842
704.935000	-0.392692
705.135000	-0.362972
705.335000	-0.570477
705.535000	-0.221513
705.735000	-0.142093
705.934000	-0.205493
706.134000	-0.380171
706.334000	-0.452673
706.534000	-0.477225
706.734000	-0.493551
706.934000	-0.605144
707.134000	-0.621252
707.334000	-0.422774
707.533000	-0.527643
707.733000	-0.583267
707.933000	-0.527788
708.133000	-0.359165
708.333000	-0.176094
708.533000	-0.442258
708.733000	-0.111957
708.933000	-0.241042
709.132000	-0.394979
709.332000	-0.387556
709.532000	-0.469500
709.732000	-0.274488
709.932000	-0.802708
710.132000	-0.850873
710.332000	-0.923451
710.532000	-0.388711
710.732000	-0.259580
710.931000	-0.422639
711.131000	-0.489693
711.331000	-0.383710
711.531000	-0.408948
711.731000	-0.377113
711.931000	-0.270754
712.131000	-0.319748
712.331000	-0.171847
712.530000	-0.196276
712.730000	-0.575557
712.930000	-0.616520
713.130000	-0.536080
713.330000	-0.569824
713.530000	-0.364402
713.730000	0.233358
713.930000	-0.057283
714.129000	-0.587990
714.329000	-0.847793
714.529000	-0.522921
714.729000	-0.040820
714.929000	-0.249094
715.129000	-0.449780
715.329000	-0.283148
715.529000	-0.166895
715.729000	0.419382
715.928000	0.101542
716.128000	-0.318251
716.328000	-0.336040
716.528000	-0.403877
716.728000	-0.446143
716.928000	-0.572705
717.128000	-0.354197
717.328000	-0.404851
717.527000	-0.422266
717.727000	-0.363385
717.927000	-0.424038
718.127000	-0.534814
718.327000	-0.944648
718.527000	-0.901606
718.727000	-0.391142
718.927000	-0.323555
719.127000	-0.753426
719.326000	-0.673539
719.526000	-0.007697
719.726000	-0.067705
719.926000	-0.764742
720.126000	-0.868110
720.326000	-0.437861
720.526000	-0.610022
720.726000	-0.508306
720.925000	-0.344556
721.125000	-0.900550
721.325000	-0.440639
721.525000	-0.354928
721.725000	-0.632691
721.925000	-0.634474
722.125000	-0.564893
722.325000	-0.208004
722.524000	-0.453064
722.724000	-0.785762
722.924000	-0.890592
723.124000	-0.655429
723.324000	-0.156799
723.524000	-0.113103
723.724000	-0.745048
723.924000	-0.465894
724.124000	-0.404384
724.323000	-0.175549
724.523000	-0.201837
724.723000	0.089211
724.923000	0.053896
725.123000	-0.061029
725.323000	-0.132021
725.523000	-0.256558
725.723000	-0.655354
725.922000	-0.629458
726.122000	-0.381300
726.322000	-0.498185
726.522000	-0.614643
726.722000	0.170191
726.922000	-0.123772
727.122000	-0.329718
727.322000	0.000895
727.521000	-0.196417
727.721000	-0.475148
727.921000	-0.403311
728.121000	-0.519953
728.321000	-0.835796
728.521000	-0.576363
728.721000	-0.360500
728.921000	-0.170703
729.121000	0.462291
729.320000	-0.198344
729.520000	-0.533495
729.720000	-0.770262
729.920000	-0.673656
730.120000	-0.499186
730.320000	-0.427490
730.520000	-0.610039
730.720000	-0.392423
730.919000	-0.419787
731.119000	-0.164008
731.319000	-0.687387
731.519000	-0.779054
731.719000	-0.311307
731.919000	-0.541174
732.119000	-1.039046
732.319000	-0.903826
732.519000	-0.368559
732.718000	-0.692764
732.918000	-0.822959
733.118000	-0.481644
733.318000	-0.120059
733.518000	-0.501683
733.718000	-1.126862
733.918000	-0.987630
734.118000	-0.679633
734.317000	-0.467103
734.517000	-0.700151
734.717000	-0.590810
734.917000	-0.112028
735.117000	-0.036754
735.317000	-0.272288
735.517000	0.123761
735.717000	0.237830
735.916000	-0.453935
736.116000	-0.661848
736.316000	-0.503974
736.516000	-0.494293
736.716000	-0.418313
736.916000	-0.764454
737.116000	-0.595120
737.316000	-0.027877
737.516000	-0.066459
737.715000	-0.085776
737.915000	-0.519714
738.115000	-0.734165
738.315000	-0.550789
738.515000	-0.841025
738.715000	-0.602591
738.915000	-0.193984
739.115000	-0.526285
739.314000	-0.447768
739.514000	0.118463
739.714000	0.138392
739.914000	-0.274640
740.114000	-0.531571
740.314000	-0.186533
740.514000	0.257989
740.714000	-0.316387
740.913000	-0.883005
741.113000	-0.844594
741.313000	-0.227812
741.513000	-0.328214
741.713000	-0.289085
741.913000	-0.320601
742.113000	-0.621161
742.313000	-1.125304
742.513000	-0.582805
742.712000	-0.503906
742.912000	-0.625250
743.112000	-0.566553
743.312000	-1.156309
743.512000	-0.751924
743.712000	-0.591016
743.912000	-1.021378
744.112000	-1.185721
744.311000	-1.158151
744.511000	-0.851943
744.711000	-0.421367
744.911000	-0.752118
745.111000	-0.598103
745.311000	-0.350859
745.511000	-0.589717
745.711000	-0.735508
745.911000	-0.445617
746.110000	-0.819953
746.310000	-1.065225
746.510000	-0.833442
746.710000	-0.093262
746.910000	0.074466
747.110000	-0.692288
747.310000	-1.082867
747.510000	-0.696139
747.709000	-0.316107
747.909000	-0.285120
748.109000	-0.084017
748.309000	-0.350608
748.509000	-0.735405
748.709000	-0.941678
748.909000	-0.684353
749.109000	-0.784150
749.308000	-0.171202
749.508000	-0.312321
749.708000	-0.625932
749.908000	-0.150300
750.108000	0.022775
750.308000	-0.815134
750.508000	-0.228036
750.708000	-0.664690
750.908000	-0.950516
751.107000	-0.174451
751.307000	0.187395
751.507000	-0.274029
751.707000	-0.372602
751.907000	-0.307408
752.107000	-0.253171
752.307000	-0.586804
752.507000	-0.566097
752.706000	-0.699083
752.906000	0.190456
753.106000	-0.512998
753.306000	-1.131163
753.506000	-0.234943
753.706000	-0.528269
753.906000	-0.291776
754.106000	-0.122957
754.305000	-0.360312
754.505000	-0.214035
754.705000	-0.329070
754.905000	-0.534817
755.105000	-0.375726
755.305000	-1.073857
755.505000	-0.859037
755.705000	-0.182587
755.905000	-0.413495
756.104000	-1.117056
756.304000	-1.501500
756.504000	-1.632006
756.704000	-0.324837
756.904000	-0.301379
757.104000	-0.486871
757.304000	-0.475706
757.504000	0.083085
757.703000	-0.384927
757.903000	-0.092652
758.103000	-0.104594
758.303000	-0.387732
758.503000	-0.707795
758.703000	-0.910793
758.903000	-0.840104
759.103000	-0.438443
759.303000	-0.715143
759.502000	-0.693448
759.702000	-0.190356
759.902000	-0.504191
760.102000	-0.445088
760.302000	-0.228740
760.502000	-0.179791
760.702000	-0.300888
760.902000	-0.604262
761.101000	-0.848885
761.301000	-1.178843
761.501000	-0.899324
761.701000	-1.120623
761.901000	-0.844537
762.101000	-0.391849
762.301000	-0.453273
762.501000	-0.810169
762.700000	-0.888003
762.900000	-0.851256
763.100000	-0.654321
763.300000	-0.433442
763.500000	-0.657645
763.703000	-0.506764
763.905000	-0.769876
764.108000	-0.073642
764.311000	-0.323318
764.513000	-0.598674
764.716000	-0.613647
764.919000	-0.576772
765.121000	-0.878692
765.324000	-1.133503
765.527000	-1.114199
765.729000	-0.733904
765.932000	0.229800
766.135000	0.026654
766.337000	-0.582880
766.540000	-0.916050
766.743000	-0.383776
766.945000	-0.959462
767.148000	-1.423835
767.351000	-1.269590
767.553000	-0.243529
767.756000	-0.785541
767.958000	-1.249772
768.161000	-0.747416
768.364000	-1.099988
768.566000	-1.414027
768.769000	-0.650095
768.972000	-0.376456
769.174000	-1.043960
769.377000	-1.662800
769.580000	-1.443114
769.782000	-0.549717
769.985000	-0.998969
770.188000	-1.806113
770.390000	-0.940007
770.593000	0.544233
770.796000	0.345865
770.998000	-0.369934
771.201000	-0.887979
771.404000	-0.463889
771.606000	-0.719280
771.809000	-0.492259
772.012000	-0.666967
772.214000	-1.764372
772.417000	-1.630782
772.620000	-0.305410
772.822000	-0.670657
773.025000	-0.993398
773.228000	-0.820175
773.430000	-0.929462
773.633000	-0.742006
773.836000	-0.688883
774.038000	-0.514879
774.241000	-0.311017
774.444000	-0.543568
774.646000	0.151096
774.849000	-0.216923
775.052000	-0.421496
775.254000	-0.258320
775.457000	-0.804297
775.659000	-0.655656
775.862000	-0.902254
776.065000	-0.821457
776.267000	-0.369535
776.470000	0.304952
776.673000	-0.371443
776.875000	0.098326
777.078000	0.098170
777.281000	-0.928526
777.483000	-0.583395
777.686000	-0.305496
777.889000	-0.138249
778.091000	0.225604
778.294000	-0.978091
778.497000	-0.923305
778.699000	-0.671649
778.902000	-0.786501
779.105000	-0.533281
779.307000	0.226863
779.510000	-1.029518
779.713000	-0.579851
779.915000	-0.823575
780.118000	0.271947
780.321000	0.585902
780.523000	-0.527251
780.726000	-1.199316
780.929000	-1.184595
781.131000	-1.229362
781.334000	-1.564316
781.537000	-1.827980
781.739000	-0.777133
781.942000	-1.051925
782.145000	-1.318443
782.347000	-1.116086
782.550000	-0.681119
782.753000	-0.799922
782.955000	-1.108909
783.158000	-1.049849
783.361000	-0.671864
783.563000	-0.891574
783.766000	-0.937919
783.968000	1.471517
784.171000	0.961391
784.374000	-0.692677
784.576000	-0.692472
784.779000	-0.308100
784.982000	0.134922
785.184000	-0.728952
785.387000	-0.192594
785.590000	0.553598
785.792000	0.241152
785.995000	0.106509
786.198000	-0.389167
786.400000	-0.647325
786.603000	-0.815370
786.806000	-0.978740
787.008000	-0.345315
787.211000	-0.270893
787.414000	-1.213317
787.616000	-0.730132
787.819000	-0.670738
788.022000	-1.574307
788.224000	-0.657977
788.427000	-1.502386
788.630000	-0.984059
788.832000	-0.629177
789.035000	-1.196451
789.238000	-1.602981
789.440000	-1.301970
789.643000	-0.091367
789.846000	-0.976842
790.048000	-0.667855
790.251000	-0.325443
790.454000	-0.402493
790.656000	0.204329
790.859000	-0.623786
791.062000	-1.266997
791.264000	-0.577424
791.467000	-1.554170
791.669000	-2.122991
791.872000	-0.805041
792.075000	-1.357038
792.277000	-1.072850
792.480000	-0.475001
792.683000	-0.980677
792.885000	-1.378082
793.088000	-1.367220
793.291000	-1.657852
793.493000	-1.660874
793.696000	-0.414182
793.899000	-0.206860
794.101000	-0.689526
794.304000	-0.626647
794.507000	-0.159717
794.709000	-0.208694
794.912000	-1.151625
795.115000	-1.658340
795.317000	-1.088444
795.520000	-0.701023
795.723000	-0.867916
795.925000	-1.427830
796.128000	-1.639322
796.331000	-1.331903
796.533000	-1.764143
796.736000	-0.694939
796.939000	-0.347470
797.141000	-0.781786
797.344000	-0.332034
797.547000	-0.131869
797.749000	-0.432953
797.952000	-0.989589
798.155000	-1.406540
798.357000	-1.718588
798.560000	-1.643486
798.763000	-0.726862
798.965000	-0.590757
799.168000	-0.677363
799.371000	-0.610168
799.573000	-0.748628
799.776000	-1.808621
799.978000	-1.694936
800.181000	-0.753793
800.384000	0.844384
800.586000	0.260288
800.789000	-1.342233
800.992000	-1.444636
801.194000	-1.689418
801.397000	-1.693785
801.600000	-1.265571
801.802000	-0.085193
802.005000	-0.434296
802.208000	-1.782378
802.410000	-0.802169
802.613000	-0.717942
802.816000	-1.052686
803.018000	-1.496010
803.221000	-1.004498
803.424000	0.550173
803.626000	-0.104536
803.829000	-1.046912
804.032000	-0.408109
804.234000	0.554074
804.437000	-0.534991
804.640000	-0.659686
804.842000	-0.446172
805.045000	-0.844561
805.248000	-0.954390
805.450000	-1.043578
805.653000	-0.868813
805.856000	-1.266466
806.058000	-0.107226
806.261000	-1.255133
806.464000	-0.745810
806.666000	-0.034701
806.869000	-0.733397
807.072000	-2.001463
807.274000	-2.039559
807.477000	-1.233715
807.679000	-1.216285
807.882000	-1.755550
808.085000	-1.413536
808.287000	-0.184557
808.490000	-1.286904
808.693000	-1.044828
808.895000	-0.802746
809.098000	-0.971625
809.301000	-0.542849
809.503000	-0.752721
809.706000	-0.111912
809.909000	0.324302
810.111000	0.248790
810.314000	-0.359761
810.517000	-1.041622
810.719000	-1.581732
810.922000	-1.166893
811.125000	0.135749
811.327000	0.098068
811.530000	-0.364867
811.735000	-0.884770
811.940000	-0.886749
812.146000	-1.123285
812.351000	-0.541314
812.556000	-0.543052
812.761000	-1.286764
812.967000	-0.213752
813.172000	-0.233116
813.377000	-0.666145
813.582000	-0.372966
813.788000	-0.594111
813.993000	-1.444883
814.198000	-0.890793
814.403000	-1.366181
814.609000	-0.277350
814.814000	-0.358773
815.019000	0.142047
815.224000	-0.257952
815.429000	-1.084960
815.635000	-0.684520
815.840000	-0.382049
816.045000	-0.586854
816.250000	-0.486105
816.456000	-1.464883
816.661000	-2.065156
816.866000	-1.454325
817.071000	-1.719902
817.277000	-2.824469
817.482000	-1.713317
817.687000	-0.989333
817.892000	-1.140331
818.097000	-0.477132
818.303000	0.064589
818.508000	0.688300
818.713000	7.242630
818.918000	3.677161
819.124000	0.085833
819.329000	-1.028059
819.534000	-1.579367
819.739000	-1.221001
819.945000	-1.247948
820.150000	-1.041961
820.355000	-0.830492
820.560000	-0.487586
820.766000	-0.958458
820.971000	-1.200152
821.176000	-2.042416
821.381000	-2.208201
821.586000	-1.487435
821.792000	-0.214472
821.997000	-0.821825
822.202000	-1.061392
822.407000	-1.543577
822.613000	-1.852254
822.818000	-0.960262
823.023000	-0.523423
823.228000	-0.659055
823.434000	0.024227
823.639000	0.531929
823.844000	-0.683814
824.049000	-0.374272
824.255000	-0.108868
824.460000	-0.779025
824.665000	-1.294221
824.870000	-0.760325
825.075000	-0.963397
825.281000	-0.605908
825.486000	0.749981
825.691000	-1.654269
825.896000	-3.112657
826.102000	-0.953261
826.307000	-0.567876
826.512000	-1.027830
826.717000	-1.375432
826.923000	-1.609637
827.128000	-0.805429
827.333000	-1.461001
827.538000	-0.697099
827.744000	0.212676
827.949000	-1.047369
828.154000	-0.934506
828.359000	-0.138116
828.564000	-1.009305
828.770000	-1.438715
828.975000	0.239146
829.180000	-0.592565
829.385000	-2.067242
829.591000	-1.645938
829.796000	-0.933917
830.001000	-0.622999
830.206000	-1.614295
830.412000	-1.395699
830.617000	-1.229926
830.822000	-0.361833
831.027000	-0.845629
831.232000	-1.387055
831.438000	-0.979515
831.643000	-0.660318
831.848000	-1.031047
832.053000	-1.084385
832.259000	-1.085728
832.464000	-2.824865
832.669000	-1.839438
832.874000	-1.364290
833.080000	-1.894488
833.285000	-0.447515
833.490000	-0.597944
833.695000	-1.684766
833.901000	-1.237260
834.106000	-1.872658
834.311000	-1.296608
834.516000	-0.558728
834.721000	-1.434206
834.927000	-0.486915
835.132000	-0.926692
835.337000	0.545469
835.542000	-0.751554
835.748000	-2.696714
835.953000	-0.648512
836.158000	-0.702320
836.363000	-0.705139
836.569000	-0.789854
836.774000	-1.558669
836.979000	-1.799020
837.184000	-1.962744
837.390000	-1.407560
837.595000	-1.277934
837.800000	-1.334349
838.005000	-0.992767
838.210000	-1.020113
838.416000	-1.321288
838.621000	-1.270657
838.826000	-1.296957
839.031000	-1.167539
839.237000	-1.724640
839.442000	-2.331574
839.647000	-2.410357
839.852000	-1.759796
840.058000	-1.738515
840.263000	-1.580404
840.468000	-1.887828
840.673000	-1.026036
840.878000	-0.776515
841.084000	-2.069050
841.289000	-1.681298
841.494000	1.359503
841.699000	1.675936
841.905000	0.742081
842.110000	0.488818
842.315000	-1.916465
842.520000	-1.485271
842.726000	-1.431449
842.931000	-2.060876
843.136000	-1.123059
843.341000	-2.498463
843.547000	-1.564510
843.752000	-1.508183
843.957000	-2.458051
844.162000	-1.939861
844.367000	-1.619583
844.573000	-1.122886
844.778000	-0.853976
844.983000	-0.382122
845.188000	-0.473402
845.394000	-2.400409
845.599000	-2.034890
845.804000	-2.041831
846.009000	-1.238411
846.215000	-2.247988
846.420000	-2.193051
846.625000	-0.700757
846.830000	1.009242
847.036000	-1.038643
847.241000	-1.873794
847.446000	0.064606
847.651000	-0.213169
847.856000	-1.929668
848.062000	-2.122990
848.267000	-0.059424
848.472000	-1.566069
848.677000	-2.703427
848.883000	-0.185293
849.088000	0.923158
849.293000	-0.601941
849.498000	-1.300952
849.704000	0.035087
849.909000	-0.828280
850.114000	-2.491314
850.319000	-1.535313
850.524000	-0.738038
850.730000	0.230122
850.935000	-0.615039
851.140000	-0.453523
851.345000	0.362114
851.551000	0.559530
851.756000	0.595438
851.961000	-1.217133
852.166000	-1.679790
852.372000	-1.254010
852.577000	-0.963211
852.782000	-1.172008
852.987000	-0.164083
853.193000	-0.131067
853.398000	-0.265575
853.603000	-1.613853
853.808000	-2.929383
854.013000	-1.489274
854.219000	-0.302474
854.424000	1.265768
854.629000	1.268562
854.834000	-1.098040
855.040000	-1.555418
855.245000	-0.721595
855.450000	-2.750142
855.655000	-3.869958
855.861000	-3.302876
856.066000	-2.171847
856.271000	-3.299916
856.476000	-0.560696
856.682000	-0.704453
856.887000	-4.523632
857.092000	-3.044517
857.297000	0.750848
857.502000	-0.032090
857.708000	-1.068169
857.913000	-0.211142
858.118000	-1.296586
858.323000	-1.735068
858.529000	-1.696219
858.734000	-1.592038
858.939000	-1.087523
859.144000	-2.076571
859.350000	-3.135371
859.555000	-3.547933
859.760000	-0.916669
859.965000	0.518927
860.171000	-1.068215
860.376000	-0.293222
860.581000	-2.415323
860.786000	-5.751611
860.991000	-4.387884
861.197000	-2.472072
861.402000	-0.974359
861.607000	-1.840795
861.812000	-2.604838
862.018000	-2.994341
862.223000	-2.011393
862.428000	-1.105330
862.633000	-0.570134
862.839000	-0.535206
863.044000	-1.393850
863.249000	-2.203200
863.454000	-0.151160
863.659000	-1.628932
863.865000	-2.730989
864.070000	-2.307257
864.275000	-3.056638
864.480000	-2.676448
864.686000	-3.952356
864.891000	-3.599284
865.096000	-1.109802
865.301000	-0.793059
865.507000	-0.877898
865.712000	-0.076160
865.917000	0.044376
866.122000	-0.562274
866.328000	-3.860606
866.533000	-3.613997
866.738000	-0.525085
866.943000	-1.627523
867.148000	-0.365072
867.354000	-2.310978
867.559000	-2.973298
867.764000	-1.076284
867.969000	-0.747613
868.175000	-2.701471
868.380000	-3.713454
868.585000	-4.345674
868.790000	-1.087021
868.996000	-0.798474
869.201000	-3.172613
869.406000	-5.100627
869.611000	-4.085424
869.817000	-3.187259
870.022000	1.541999
870.227000	-0.638011
870.432000	-2.534487
870.637000	-1.460396
870.843000	-2.335479
871.048000	-2.249905
871.253000	-0.299293
871.458000	-1.565097
871.664000	-3.724832
871.869000	-3.879237
872.074000	-3.049882
872.279000	-2.384752
872.485000	-2.311062
872.690000	-2.902470
872.895000	-2.240861
873.100000	-3.322553
873.306000	-3.562436
873.511000	-2.086883
873.716000	-0.268837
873.921000	-1.995105
874.126000	-3.045216
874.332000	-2.891351
874.537000	-1.612199
874.742000	-1.606995
874.947000	-1.290125
875.153000	0.658115
875.358000	-0.229243
875.563000	-0.415994
875.768000	-3.280899
875.974000	-4.708279
876.179000	-1.459154
876.384000	-1.181538
876.589000	-3.634188
876.794000	-3.302774
877.000000	-4.073102
877.205000	-4.403342
877.410000	-2.161953
877.615000	-3.504229
877.821000	-4.505213
878.026000	-3.051854
878.231000	-4.021325
878.436000	-4.173845
878.642000	-2.930637
878.847000	-2.005507
879.052000	-1.023358
879.257000	-3.551155
879.463000	-4.149558
879.668000	-2.864510
879.873000	0.054637
880.078000	-2.733580
880.283000	-4.793644
880.489000	-5.043464
880.694000	-4.764166
880.899000	-2.068749
881.104000	-1.061428
881.310000	-0.147276
881.515000	-1.415267
881.720000	1.327144
881.925000	2.561872
882.131000	3.738216
882.336000	0.623535
882.541000	-3.786213
882.746000	-3.491730
882.952000	-4.478190
883.157000	-3.966612
883.362000	-3.606317
883.567000	-5.093105
883.772000	-4.981248
883.978000	-2.703121
884.183000	-2.017310
884.388000	-2.649828
884.593000	-4.935239
884.799000	-0.901815
885.004000	-0.211051
885.209000	-1.997722
885.414000	-1.289483
885.620000	-3.798613
885.825000	-1.855484
886.030000	-2.889770
886.235000	-3.512106
886.440000	-2.488368
886.646000	-4.665203
886.851000	-5.303390
887.056000	-1.227780
887.261000	-0.836008
887.467000	-2.754845
887.672000	-1.469053
887.877000	-3.357859
888.082000	-5.607870
888.288000	-6.785932
888.493000	-8.369777
888.698000	-5.881630
888.903000	-3.408416
889.109000	-4.902806
889.314000	-0.340907
889.519000	-1.087906
889.724000	0.063408
889.929000	-1.840989
890.135000	-2.366740
890.340000	-2.734193
890.545000	-4.248014
890.750000	-4.899798
890.956000	-3.099669
891.161000	-1.573925
891.366000	-3.514668
891.571000	-2.111398
891.777000	-1.877895
891.982000	-0.408175
892.187000	-2.073384
892.392000	-1.712844
892.598000	0.005961
892.803000	-0.835852
893.008000	-4.499516
893.213000	-4.427716
893.418000	-3.493528
893.624000	-4.056815
893.829000	-6.849218
894.034000	-4.067223
894.239000	-1.032499
894.445000	-3.955858
894.650000	-4.710922
894.855000	-4.962144
895.060000	-4.586456
895.266000	-5.293644
895.471000	-6.468347
895.676000	-2.592660
895.881000	-1.554008
896.087000	-2.740326
896.292000	-3.386433
896.497000	0.700816
896.702000	-1.628683
896.907000	-3.835516
897.113000	1.397012
897.318000	1.206762
897.523000	0.006335
897.728000	-3.491182
897.934000	-3.416544
898.139000	-3.298843
898.344000	-1.276760
898.549000	-1.929275
898.755000	-3.288934
898.960000	-3.894375
899.165000	-6.237703
899.370000	-1.757068
899.575000	0.203004
899.781000	-3.868031
899.986000	-3.868232
900.191000	-2.901530
900.396000	-3.765119
900.602000	-2.988906
900.807000	-2.942991
901.012000	-2.422358
901.217000	-0.196164
901.423000	-3.026743
901.628000	-5.742334
901.833000	-2.440242
902.038000	-2.048200
902.244000	-5.731516
902.449000	-4.047368
902.654000	-4.576107
902.859000	-3.179841
903.064000	-1.385233
903.270000	-0.551894
903.475000	-4.677218
903.680000	-6.697871
903.885000	-5.061687
904.091000	-5.370777
904.296000	-7.310275
904.501000	-4.914253
904.706000	-5.001620
904.912000	-1.656275
905.117000	-2.680027
905.322000	-4.605480
905.527000	-4.438363
905.733000	-4.587133
905.938000	-4.028771
906.143000	-4.522777
906.348000	-5.641284
906.553000	-1.040531
906.759000	-0.067330
906.964000	-1.571323
907.169000	-4.302006
907.374000	-6.480081
907.580000	-4.011896
907.785000	-4.775346
907.990000	26.500371
908.195000	16.961257
908.401000	-2.955347
908.606000	-10.420156
908.811000	-10.879769
909.016000	-3.746947
909.221000	-3.052562
909.427000	-2.675348
909.632000	-5.405638
909.837000	-5.282976
910.042000	-7.227850
910.248000	-9.122088
910.453000	-3.726483
910.658000	-5.636426
910.863000	-6.366036
911.069000	-6.307216
911.274000	-2.387739
911.479000	-0.989237
911.684000	-7.798917
911.890000	-6.684269
912.095000	-7.027554
912.300000	-7.921252
912.506000	-5.477741
912.711000	-4.776909
912.917000	-2.642903
913.123000	-1.532370
913.328000	-2.575472
913.534000	-3.294508
913.740000	7.011639
913.946000	3.175861
914.151000	-4.093471
914.357000	-6.250208
914.563000	-2.984940
914.768000	-6.913059
914.974000	-8.331452
915.180000	-7.778613
915.385000	-7.446112
915.591000	-10.355685
915.797000	-6.248487
916.002000	-0.176004
916.208000	-3.310592
916.414000	-6.703223
916.620000	-7.184705
916.825000	-1.771343
917.031000	-3.179591
917.237000	-10.630969
917.442000	-5.510891
917.648000	-6.513406
917.854000	-7.467737
918.059000	-2.403407
918.265000	-0.568769
918.471000	-2.315663
918.676000	-6.257380
918.882000	-10.734364
919.088000	-9.371498
919.294000	-12.827129
919.499000	-7.805596
919.705000	-2.710061
919.911000	-6.034408
920.116000	-1.516071
920.322000	-8.266534
920.528000	-7.488933
920.733000	-8.947588
920.939000	-11.076335
921.145000	-8.233653
921.350000	-5.908276
921.556000	-4.997804
921.762000	-5.623030
921.968000	-7.557854
922.173000	-8.681627
922.379000	-10.384046
922.585000	-6.095415
922.790000	-8.509379
922.996000	-7.805057
923.202000	-6.339564
923.407000	-6.491360
923.613000	-4.928392
923.819000	-3.595363
924.024000	-4.469268
924.230000	-3.144845
924.436000	-6.794550
924.642000	4.145812
924.847000	2.100216
925.053000	-6.131778
925.259000	-10.086524
925.464000	-5.011924
925.670000	-8.159668
925.876000	-11.203029
926.081000	-8.652055
926.287000	-2.010087
926.493000	-2.166580
926.698000	-6.171109
926.904000	-3.120855
927.110000	-4.230542
927.316000	-3.396275
927.521000	1.242007
927.727000	-5.105139
927.933000	-6.756982
928.138000	-6.031091
928.344000	-9.412764
928.550000	-7.768400
928.755000	-0.890271
928.961000	-6.425564
929.167000	-8.796704
929.372000	-0.247129
929.578000	-1.430793
929.784000	-7.126993
929.990000	-10.347814
930.195000	-6.379615
930.401000	-4.548614
930.607000	-1.869562
930.812000	-3.517619
931.018000	-8.714594
931.224000	-15.050595
931.429000	-8.176997
931.635000	-12.592208
931.841000	-13.834473
932.046000	-7.703166
932.252000	0.578420
932.458000	6.847193
932.664000	-0.705383
932.869000	-6.038049
933.075000	-9.416183
933.281000	-9.403043
933.486000	-2.668788
933.692000	-7.323575
933.898000	-12.622903
934.103000	-4.062880
934.309000	-5.690337
934.515000	-4.373182
934.720000	-6.275609
934.926000	0.174463
935.132000	-0.142857
935.338000	-5.118355
935.543000	-11.213603
935.749000	-12.468731
935.955000	-16.486924
936.160000	-11.836491
936.366000	-4.519800
936.572000	-5.122874
936.777000	-1.556079
936.983000	4.749300
937.189000	-4.044716
937.394000	-10.364810
937.600000	-3.039352
937.806000	3.278874
938.012000	-6.238066
938.217000	4.467762
938.423000	-0.914863
938.629000	-11.558819
938.834000	-18.976357
939.040000	-14.775698
939.246000	-9.946092
939.451000	-9.101201
939.657000	-6.447545
939.863000	-12.302307
940.068000	-2.588682
940.274000	-6.445241
940.480000	-5.302586
940.686000	-5.607919
940.891000	-7.007788
941.097000	22.718860
941.303000	6.138043
941.508000	-10.162619
941.714000	-8.084720
941.920000	-17.267397
942.125000	-8.449527
942.331000	-5.215525
942.537000	4.819075
942.742000	3.326124
942.948000	-7.908948
943.154000	-15.820615
943.360000	-28.912060
943.565000	-9.864157
943.771000	1.837353
943.977000	3.401784
944.182000	-13.921178
944.388000	-14.207483
944.594000	-3.868320
944.799000	1.872854
945.005000	-6.342932
945.211000	2.303000
945.416000	-3.912988
945.622000	-15.761316
945.828000	-7.250064
946.034000	1.216177
946.239000	-2.853588
946.445000	-10.836867
946.651000	-18.775533
946.856000	-15.760796
947.062000	3.097164
947.268000	2.642715
947.473000	-15.514327
947.679000	-22.823944
947.885000	-9.143446
948.090000	-0.218460
948.296000	12.119816
948.502000	-2.651806
948.708000	-12.491323
948.913000	-16.116225
949.119000	-8.166862
949.325000	-14.878585
949.530000	-24.581908
949.736000	-29.698918
949.942000	-19.713531
950.147000	-14.886543
950.353000	-14.020921
950.559000	-10.084866
950.764000	10.477624
950.970000	6.289347
951.176000	-9.099902
951.382000	-16.344028
951.587000	-8.052527
951.793000	4.485710
951.999000	5.456305
952.204000	-13.029920
952.410000	-29.994206
952.616000	-14.610732
952.821000	-4.884622
953.027000	-14.213324
953.233000	-22.902309
953.438000	-22.801865
953.644000	-2.361480
953.850000	0.292063
954.056000	-8.827774
954.261000	-11.312536
954.467000	-1.326046
954.673000	10.559165
954.878000	-3.766668
955.084000	-5.127913
955.290000	-20.676075
955.495000	-23.741800
955.701000	-18.773807
955.907000	-2.469484
956.112000	-1.914740
956.318000	9.103526
956.524000	5.591809
956.730000	-9.579300
956.935000	-13.859730
957.141000	-17.143613
957.347000	-5.970067
957.552000	-11.100133
957.758000	-28.240545
957.964000	-32.854166
958.169000	3.217288
958.375000	-2.006131
958.581000	-21.298739
958.786000	-26.482557
958.992000	-27.992506
959.198000	-11.917596
959.404000	-10.684784
959.609000	-12.049731
959.815000	-16.794379
960.021000	0.636454
960.226000	-3.332743
960.432000	-28.821089
960.638000	-21.852241
960.843000	-12.056044
961.049000	-18.634026
961.255000	-6.867004
961.460000	-13.864470
961.666000	-39.757668
961.872000	-23.129408
962.078000	-20.126131
962.283000	-28.547685
962.489000	-25.447665
962.695000	-21.234916
962.900000	-15.873867
963.106000	-9.811125
963.312000	-13.262554
963.517000	-18.709318
963.723000	-18.253736
963.929000	-0.640407
964.134000	4.070400
964.340000	-20.715720
964.546000	-28.186779
964.752000	-29.291396
964.957000	-33.719687
965.163000	-6.278444
965.369000	-7.071566
965.574000	-7.144624
965.780000	-10.743848
966.000000	-20.462308
966.220000	-12.987540
966.440000	-23.239421
966.661000	-9.842271
966.881000	-23.818834
967.101000	-40.610864
967.321000	-37.828661
967.541000	-10.002317
967.761000	-19.521559
967.981000	-13.494112
968.202000	-14.966745
968.422000	-3.438019
968.642000	0.038511
968.862000	-8.216930
969.082000	-14.217848
969.302000	-5.684186
969.522000	-13.625470
969.743000	6.301450
969.963000	-10.760657
970.183000	-32.193690
970.403000	-38.983587
970.623000	-30.091060
970.843000	-8.637202
971.063000	-13.386558
971.284000	-29.933322
971.504000	-44.123149
971.724000	-16.683212
971.944000	-35.735293
972.164000	-49.413031
972.384000	-31.894435
972.604000	-47.672599
972.825000	-58.953099
973.045000	-40.127490
973.265000	21.422363
973.485000	15.014697
973.705000	-9.989894
973.925000	-25.422008
974.145000	-60.258299
974.365000	-18.923066
974.586000	-17.125797
974.806000	-39.884350
975.026000	-7.136331
975.246000	-13.601596
975.466000	-30.454496
975.686000	-23.309948
975.906000	-32.399035
976.127000	-47.639825
976.347000	-31.787827
976.567000	-10.407692
976.787000	-15.934455
977.007000	-27.222095
977.227000	-30.259180
977.447000	-27.489681
977.668000	-44.776285
977.888000	-29.978502
978.108000	-31.414101
978.328000	-17.694447
978.548000	7.998936
978.768000	9.766855
978.988000	-3.889687
979.209000	-22.390406
979.429000	-26.469994
979.649000	-7.117416
979.869000	-32.235367
980.089000	-49.889423
980.309000	-45.791774
980.529000	-58.531886
980.750000	-32.948866
980.970000	-47.971751
981.190000	-38.071315
981.410000	-34.737051
981.630000	-33.378544
981.850000	-19.724700
982.070000	-27.877916
982.291000	-57.366041
982.511000	-56.326961
982.731000	-4.456386
982.951000	-25.255748
983.171000	-41.886804
983.391000	-35.501760
983.611000	-6.487071
983.832000	-30.730518
984.052000	-56.266803
984.272000	-11.646798
984.492000	-15.563460
984.712000	-44.351038
984.932000	-49.272490
985.152000	-50.723894
985.373000	-48.413684
985.593000	-19.041329
985.813000	-27.827651
986.033000	-41.727357
986.253000	-12.614734
986.473000	-12.705126
986.693000	-40.853514
986.914000	-51.171737
987.134000	-9.866594
987.354000	-19.375116
987.574000	199.900278
987.794000	109.945519
988.014000	-54.465339
988.234000	-31.822271
988.455000	-3.222383
988.675000	7.556535
988.895000	-20.538540
989.115000	-39.059821
989.335000	-18.525666
989.555000	7.684027
989.775000	-45.148484
989.995000	-48.954351
990.216000	-50.917073
990.436000	-36.239812
990.656000	-3.567592
990.876000	-51.225675
991.096000	-34.598896
991.316000	3.708046
991.536000	-43.679721
991.757000	-55.524064
991.977000	-79.958597
992.197000	-32.757543
992.417000	-54.863044
992.637000	-108.965983
992.857000	-106.967046
993.077000	-79.330070
993.298000	-32.809518
993.518000	-40.135091
993.738000	-95.550068
993.958000	-56.061184
994.178000	-50.480242
994.398000	-46.837387
994.618000	-94.414886
994.839000	-155.943127
995.059000	-48.554279
995.279000	21.918033
995.499000	-25.305347
995.719000	-27.721057
995.939000	-66.828752
996.159000	-74.944355
996.380000	-32.217920
996.600000	-64.693348
996.820000	-39.276180
997.040000	8.621831
997.260000	-64.856409
997.480000	-21.362997
997.700000	-103.244660
997.921000	-78.515118
998.141000	27.081639
998.361000	-3.588952
998.581000	-69.874058
998.801000	-108.753408
999.021000	-69.849825
999.241000	-31.245067
999.462000	-65.735261
999.682000	-128.424689
999.902000	-91.879542
1000.122000	-100.934591
1000.342000	-162.974772
1000.562000	-78.633221
1000.782000	-60.790814
1001.003000	-1027.126871
