Wavelength	Irradiance
(nm)	(mW/cm2/nm)

294.396000	0.000000
294.577000	-0.000000
294.757000	-0.000000
294.938000	-0.000000
295.118000	-0.000000
295.299000	0.000000
295.479000	-0.000000
295.660000	-0.000000
295.840000	-0.000000
296.021000	-0.000000
296.202000	-0.000000
296.382000	-0.000000
296.563000	-0.000000
296.743000	-0.000000
296.924000	-0.000000
297.104000	-0.000000
297.285000	-0.000000
297.465000	-0.000000
297.646000	-0.000000
297.826000	-0.000000
298.007000	0.000000
298.187000	-0.000000
298.368000	-0.000000
298.548000	-0.000000
298.729000	0.000000
298.909000	-0.000000
299.090000	-0.000000
299.270000	-0.000000
299.451000	-0.000000
299.631000	-0.000000
299.812000	-0.000000
299.992000	0.000000
300.173000	0.000000
300.353000	-0.000000
300.534000	0.000000
300.714000	0.000000
300.895000	-0.000000
301.075000	-0.000000
301.256000	0.000000
301.436000	-0.000000
301.617000	-0.000000
301.797000	-0.000000
301.978000	-0.000000
302.159000	0.000000
302.339000	0.000000
302.520000	-0.000000
302.700000	-0.000000
302.881000	0.000000
303.061000	0.000000
303.242000	0.000000
303.422000	0.000000
303.603000	-0.000000
303.783000	-0.000000
303.964000	-0.000000
304.144000	-0.000000
304.325000	-0.000000
304.505000	-0.000000
304.686000	-0.000000
304.866000	-0.000000
305.047000	-0.000000
305.227000	-0.000000
305.408000	-0.000000
305.588000	-0.000000
305.769000	-0.000000
305.949000	-0.000000
306.130000	-0.000000
306.310000	-0.000000
306.491000	-0.000000
306.671000	0.000000
306.852000	-0.000000
307.032000	-0.000000
307.213000	-0.000000
307.393000	-0.000000
307.574000	0.000000
307.755000	0.000000
307.935000	0.000000
308.116000	-0.000000
308.296000	-0.000000
308.477000	-0.000000
308.657000	0.000000
308.838000	0.000000
309.018000	0.000000
309.199000	-0.000000
309.379000	-0.000000
309.560000	-0.000000
309.740000	-0.000000
309.921000	0.000000
310.101000	0.000000
310.282000	-0.000000
310.462000	-0.000000
310.643000	-0.000000
310.823000	-0.000000
311.004000	-0.000000
311.184000	-0.000000
311.365000	0.000000
311.545000	0.000000
311.726000	-0.000000
311.906000	-0.000000
312.087000	0.000000
312.267000	-0.000000
312.448000	-0.000000
312.628000	-0.000000
312.809000	-0.000000
312.989000	-0.000000
313.170000	-0.000000
313.344000	-0.000000
313.518000	-0.000000
313.691000	-0.000000
313.865000	-0.000000
314.039000	-0.000000
314.213000	-0.000000
314.387000	-0.000000
314.560000	-0.000000
314.734000	-0.000000
314.908000	-0.000000
315.082000	-0.000000
315.255000	0.000000
315.429000	0.000000
315.603000	-0.000000
315.777000	-0.000000
315.951000	0.000000
316.124000	-0.000000
316.298000	-0.000000
316.472000	-0.000000
316.646000	-0.000000
316.820000	-0.000000
316.993000	-0.000000
317.167000	-0.000000
317.341000	-0.000000
317.515000	-0.000000
317.688000	-0.000000
317.862000	-0.000000
318.036000	-0.000000
318.210000	-0.000000
318.384000	-0.000000
318.557000	-0.000000
318.731000	-0.000000
318.905000	-0.000000
319.079000	0.000000
319.253000	-0.000000
319.426000	0.000000
319.600000	0.000000
319.774000	-0.000000
319.948000	-0.000000
320.122000	0.000000
320.295000	-0.000000
320.469000	-0.000000
320.643000	-0.000000
320.817000	-0.000000
320.990000	-0.000000
321.164000	-0.000000
321.338000	-0.000000
321.512000	-0.000000
321.686000	-0.000000
321.859000	-0.000000
322.033000	-0.000000
322.207000	-0.000000
322.381000	-0.000000
322.555000	-0.000000
322.728000	-0.000000
322.902000	-0.000000
323.076000	-0.000000
323.250000	-0.000000
323.423000	-0.000000
323.597000	-0.000000
323.771000	-0.000000
323.945000	-0.000000
324.119000	-0.000000
324.292000	-0.000000
324.466000	-0.000000
324.640000	0.000000
324.814000	0.000000
324.988000	-0.000000
325.161000	-0.000000
325.335000	-0.000000
325.509000	-0.000000
325.683000	-0.000000
325.856000	-0.000000
326.030000	-0.000000
326.204000	-0.000000
326.378000	-0.000000
326.552000	-0.000000
326.725000	-0.000000
326.899000	-0.000000
327.073000	-0.000000
327.247000	-0.000000
327.421000	-0.000000
327.594000	-0.000000
327.768000	-0.000000
327.942000	-0.000000
328.116000	0.000000
328.289000	0.000000
328.463000	-0.000000
328.637000	0.000000
328.811000	-0.000000
328.985000	-0.000000
329.158000	-0.000000
329.332000	-0.000000
329.506000	0.000000
329.680000	-0.000000
329.854000	-0.000000
330.027000	-0.000000
330.201000	0.000000
330.375000	0.000000
330.549000	0.000000
330.723000	-0.000000
330.896000	-0.000000
331.070000	-0.000000
331.244000	-0.000000
331.418000	-0.000000
331.591000	-0.000000
331.765000	-0.000000
331.939000	-0.000000
332.113000	-0.000000
332.287000	-0.000000
332.460000	0.000000
332.634000	0.000000
332.808000	-0.000000
332.982000	-0.000000
333.156000	-0.000000
333.329000	0.000000
333.503000	-0.000000
333.677000	-0.000000
333.851000	-0.000000
334.024000	-0.000000
334.198000	-0.000000
334.372000	-0.000000
334.546000	-0.000000
334.720000	-0.000000
334.893000	-0.000000
335.067000	-0.000000
335.241000	-0.000000
335.415000	-0.000000
335.589000	-0.000000
335.762000	-0.000000
335.936000	-0.000000
336.110000	-0.000000
336.284000	-0.000000
336.458000	-0.000000
336.631000	-0.000000
336.805000	-0.000000
336.979000	-0.000000
337.153000	-0.000000
337.326000	-0.000000
337.500000	-0.000000
337.674000	-0.000000
337.848000	-0.000000
338.022000	-0.000000
338.195000	-0.000000
338.369000	-0.000000
338.543000	-0.000000
338.717000	-0.000000
338.891000	0.000000
339.064000	0.000000
339.238000	-0.000000
339.412000	-0.000000
339.586000	-0.000000
339.759000	-0.000000
339.933000	-0.000000
340.107000	0.000000
340.281000	-0.000000
340.455000	-0.000000
340.628000	-0.000000
340.802000	-0.000000
340.976000	-0.000000
341.150000	-0.000000
341.324000	-0.000000
341.497000	-0.000000
341.671000	-0.000000
341.845000	-0.000000
342.019000	-0.000000
342.192000	-0.000000
342.366000	-0.000000
342.540000	-0.000000
342.714000	-0.000000
342.888000	-0.000000
343.061000	-0.000000
343.235000	-0.000000
343.409000	-0.000000
343.583000	-0.000000
343.757000	-0.000000
343.930000	-0.000000
344.104000	-0.000000
344.278000	0.000000
344.452000	0.000000
344.626000	-0.000000
344.799000	-0.000000
344.973000	-0.000000
345.147000	-0.000000
345.321000	-0.000000
345.494000	-0.000000
345.668000	0.000000
345.842000	0.000000
346.016000	-0.000000
346.190000	-0.000000
346.363000	0.000000
346.537000	-0.000000
346.711000	-0.000000
346.885000	-0.000000
347.059000	-0.000000
347.232000	-0.000000
347.406000	-0.000000
347.580000	-0.000000
347.754000	-0.000000
347.927000	-0.000000
348.101000	0.000000
348.275000	-0.000000
348.449000	-0.000000
348.623000	-0.000000
348.796000	0.000000
348.970000	0.000000
349.144000	-0.000000
349.318000	-0.000000
349.492000	-0.000000
349.665000	-0.000000
349.839000	-0.000000
350.013000	-0.000000
350.187000	-0.000000
350.361000	-0.000000
350.534000	-0.000000
350.708000	-0.000000
350.882000	-0.000000
351.056000	0.000000
351.229000	-0.000000
351.403000	-0.000000
351.577000	-0.000000
351.751000	-0.000000
351.925000	-0.000000
352.098000	-0.000000
352.272000	-0.000000
352.446000	-0.000000
352.620000	-0.000000
352.794000	-0.000000
352.967000	-0.000000
353.141000	0.000000
353.315000	-0.000000
353.489000	-0.000000
353.662000	-0.000000
353.836000	-0.000000
354.010000	-0.000000
354.184000	0.000000
354.358000	-0.000000
354.531000	-0.000000
354.705000	-0.000000
354.879000	-0.000000
355.053000	-0.000000
355.227000	-0.000000
355.400000	-0.000000
355.574000	0.000000
355.748000	0.000000
355.922000	-0.000000
356.095000	-0.000000
356.269000	-0.000000
356.443000	-0.000000
356.617000	-0.000000
356.791000	-0.000000
356.964000	-0.000000
357.138000	-0.000000
357.312000	-0.000000
357.486000	-0.000000
357.660000	-0.000000
357.833000	-0.000000
358.007000	-0.000000
358.181000	-0.000000
358.355000	-0.000000
358.529000	-0.000000
358.702000	-0.000000
358.876000	-0.000000
359.050000	-0.000000
359.224000	-0.000000
359.397000	-0.000000
359.571000	-0.000000
359.745000	-0.000000
359.919000	-0.000000
360.093000	-0.067168
360.266000	0.062340
360.440000	0.061034
360.614000	0.130451
360.788000	0.047841
360.962000	-0.243704
361.135000	-0.141778
361.309000	-0.265768
361.483000	-0.405202
361.657000	-0.330916
361.830000	-0.278191
362.004000	-0.065958
362.178000	-0.370351
362.352000	-0.262021
362.526000	-0.084409
362.699000	-0.127856
362.873000	-0.403936
363.047000	-0.372346
363.221000	-0.331384
363.395000	-0.221642
363.568000	-0.147666
363.742000	-0.277346
363.916000	-0.361152
364.090000	-0.400763
364.263000	-0.375704
364.437000	-0.471833
364.611000	-0.145102
364.785000	-0.166317
364.959000	-0.378190
365.132000	-0.429598
365.306000	-0.454680
365.480000	-0.214750
365.656000	-0.214364
365.831000	-0.227312
366.007000	-0.221416
366.183000	-0.169515
366.358000	-0.376439
366.534000	-0.278996
366.710000	-0.477817
366.886000	-0.382946
367.061000	-0.117118
367.237000	0.012389
367.413000	-0.226228
367.588000	-0.470177
367.764000	-0.388943
367.940000	-0.459016
368.115000	-0.451595
368.291000	-0.369944
368.467000	-0.236759
368.643000	0.060934
368.818000	-0.309874
368.994000	-0.444586
369.170000	-0.337193
369.345000	-0.296951
369.521000	-0.312523
369.697000	-0.142769
369.872000	-0.309733
370.048000	-0.455737
370.224000	-0.413063
370.399000	-0.627338
370.575000	-0.483611
370.751000	-0.607184
370.927000	-0.453494
371.102000	-0.462399
371.278000	-0.439954
371.454000	-0.348659
371.629000	-0.092005
371.805000	-0.196820
371.981000	-0.113226
372.156000	0.108418
372.332000	-0.070750
372.508000	-0.091985
372.683000	-0.210705
372.859000	-0.322311
373.035000	-0.174015
373.211000	0.302521
373.386000	-0.067856
373.562000	-0.506536
373.738000	-0.602696
373.913000	-0.659559
374.089000	-0.480163
374.265000	-0.118256
374.440000	-0.007138
374.616000	0.008140
374.792000	-0.318736
374.968000	0.032713
375.143000	-0.056880
375.319000	-0.457061
375.495000	-0.515688
375.670000	-0.275435
375.846000	-0.182516
376.022000	-0.397223
376.197000	-0.253255
376.373000	-0.412105
376.549000	-0.405766
376.724000	-0.529796
376.900000	-0.444334
377.076000	-0.327469
377.252000	-0.011603
377.427000	0.129412
377.603000	-0.277767
377.779000	-0.228602
377.954000	-0.419202
378.130000	-0.297198
378.306000	-0.241434
378.481000	-0.133363
378.657000	-0.190794
378.833000	-0.306497
379.009000	-0.202955
379.184000	-0.133715
379.360000	-0.229291
379.536000	-0.231193
379.711000	-0.220159
379.887000	-0.358606
380.063000	-0.383803
380.238000	-0.420578
380.414000	-0.205219
380.590000	-0.436896
380.765000	-0.391697
380.941000	-0.122363
381.117000	-0.107223
381.293000	-0.245462
381.468000	-0.426899
381.644000	-0.361375
381.820000	-0.222579
381.995000	-0.156944
382.171000	0.090523
382.347000	0.036943
382.522000	-0.374126
382.698000	0.022123
382.874000	0.002881
383.050000	-0.436993
383.225000	-0.103281
383.401000	0.153009
383.577000	-0.216515
383.752000	-0.389287
383.928000	-0.240492
384.104000	-0.138911
384.279000	-0.271190
384.455000	-0.163636
384.631000	-0.240095
384.806000	-0.547328
384.982000	-0.221299
385.158000	-0.247262
385.334000	-0.139267
385.509000	-0.215955
385.685000	-0.557565
385.861000	-0.291857
386.036000	-0.311663
386.212000	-0.569733
386.388000	-0.394092
386.563000	-0.388627
386.739000	-0.445166
386.915000	-0.680553
387.090000	-0.366476
387.266000	-0.202677
387.442000	-0.030564
387.618000	-0.181935
387.793000	-0.436766
387.969000	-0.565498
388.145000	-0.435290
388.320000	-0.428326
388.496000	-0.462080
388.672000	-0.586529
388.847000	-0.133908
389.023000	-0.177479
389.199000	-0.521860
389.375000	-0.265204
389.550000	-0.393855
389.726000	-0.319999
389.902000	-0.429741
390.077000	-0.242387
390.253000	-0.232458
390.429000	-0.380554
390.604000	-0.175798
390.780000	-0.217019
390.956000	-0.377776
391.131000	-0.400214
391.307000	-0.057479
391.483000	-0.210365
391.659000	-0.401654
391.834000	-0.187004
392.010000	-0.293069
392.186000	-0.446080
392.361000	-0.317196
392.537000	-0.419778
392.713000	-0.010942
392.888000	0.231031
393.064000	0.034825
393.240000	-0.234930
393.416000	-0.437898
393.591000	-0.482239
393.767000	-0.589336
393.943000	-0.509424
394.118000	-0.028845
394.294000	0.128817
394.470000	-0.123095
394.645000	0.047469
394.821000	0.169359
394.997000	-0.158455
395.172000	-0.166525
395.348000	-0.220388
395.524000	-0.588756
395.700000	-0.495854
395.875000	-0.218341
396.051000	-0.209228
396.227000	-0.295280
396.402000	-0.310260
396.578000	-0.157855
396.754000	-0.400923
396.929000	-0.372641
397.105000	0.029097
397.281000	-0.072278
397.457000	-0.239052
397.632000	-0.223490
397.808000	-0.561845
397.984000	-0.598590
398.159000	-0.546888
398.335000	-0.392153
398.511000	0.028898
398.686000	-0.181076
398.862000	-0.384034
399.038000	-0.465374
399.213000	-0.286363
399.389000	-0.514353
399.565000	-0.265984
399.741000	-0.057984
399.916000	-0.106602
400.092000	0.154775
400.268000	-0.213004
400.443000	-0.324625
400.619000	0.111490
400.795000	-0.067315
400.970000	-0.282088
401.146000	-0.361134
401.322000	-0.032260
401.497000	0.316261
401.673000	-0.001751
401.849000	-0.324693
402.025000	-0.132109
402.200000	-0.283434
402.376000	-0.361285
402.552000	0.041759
402.727000	-0.135946
402.903000	-0.472651
403.079000	-0.330300
403.254000	-0.027693
403.430000	-0.006017
403.606000	-0.126574
403.782000	-0.178013
403.957000	-0.389810
404.133000	-0.594008
404.309000	-0.382054
404.484000	-0.165368
404.660000	-0.226288
404.841000	-0.312849
405.023000	-0.027504
405.204000	-0.143961
405.385000	-0.534314
405.566000	-0.514670
405.748000	-0.319688
405.929000	-0.080540
406.110000	-0.101242
406.292000	-0.190182
406.473000	-0.173476
406.654000	-0.430212
406.835000	-0.269149
407.017000	-0.255242
407.198000	-0.205655
407.379000	-0.264411
407.560000	-0.311995
407.742000	-0.378669
407.923000	-0.333389
408.104000	-0.421831
408.286000	-0.292630
408.467000	-0.172412
408.648000	-0.386986
408.829000	-0.513597
409.011000	-0.347666
409.192000	-0.494805
409.373000	-0.258630
409.555000	-0.113063
409.736000	-0.142083
409.917000	-0.304864
410.098000	-0.336778
410.280000	-0.208015
410.461000	-0.199239
410.642000	-0.233296
410.823000	0.078298
411.005000	-0.026976
411.186000	-0.305366
411.367000	-0.352065
411.549000	-0.393994
411.730000	-0.149288
411.911000	0.053047
412.092000	-0.207356
412.274000	-0.305775
412.455000	-0.227093
412.636000	-0.131199
412.818000	-0.330439
412.999000	-0.489413
413.180000	-0.384247
413.361000	-0.318894
413.543000	-0.337949
413.724000	-0.407482
413.905000	-0.523449
414.087000	-0.582641
414.268000	-0.440810
414.449000	-0.433411
414.630000	-0.596089
414.812000	-0.631957
414.993000	-0.263028
415.174000	-0.197774
415.355000	-0.371677
415.537000	-0.464178
415.718000	-0.165538
415.899000	-0.299859
416.081000	-0.384064
416.262000	-0.249291
416.443000	-0.430913
416.624000	-0.450120
416.806000	-0.260713
416.987000	-0.066711
417.168000	-0.203787
417.350000	-0.413946
417.531000	-0.463694
417.712000	-0.471692
417.893000	-0.262668
418.075000	-0.129642
418.256000	-0.234353
418.437000	-0.110396
418.618000	-0.061824
418.800000	-0.057719
418.981000	-0.340605
419.162000	-0.255196
419.344000	-0.065414
419.525000	-0.158003
419.706000	-0.266574
419.887000	-0.129814
420.069000	0.098459
420.250000	0.014405
420.431000	-0.145295
420.613000	-0.210152
420.794000	-0.371275
420.975000	-0.077146
421.156000	-0.228697
421.338000	-0.316093
421.519000	-0.320009
421.700000	-0.380838
421.882000	-0.328884
422.063000	-0.121038
422.244000	0.307404
422.425000	0.097822
422.607000	-0.323058
422.788000	-0.345557
422.969000	-0.359054
423.150000	-0.363447
423.332000	-0.465489
423.513000	-0.327757
423.694000	-0.317483
423.876000	-0.284629
424.057000	-0.173037
424.238000	-0.009605
424.419000	0.006422
424.601000	-0.113973
424.782000	-0.145931
424.963000	-0.065203
425.145000	-0.208902
425.326000	-0.128614
425.507000	-0.029332
425.688000	-0.168916
425.870000	-0.373576
426.051000	-0.414716
426.232000	-0.323325
426.413000	-0.329222
426.595000	-0.327498
426.776000	-0.382965
426.957000	-0.404566
427.139000	-0.303532
427.320000	-0.264969
427.501000	-0.141814
427.682000	-0.184972
427.864000	-0.256583
428.045000	-0.085511
428.226000	-0.069776
428.408000	-0.390215
428.589000	-0.324728
428.770000	-0.276228
428.951000	-0.343309
429.133000	-0.532444
429.314000	-0.318069
429.495000	-0.305184
429.677000	-0.262739
429.858000	-0.274907
430.039000	-0.235571
430.220000	-0.045219
430.402000	-0.005536
430.583000	-0.362254
430.764000	-0.352916
430.945000	-0.211213
431.127000	-0.091893
431.308000	-0.267379
431.489000	-0.095909
431.671000	0.029996
431.852000	-0.095658
432.033000	-0.197611
432.214000	-0.130700
432.396000	-0.048395
432.577000	-0.232340
432.758000	-0.432969
432.940000	-0.365907
433.121000	-0.279423
433.302000	-0.231691
433.483000	-0.048271
433.665000	0.049076
433.846000	-0.052181
434.027000	-0.241471
434.208000	-0.384147
434.390000	-0.435990
434.571000	-0.094686
434.752000	0.279650
434.934000	0.109562
435.115000	0.036868
435.296000	0.113639
435.477000	-0.070433
435.659000	-0.368915
435.840000	-0.271264
436.026000	-0.247733
436.211000	-0.311786
436.397000	-0.585778
436.582000	-0.427478
436.768000	-0.140869
436.953000	-0.245998
437.139000	-0.279241
437.325000	0.073240
437.510000	0.039604
437.696000	0.125205
437.881000	0.095243
438.067000	-0.290012
438.252000	-0.201384
438.438000	-0.193843
438.624000	-0.241944
438.809000	-0.189376
438.995000	-0.023552
439.180000	-0.041823
439.366000	-0.199370
439.551000	-0.254003
439.737000	-0.202352
439.923000	-0.147757
440.108000	-0.253486
440.294000	-0.161676
440.479000	-0.084906
440.665000	-0.059120
440.850000	-0.126904
441.036000	-0.177496
441.222000	-0.167422
441.407000	-0.285516
441.593000	-0.201937
441.778000	-0.015718
441.964000	0.106188
442.149000	-0.212283
442.335000	-0.349893
442.521000	-0.250054
442.706000	-0.040328
442.892000	-0.146137
443.077000	-0.213919
443.263000	-0.079004
443.448000	-0.120782
443.634000	-0.240330
443.820000	0.057954
444.005000	-0.053730
444.191000	-0.277599
444.376000	-0.269334
444.562000	0.033201
444.747000	0.075093
444.933000	-0.042986
445.119000	-0.181215
445.304000	-0.318953
445.490000	-0.156778
445.675000	-0.125640
445.861000	-0.292095
446.046000	-0.270738
446.232000	-0.166909
446.418000	-0.077161
446.603000	-0.149483
446.789000	-0.118356
446.974000	-0.056596
447.160000	-0.286777
447.345000	-0.264749
447.531000	-0.254265
447.717000	-0.070144
447.902000	0.029694
448.088000	0.091306
448.273000	-0.086739
448.459000	-0.123954
448.644000	-0.236457
448.830000	-0.353617
449.016000	-0.377241
449.201000	-0.294815
449.387000	-0.186041
449.572000	-0.038870
449.758000	-0.127437
449.943000	-0.301645
450.129000	-0.283449
450.315000	-0.303270
450.500000	-0.317114
450.686000	-0.219054
450.871000	-0.335025
451.057000	-0.191698
451.243000	-0.181291
451.428000	-0.184935
451.614000	-0.201455
451.799000	-0.238619
451.985000	-0.031847
452.170000	-0.001354
452.356000	-0.197528
452.542000	-0.201151
452.727000	-0.105998
452.913000	-0.167036
453.098000	-0.011495
453.284000	0.160872
453.469000	-0.041957
453.655000	0.032427
453.841000	0.018886
454.026000	-0.159157
454.212000	-0.165397
454.397000	-0.078451
454.583000	-0.258374
454.768000	-0.351141
454.954000	-0.155122
455.140000	-0.081434
455.325000	-0.224432
455.511000	-0.295789
455.696000	-0.255661
455.882000	-0.161600
456.067000	0.042090
456.253000	-0.114919
456.439000	-0.308632
456.624000	-0.337579
456.810000	-0.273570
456.995000	-0.234045
457.181000	-0.395899
457.366000	-0.195952
457.552000	-0.080162
457.738000	0.018377
457.923000	-0.057201
458.109000	0.097603
458.294000	0.038212
458.480000	-0.040897
458.665000	-0.132850
458.851000	-0.227810
459.037000	-0.395853
459.222000	-0.196963
459.408000	-0.223056
459.593000	-0.157073
459.779000	-0.046583
459.964000	0.076478
460.150000	0.271396
460.336000	0.160856
460.521000	-0.078584
460.707000	-0.216566
460.892000	-0.286698
461.078000	-0.049502
461.263000	0.021120
461.449000	-0.149012
461.635000	-0.123188
461.820000	-0.100530
462.006000	-0.014027
462.191000	-0.121968
462.377000	-0.276788
462.562000	0.049562
462.748000	0.264925
462.934000	-0.109141
463.119000	-0.285490
463.305000	-0.120753
463.490000	-0.157720
463.676000	-0.151847
463.861000	-0.193475
464.047000	-0.170875
464.233000	-0.066778
464.418000	-0.119696
464.604000	-0.178529
464.789000	0.029880
464.975000	-0.041576
465.160000	-0.184608
465.346000	-0.178291
465.532000	-0.234542
465.717000	-0.293168
465.903000	-0.047750
466.088000	-0.056981
466.274000	-0.232310
466.459000	-0.306609
466.645000	0.035831
466.831000	0.017189
467.016000	0.032483
467.202000	-0.022779
467.387000	-0.127078
467.573000	-0.361965
467.758000	-0.071235
467.944000	-0.089460
468.130000	-0.190854
468.315000	-0.117512
468.501000	0.032323
468.686000	-0.019468
468.872000	-0.074248
469.057000	-0.034680
469.243000	-0.116981
469.429000	-0.180821
469.614000	-0.268456
469.800000	-0.347424
469.985000	-0.149557
470.171000	-0.022320
470.356000	-0.137442
470.542000	-0.122774
470.728000	-0.119323
470.913000	-0.127769
471.099000	-0.013250
471.284000	-0.119493
471.470000	-0.150038
471.655000	-0.122722
471.841000	-0.134445
472.027000	-0.230105
472.212000	-0.019292
472.398000	0.098593
472.583000	-0.064789
472.769000	-0.155906
472.954000	-0.131436
473.140000	-0.251494
473.326000	-0.260875
473.511000	0.022901
473.697000	0.013877
473.882000	-0.131469
474.068000	-0.198490
474.253000	-0.224837
474.439000	-0.164659
474.625000	-0.070698
474.810000	-0.070748
474.996000	-0.094936
475.181000	-0.221100
475.367000	-0.061514
475.552000	0.171642
475.738000	-0.158012
475.924000	-0.137211
476.109000	0.007855
476.295000	-0.176523
476.480000	-0.167628
476.666000	-0.155288
476.851000	-0.121991
477.037000	-0.077098
477.223000	-0.234014
477.408000	-0.367147
477.594000	-0.378886
477.779000	-0.216172
477.965000	-0.176875
478.151000	-0.331269
478.336000	-0.198217
478.522000	-0.197744
478.707000	-0.194700
478.893000	-0.131483
479.078000	-0.329216
479.264000	-0.338414
479.450000	-0.280808
479.635000	-0.107436
479.821000	-0.171470
480.006000	-0.143998
480.192000	-0.125652
480.377000	-0.098550
480.563000	-0.086299
480.749000	-0.299201
480.934000	-0.323180
481.120000	-0.197918
481.305000	-0.094894
481.491000	-0.128658
481.676000	-0.083330
481.862000	0.014022
482.048000	-0.183121
482.233000	-0.104170
482.419000	-0.152967
482.604000	-0.271612
482.790000	-0.207815
482.975000	-0.201926
483.161000	-0.034564
483.347000	-0.028455
483.532000	-0.116264
483.718000	-0.317136
483.903000	-0.253701
484.089000	-0.177223
484.274000	-0.316317
484.460000	-0.192479
484.646000	-0.168205
484.831000	-0.274669
485.017000	-0.195058
485.202000	-0.155387
485.388000	0.074319
485.573000	0.074173
485.759000	-0.203736
485.945000	-0.061678
486.130000	-0.158307
486.316000	-0.113034
486.501000	-0.064506
486.687000	-0.257058
486.872000	-0.302482
487.058000	-0.118782
487.244000	-0.088689
487.429000	-0.262890
487.615000	-0.145608
487.800000	-0.016243
487.986000	-0.127051
488.171000	-0.043249
488.357000	-0.108955
488.543000	-0.075752
488.728000	-0.051910
488.914000	-0.168369
489.099000	-0.275673
489.285000	-0.236718
489.470000	-0.027955
489.656000	0.040475
489.842000	0.034390
490.027000	0.122958
490.213000	-0.081122
490.398000	-0.496845
490.584000	-0.291034
490.769000	-0.190473
490.955000	-0.098615
491.141000	-0.030639
491.326000	-0.036403
491.512000	0.034039
491.697000	-0.068524
491.883000	-0.217960
492.068000	-0.264865
492.254000	-0.159672
492.440000	-0.106776
492.625000	-0.185425
492.811000	-0.222994
492.996000	-0.117756
493.182000	-0.117381
493.367000	-0.315850
493.553000	-0.356741
493.739000	-0.201966
493.924000	-0.085657
494.110000	-0.175419
494.295000	-0.273331
494.481000	-0.149010
494.666000	-0.140412
494.852000	0.042288
495.038000	-0.128338
495.223000	-0.244323
495.409000	-0.131116
495.594000	-0.287545
495.780000	-0.217550
495.965000	-0.229322
496.151000	-0.035770
496.337000	0.047841
496.522000	-0.219334
496.708000	-0.162505
496.893000	0.001729
497.079000	-0.196572
497.264000	-0.239222
497.450000	-0.210620
497.636000	-0.072951
497.821000	-0.175888
498.007000	0.010313
498.192000	0.050606
498.378000	-0.127442
498.563000	-0.202134
498.749000	-0.153480
498.935000	-0.144639
499.120000	-0.052676
499.306000	-0.190365
499.491000	-0.247035
499.677000	-0.092609
499.862000	-0.018363
500.048000	-0.006898
500.234000	-0.075687
500.419000	-0.150502
500.605000	-0.021273
500.790000	-0.093038
500.976000	-0.260004
501.161000	-0.337570
501.347000	-0.055780
501.533000	-0.024168
501.718000	-0.228307
501.904000	-0.208665
502.089000	-0.073315
502.275000	-0.018425
502.460000	-0.133188
502.646000	-0.067245
502.832000	-0.075907
503.017000	-0.139445
503.203000	-0.281011
503.388000	-0.296146
503.574000	-0.044421
503.759000	-0.009805
503.945000	0.010399
504.131000	-0.110923
504.316000	-0.159932
504.502000	-0.134001
504.687000	-0.166211
504.873000	-0.287990
505.058000	-0.287953
505.244000	-0.279195
505.430000	-0.271016
505.615000	-0.117376
505.801000	-0.027360
505.986000	-0.221298
506.172000	-0.195347
506.358000	-0.149314
506.543000	-0.146329
506.729000	0.048225
506.914000	-0.015722
507.100000	0.054339
507.285000	-0.112373
507.471000	-0.150248
507.657000	-0.012860
507.842000	-0.112079
508.028000	-0.281556
508.213000	-0.247123
508.399000	-0.183085
508.584000	-0.027608
508.770000	-0.092058
508.956000	-0.186022
509.141000	-0.185856
509.327000	-0.118676
509.512000	-0.176725
509.698000	-0.174063
509.883000	-0.142225
510.069000	-0.175019
510.255000	-0.139724
510.440000	-0.089722
510.626000	-0.139824
510.811000	-0.178429
510.997000	-0.110508
511.182000	0.093259
511.368000	0.037226
511.554000	-0.350011
511.739000	-0.296608
511.925000	-0.051436
512.110000	-0.066155
512.296000	0.099480
512.481000	0.143716
512.667000	-0.018946
512.853000	-0.158109
513.038000	-0.069381
513.224000	-0.179129
513.409000	-0.288830
513.595000	-0.203160
513.780000	-0.360397
513.966000	-0.306220
514.152000	-0.217402
514.337000	-0.211563
514.523000	-0.181949
514.708000	-0.161371
514.894000	-0.155867
515.079000	-0.276739
515.265000	-0.218228
515.451000	-0.155857
515.636000	-0.259768
515.822000	-0.149984
516.007000	-0.266086
516.193000	-0.078498
516.378000	-0.030977
516.564000	-0.179641
516.750000	-0.144000
516.935000	-0.075609
517.121000	-0.001190
517.306000	0.165625
517.492000	0.028640
517.677000	-0.296209
517.863000	-0.284342
518.049000	-0.135358
518.234000	-0.239528
518.420000	-0.138407
518.605000	0.064409
518.791000	0.016690
518.976000	-0.123878
519.162000	-0.216240
519.348000	-0.084841
519.533000	-0.099633
519.719000	0.115261
519.904000	0.055603
520.090000	-0.063844
520.275000	0.055528
520.461000	0.049655
520.647000	-0.141759
520.832000	-0.343063
521.018000	-0.216550
521.203000	-0.186029
521.389000	-0.373575
521.574000	-0.257656
521.760000	-0.150498
521.946000	-0.177911
522.131000	-0.223031
522.317000	-0.222687
522.502000	-0.222592
522.688000	-0.168813
522.873000	-0.219905
523.059000	-0.220060
523.245000	-0.171930
523.430000	-0.280115
523.616000	-0.226068
523.801000	-0.229370
523.987000	-0.205721
524.172000	-0.121495
524.358000	-0.046332
524.544000	-0.064278
524.729000	0.025763
524.915000	0.079876
525.100000	-0.103258
525.286000	-0.130466
525.471000	-0.151936
525.657000	-0.070615
525.843000	-0.288229
526.028000	-0.149356
526.214000	-0.176500
526.399000	-0.261878
526.585000	-0.313469
526.770000	-0.319494
526.956000	-0.229128
527.142000	-0.286814
527.327000	-0.122888
527.513000	-0.199179
527.698000	-0.220744
527.884000	-0.184828
528.069000	-0.254696
528.255000	-0.102134
528.441000	-0.209411
528.626000	-0.249977
528.812000	0.020252
528.997000	-0.114994
529.183000	-0.188706
529.368000	-0.140180
529.554000	-0.162222
529.740000	-0.128529
529.925000	-0.175135
530.111000	-0.190872
530.296000	-0.116436
530.482000	0.026840
530.667000	-0.107402
530.853000	-0.057632
531.039000	-0.095426
531.224000	-0.048600
531.410000	-0.004417
531.595000	-0.121261
531.781000	-0.067588
531.967000	-0.191828
532.152000	-0.026761
532.338000	-0.128965
532.523000	-0.276331
532.709000	-0.309453
532.894000	-0.191618
533.080000	-0.149842
533.266000	-0.288922
533.451000	-0.325678
533.637000	-0.268158
533.822000	-0.063386
534.008000	-0.249404
534.193000	-0.207734
534.379000	-0.070370
534.565000	-0.202717
534.750000	-0.292941
534.936000	-0.077838
535.121000	-0.248124
535.307000	-0.168375
535.492000	-0.155262
535.678000	-0.388454
535.864000	-0.285509
536.049000	0.090502
536.235000	-0.049048
536.420000	-0.093754
536.606000	-0.145495
536.791000	-0.253367
536.977000	-0.274764
537.163000	-0.143821
537.348000	-0.120203
537.534000	-0.004925
537.719000	-0.251790
537.905000	-0.415620
538.090000	-0.132927
538.276000	0.048508
538.462000	0.002147
538.647000	-0.030180
538.833000	-0.138720
539.018000	-0.019599
539.204000	-0.019612
539.389000	-0.231841
539.575000	0.060753
539.761000	-0.030896
539.946000	-0.297115
540.132000	-0.179557
540.317000	-0.291689
540.503000	-0.117076
540.688000	-0.087797
540.874000	0.149032
541.060000	0.231751
541.245000	0.051406
541.431000	-0.149491
541.616000	-0.062395
541.802000	-0.100527
541.987000	-0.032077
542.173000	-0.036033
542.359000	-0.101319
542.544000	0.059783
542.730000	-0.128507
542.915000	-0.209810
543.101000	-0.016980
543.286000	-0.167831
543.472000	-0.293397
543.658000	-0.192365
543.843000	-0.165513
544.029000	0.065008
544.214000	-0.005490
544.400000	-0.319543
544.585000	-0.162877
544.771000	-0.210775
544.957000	-0.021360
545.142000	0.093430
545.328000	0.161154
545.513000	0.209174
545.699000	0.166144
545.884000	-0.049558
546.070000	-0.093563
546.261000	-0.109956
546.451000	-0.186780
546.642000	-0.360495
546.833000	-0.219740
547.023000	-0.296420
547.214000	-0.188141
547.405000	-0.074594
547.595000	0.116094
547.786000	0.079868
547.977000	-0.120128
548.167000	-0.349237
548.358000	-0.338455
548.549000	0.014841
548.740000	-0.174797
548.930000	-0.447043
549.121000	-0.336660
549.312000	-0.321341
549.502000	-0.355411
549.693000	-0.288590
549.884000	-0.168049
550.074000	-0.047587
550.265000	-0.240172
550.456000	-0.114925
550.646000	-0.022703
550.837000	-0.123649
551.028000	-0.220677
551.218000	-0.119573
551.409000	-0.339987
551.600000	-0.238702
551.790000	-0.027194
551.981000	-0.252378
552.172000	-0.248592
552.362000	-0.014467
552.553000	0.092372
552.744000	-0.117098
552.934000	-0.219855
553.125000	-0.250242
553.316000	-0.306141
553.506000	0.019764
553.697000	-0.092288
553.888000	-0.173920
554.079000	-0.040498
554.269000	0.006900
554.460000	-0.317349
554.651000	-0.365283
554.841000	-0.526009
555.032000	-0.379272
555.223000	-0.262473
555.413000	-0.014710
555.604000	-0.040840
555.795000	-0.215191
555.985000	-0.167618
556.176000	-0.193455
556.367000	-0.363304
556.557000	-0.329550
556.748000	-0.303917
556.939000	-0.264096
557.129000	-0.390568
557.320000	-0.259666
557.511000	-0.250455
557.701000	-0.250059
557.892000	-0.137341
558.083000	0.059421
558.273000	-0.067298
558.464000	-0.250851
558.655000	-0.228803
558.845000	-0.202008
559.036000	-0.202152
559.227000	-0.184861
559.418000	-0.001747
559.608000	-0.001746
559.799000	-0.359330
559.990000	-0.370433
560.180000	-0.257992
560.371000	-0.432381
560.562000	-0.449094
560.752000	-0.232143
560.943000	-0.354028
561.134000	-0.578632
561.324000	-0.343987
561.515000	-0.036324
561.706000	-0.170567
561.896000	-0.450978
562.087000	-0.312395
562.278000	-0.329526
562.468000	-0.506869
562.659000	-0.384926
562.850000	-0.074966
563.040000	0.024127
563.231000	-0.363915
563.422000	-0.315445
563.612000	-0.393235
563.803000	-0.220738
563.994000	-0.369267
564.185000	-0.466783
564.375000	-0.236652
564.566000	-0.266231
564.757000	-0.335426
564.947000	-0.424766
565.138000	-0.265751
565.329000	-0.316219
565.519000	-0.422256
565.710000	-0.333383
565.901000	-0.116595
566.091000	0.049325
566.282000	-0.137453
566.473000	-0.196237
566.663000	-0.217131
566.854000	-0.380366
567.045000	-0.207315
567.235000	-0.190494
567.426000	-0.177841
567.617000	-0.156304
567.807000	-0.177277
567.998000	-0.210296
568.189000	-0.368762
568.379000	-0.255482
568.570000	-0.155402
568.761000	-0.175807
568.951000	-0.241765
569.142000	-0.291834
569.333000	-0.196487
569.524000	-0.344423
569.714000	-0.484791
569.905000	-0.537550
570.096000	-0.166510
570.286000	-0.075734
570.477000	0.088664
570.668000	-0.067256
570.858000	-0.087756
571.049000	-0.242730
571.240000	-0.455449
571.430000	-0.234368
571.621000	-0.205057
571.812000	-0.082661
572.002000	-0.062512
572.193000	-0.305564
572.384000	-0.196061
572.574000	-0.123245
572.765000	-0.179674
572.956000	-0.279963
573.146000	-0.098579
573.337000	-0.271762
573.528000	-0.243114
573.718000	-0.134085
573.909000	0.002405
574.100000	-0.085482
574.290000	-0.312170
574.481000	-0.386956
574.672000	-0.276032
574.863000	-0.092700
575.053000	-0.219054
575.244000	-0.104139
575.435000	-0.277437
575.625000	-0.358605
575.816000	-0.318975
576.007000	-0.185744
576.197000	-0.178186
576.388000	-0.138398
576.579000	-0.013288
576.769000	-0.083540
576.960000	-0.340925
577.155000	-0.542262
577.350000	-0.273518
577.545000	-0.137280
577.740000	-0.287665
577.935000	0.052475
578.130000	-0.040159
578.326000	-0.324915
578.521000	-0.020779
578.716000	0.032940
578.911000	-0.303782
579.106000	-0.222597
579.301000	-0.077519
579.496000	-0.228796
579.691000	-0.516244
579.886000	-0.367676
580.081000	-0.193732
580.276000	-0.193257
580.471000	-0.294723
580.666000	-0.361760
580.861000	-0.376638
581.057000	-0.354360
581.252000	-0.200501
581.447000	-0.331171
581.642000	-0.354243
581.837000	-0.316291
582.032000	-0.225707
582.227000	-0.072074
582.422000	-0.105314
582.617000	-0.307863
582.812000	-0.270253
583.007000	-0.236987
583.202000	-0.394496
583.397000	-0.199121
583.592000	0.046039
583.788000	-0.219991
583.983000	-0.212505
584.178000	-0.121343
584.373000	-0.251374
584.568000	-0.312295
584.763000	-0.417521
584.958000	-0.424727
585.153000	-0.312598
585.348000	-0.337740
585.543000	-0.204155
585.738000	-0.204062
585.933000	-0.439351
586.128000	-0.232984
586.324000	-0.186439
586.519000	-0.142809
586.714000	-0.070373
586.909000	-0.026891
587.104000	-0.041565
587.299000	-0.132335
587.494000	-0.186615
587.689000	-0.277928
587.884000	-0.151058
588.079000	-0.191208
588.274000	-0.271986
588.469000	-0.289683
588.664000	-0.111057
588.859000	-0.078291
589.055000	-0.078382
589.250000	-0.162702
589.445000	-0.309653
589.640000	-0.240138
589.835000	0.020611
590.030000	0.072119
590.225000	0.024289
590.420000	-0.207851
590.615000	-0.303941
590.810000	-0.252019
591.005000	-0.119866
591.200000	-0.223546
591.395000	-0.408539
591.591000	-0.297011
591.786000	-0.104826
591.981000	-0.231004
592.176000	-0.146156
592.371000	-0.123946
592.566000	-0.209147
592.761000	-0.045976
592.956000	-0.072052
593.151000	-0.057225
593.346000	-0.154263
593.541000	-0.120603
593.736000	-0.106039
593.931000	-0.319003
594.126000	-0.304512
594.322000	-0.229685
594.517000	-0.311918
594.712000	-0.386888
594.907000	-0.459628
595.102000	-0.279749
595.297000	-0.095444
595.492000	-0.035397
595.687000	-0.242992
595.882000	-0.326167
596.077000	-0.247369
596.272000	-0.099835
596.467000	-0.114999
596.662000	-0.240068
596.857000	-0.172596
597.053000	-0.157654
597.248000	-0.009135
597.443000	-0.054885
597.638000	-0.204024
597.833000	-0.418380
598.028000	-0.158126
598.223000	-0.016839
598.418000	-0.193222
598.613000	-0.292861
598.808000	-0.181836
599.003000	-0.174352
599.198000	-0.301464
599.393000	-0.278308
599.589000	-0.090195
599.784000	-0.283117
599.979000	-0.221729
600.174000	-0.020874
600.369000	-0.195027
600.564000	-0.148785
600.759000	-0.028706
600.954000	0.064285
601.149000	0.025638
601.344000	-0.277633
601.539000	-0.145597
601.734000	-0.219277
601.929000	-0.492666
602.124000	-0.465771
602.320000	-0.177410
602.515000	0.080511
602.710000	0.037597
602.905000	-0.314834
603.100000	-0.388608
603.295000	-0.350155
603.490000	-0.182257
603.685000	-0.119430
603.880000	-0.206110
604.075000	-0.388026
604.270000	-0.305862
604.465000	-0.199015
604.660000	-0.408626
604.856000	-0.333294
605.051000	-0.187542
605.246000	-0.234827
605.441000	-0.424898
605.636000	-0.496252
605.831000	-0.314791
606.026000	-0.433549
606.221000	-0.362712
606.416000	-0.216157
606.611000	-0.045343
606.806000	0.026227
607.001000	0.145629
607.196000	-0.184794
607.391000	-0.372497
607.587000	-0.161450
607.782000	-0.221686
607.977000	-0.444721
608.172000	-0.069680
608.367000	0.042448
608.562000	-0.162105
608.757000	-0.242278
608.952000	-0.335315
609.147000	0.130908
609.342000	0.002413
609.537000	-0.295741
609.732000	-0.215498
609.927000	-0.271457
610.122000	-0.251750
610.318000	-0.033923
610.513000	0.038789
610.708000	-0.094650
610.903000	-0.046163
611.098000	-0.050320
611.293000	-0.046275
611.488000	-0.074699
611.683000	-0.172434
611.878000	-0.184691
612.073000	-0.030112
612.268000	-0.058661
612.463000	-0.005716
612.658000	0.022864
612.854000	-0.058917
613.049000	-0.165368
613.244000	-0.026212
613.439000	-0.013930
613.634000	-0.260410
613.829000	-0.096141
614.024000	-0.199327
614.219000	-0.166357
614.414000	0.142568
614.609000	-0.113068
614.804000	-0.290588
614.999000	-0.306818
615.194000	-0.224924
615.389000	-0.262444
615.585000	-0.362455
615.780000	-0.205037
615.975000	-0.313576
616.170000	-0.284669
616.365000	-0.059991
616.560000	0.148455
616.755000	0.044337
616.950000	-0.056073
617.145000	0.027644
617.340000	-0.156796
617.535000	-0.412527
617.730000	-0.224176
617.925000	-0.409555
618.120000	-0.443333
618.316000	-0.073348
618.511000	-0.136705
618.706000	-0.285384
618.901000	-0.183669
619.096000	-0.095158
619.291000	-0.196940
619.486000	-0.176275
619.681000	-0.478958
619.876000	-0.568199
620.071000	-0.355543
620.266000	-0.065811
620.461000	0.015412
620.656000	-0.066052
620.852000	-0.147359
621.047000	-0.237897
621.242000	-0.448902
621.437000	-0.087926
621.632000	0.093297
621.827000	-0.083870
622.022000	-0.382464
622.217000	-0.253351
622.412000	-0.006080
622.607000	-0.058251
622.802000	-0.380136
622.997000	-0.337815
623.192000	-0.224318
623.387000	-0.272382
623.583000	-0.487233
623.778000	-0.014912
623.973000	-0.036865
624.168000	-0.085343
624.363000	-0.093996
624.558000	-0.050158
624.753000	-0.341642
624.948000	-0.130014
625.143000	-0.077003
625.338000	-0.108163
625.533000	-0.250094
625.728000	-0.245925
625.923000	0.002665
626.119000	-0.081921
626.314000	-0.385043
626.509000	-0.466691
626.704000	-0.382764
626.899000	-0.270947
627.094000	-0.244371
627.289000	-0.262943
627.484000	-0.317718
627.679000	-0.381242
627.874000	-0.422441
628.069000	-0.038048
628.264000	-0.015386
628.459000	-0.083463
628.654000	-0.206124
628.850000	-0.398202
629.045000	-0.311983
629.240000	-0.303163
629.435000	-0.349274
629.630000	-0.253748
629.825000	-0.240000
630.020000	-0.185767
630.215000	-0.470598
630.410000	-0.412482
630.605000	-0.329701
630.800000	-0.214227
630.995000	-0.011106
631.190000	0.123351
631.385000	-0.117858
631.581000	-0.234258
631.776000	-0.225106
631.971000	-0.375146
632.166000	-0.240017
632.361000	-0.385136
632.556000	-0.249939
632.751000	-0.114574
632.946000	-0.227343
633.141000	-0.265727
633.336000	-0.384115
633.531000	-0.375832
633.726000	-0.261907
633.921000	-0.423792
634.117000	-0.553006
634.312000	-0.691477
634.507000	-0.573204
634.702000	-0.383457
634.897000	-0.345794
635.092000	-0.231776
635.287000	-0.189059
635.482000	-0.271342
635.677000	-0.155928
635.872000	0.012514
636.067000	0.060785
636.262000	-0.244089
636.457000	-0.619324
636.652000	-0.639572
636.848000	-0.592559
637.043000	-0.385982
637.238000	-0.304135
637.433000	-0.416552
637.628000	-0.377516
637.823000	-0.177801
638.018000	-0.036216
638.213000	-0.227591
638.408000	-0.424184
638.603000	-0.444460
638.798000	-0.509114
638.993000	-0.376896
639.188000	-0.401701
639.383000	-0.456371
639.579000	-0.021709
639.774000	-0.185043
639.969000	-0.412807
640.164000	-0.597310
640.359000	-0.617820
640.554000	-0.295385
640.749000	-0.211428
640.944000	-0.156917
641.139000	-0.206468
641.334000	-0.366715
641.529000	-0.682827
641.724000	-0.448093
641.919000	-0.278263
642.115000	-0.062432
642.310000	-0.177980
642.505000	-0.187969
642.700000	-0.178239
642.895000	-0.320192
643.090000	-0.097946
643.285000	0.124216
643.480000	-0.067816
643.675000	-0.174245
643.870000	0.155295
644.065000	0.018306
644.260000	-0.322297
644.455000	-0.297434
644.650000	-0.359439
644.846000	-0.231803
645.041000	-0.395021
645.236000	-0.554580
645.431000	-0.545130
645.626000	-0.662569
645.821000	-0.467815
646.016000	-0.356250
646.211000	0.075087
646.406000	-0.053588
646.601000	-0.146192
646.796000	-0.300555
646.991000	-0.552820
647.186000	-0.383807
647.381000	-0.156925
647.577000	-0.120907
647.772000	-0.084743
647.967000	-0.178101
648.162000	-0.302600
648.357000	-0.303008
648.552000	-0.105803
648.747000	-0.131812
648.942000	-0.147474
649.137000	-0.142716
649.332000	-0.315012
649.527000	-0.361798
649.722000	-0.101102
649.917000	-0.002091
650.113000	-0.299654
650.308000	-0.472598
650.503000	-0.399194
650.698000	-0.290304
650.893000	-0.379656
651.088000	-0.217239
651.283000	-0.091502
651.478000	-0.349184
651.673000	-0.159706
651.868000	-0.386378
652.063000	-0.186716
652.258000	0.034838
652.453000	0.250590
652.648000	-0.039011
652.844000	-0.202581
653.039000	-0.213492
653.234000	-0.536013
653.429000	-0.701133
653.624000	-0.525989
653.819000	-0.208948
654.014000	-0.219598
654.209000	-0.353131
654.404000	-0.204008
654.599000	-0.358989
654.794000	-0.427492
654.989000	-0.210112
655.184000	-0.167646
655.380000	-0.391570
655.575000	-0.476980
655.770000	-0.483116
655.965000	-0.387017
656.160000	-0.403266
656.355000	-0.210683
656.550000	-0.286421
656.745000	-0.179269
656.940000	-0.190159
657.135000	-0.249187
657.330000	-0.163327
657.525000	-0.443019
657.720000	-0.303763
657.915000	-0.185102
658.111000	-0.330512
658.306000	0.024781
658.501000	-0.212744
658.696000	-0.450147
658.891000	-0.050759
659.086000	-0.185683
659.281000	-0.164360
659.476000	-0.354092
659.671000	-0.700538
659.866000	-0.532946
660.061000	-0.338194
660.256000	-0.349193
660.451000	-0.202972
660.646000	-0.290187
660.842000	-0.192593
661.037000	-0.426695
661.232000	-0.492711
661.427000	-0.383399
661.622000	-0.427754
661.817000	-0.558549
662.012000	-0.292005
662.207000	-0.412590
662.402000	-0.578202
662.597000	-0.265694
662.792000	-0.567098
662.987000	-0.648833
663.182000	-0.359150
663.378000	-0.320966
663.573000	-0.641304
663.768000	-0.683958
663.963000	-0.459039
664.158000	-0.497114
664.353000	-0.040859
664.548000	0.279292
664.743000	-0.085098
664.938000	-0.455283
665.133000	-0.439395
665.328000	-0.079807
665.523000	-0.146600
665.718000	-0.307673
665.913000	-0.258077
666.109000	-0.230782
666.304000	-0.069101
666.499000	-0.202716
666.694000	-0.097178
666.889000	0.159712
667.084000	-0.142319
667.279000	-0.209430
667.474000	-0.226357
667.669000	-0.187091
667.864000	-0.187312
668.059000	-0.221298
668.254000	-0.277818
668.449000	-0.492079
668.644000	-0.469988
668.840000	-0.103555
669.035000	-0.340413
669.230000	-0.573431
669.425000	-0.194668
669.620000	-0.375727
669.815000	-0.399804
670.010000	-0.490214
670.205000	-0.342981
670.400000	-0.189324
670.595000	-0.229699
670.790000	-0.343874
670.985000	-0.349933
671.180000	-0.184860
671.376000	-0.470558
671.571000	-0.551727
671.766000	-0.558742
671.961000	-0.581909
672.156000	-0.611363
672.351000	-0.370122
672.546000	-0.353623
672.741000	-0.289637
672.936000	-0.232473
673.131000	0.349656
673.326000	0.015044
673.521000	-0.575622
673.716000	-0.656681
673.911000	-0.778844
674.107000	-0.135857
674.302000	0.067395
674.497000	-0.205905
674.692000	-0.485444
674.887000	-0.644793
675.082000	-0.610672
675.277000	-0.242503
675.472000	-0.172438
675.667000	-0.319558
675.862000	-0.325598
676.057000	-0.331697
676.252000	-0.385441
676.447000	-0.421834
676.643000	-0.291618
676.838000	-0.020109
677.033000	-0.316274
677.228000	-0.026125
677.423000	-0.067729
677.618000	-0.502792
677.813000	-0.621573
678.008000	-0.354791
678.203000	-0.283416
678.398000	-0.433685
678.593000	-0.236091
678.788000	-0.170729
678.983000	-0.356653
679.178000	-0.224672
679.374000	-0.393447
679.569000	-0.309889
679.764000	-0.425698
679.959000	-0.699479
680.154000	-0.602620
680.349000	-0.738546
680.544000	-0.676803
680.739000	-0.531273
680.934000	-0.677842
681.129000	-0.563805
681.324000	-0.650031
681.519000	-0.455967
681.714000	-0.462258
681.909000	-0.602531
682.105000	-0.616508
682.300000	-0.230547
682.495000	-0.150333
682.690000	-0.107449
682.885000	-0.224958
683.080000	-0.504461
683.275000	-0.510915
683.470000	-0.126642
683.665000	-0.046040
683.860000	0.408841
684.055000	0.078572
684.250000	-0.370774
684.445000	-0.594538
684.641000	-0.140018
684.836000	-0.346870
685.031000	-0.404677
685.226000	-0.398932
685.421000	-0.065624
685.616000	-0.362194
685.811000	-0.413664
686.006000	-0.141671
686.201000	-0.350849
686.396000	-0.593769
686.591000	-0.575852
686.786000	-0.117395
686.981000	-0.193975
687.176000	-0.232824
687.372000	-0.341945
687.567000	-0.008969
687.762000	-0.124625
687.957000	-0.163163
688.152000	-0.382385
688.347000	-0.241195
688.542000	-0.396956
688.737000	-0.771589
688.932000	-0.857052
689.127000	-0.547099
689.322000	-0.119613
689.517000	-0.373061
689.712000	-0.596139
689.908000	-0.551040
690.103000	-0.539026
690.298000	-0.329750
690.493000	-0.330613
690.688000	-0.659417
690.883000	-0.463971
691.078000	0.069883
691.273000	-0.015824
691.468000	-0.286712
691.663000	-0.261277
691.858000	-0.108774
692.053000	-0.062343
692.248000	-0.049129
692.443000	-0.055766
692.639000	-0.202238
692.834000	-0.229416
693.029000	0.224165
693.224000	0.352591
693.419000	-0.224096
693.614000	-0.547184
693.809000	-0.715762
694.004000	-0.791250
694.199000	-0.683235
694.394000	-0.435401
694.589000	-0.625368
694.784000	-0.544704
694.979000	-0.239840
695.174000	-0.457802
695.370000	-0.104425
695.565000	-0.349383
695.760000	-0.472814
695.955000	0.004098
696.150000	0.140729
696.345000	-0.400508
696.540000	-0.167629
696.740000	-0.263624
696.940000	-0.256954
697.140000	-0.161597
697.340000	-0.362494
697.539000	-0.265785
697.739000	-0.390528
697.939000	-0.266076
698.139000	-0.495249
698.339000	-0.831297
698.539000	-0.754279
698.739000	-0.679559
698.939000	-0.402230
699.138000	-0.585391
699.338000	-0.030779
699.538000	0.109540
699.738000	-0.326766
699.938000	-0.376379
700.138000	-0.525281
700.338000	-0.569282
700.538000	-0.343554
700.737000	-0.293770
700.937000	-0.880113
701.137000	-0.902722
701.337000	-0.166667
701.537000	-0.038546
701.737000	-0.423476
701.937000	-0.488743
702.137000	-0.553079
702.337000	-0.690003
702.536000	-0.820513
702.736000	-0.828682
702.936000	-0.829905
703.136000	-0.392376
703.336000	-0.377865
703.536000	-0.342759
703.736000	-0.807740
703.936000	-0.690294
704.135000	-0.646556
704.335000	-0.292998
704.535000	-0.453786
704.735000	-0.767276
704.935000	-0.329795
705.135000	-0.214608
705.335000	-0.478989
705.535000	-0.274097
705.735000	-0.244739
705.934000	-0.200672
706.134000	-0.589030
706.334000	-0.722613
706.534000	-0.738360
706.734000	-0.702146
706.934000	-0.643230
707.134000	-0.606590
707.334000	-0.460337
707.533000	-0.424233
707.733000	-0.357456
707.933000	-0.520457
708.133000	-0.327845
708.333000	-0.218216
708.533000	-0.456573
708.733000	-0.129367
708.933000	-0.360168
709.132000	-0.532355
709.332000	-0.480975
709.532000	-0.497008
709.732000	-0.414067
709.932000	-0.842104
710.132000	-0.893987
710.332000	-0.983384
710.532000	-0.504882
710.732000	-0.198300
710.931000	-0.566776
711.131000	-0.621816
711.331000	-0.290001
711.531000	-0.434227
711.731000	-0.533912
711.931000	-0.466429
712.131000	-0.458282
712.331000	-0.329401
712.530000	-0.518517
712.730000	-0.770703
712.930000	-0.481718
713.130000	-0.407159
713.330000	-0.598515
713.530000	-0.455136
713.730000	0.165580
713.930000	-0.186984
714.129000	-0.615485
714.329000	-0.617461
714.529000	-0.325379
714.729000	0.004614
714.929000	-0.203018
715.129000	-0.565386
715.329000	-0.527361
715.529000	-0.405657
715.729000	0.290535
715.928000	-0.003099
716.128000	-0.390661
716.328000	-0.329626
716.528000	-0.516797
716.728000	-0.330082
716.928000	-0.516972
717.128000	-0.346458
717.328000	-0.229374
717.527000	-0.495237
717.727000	-0.487901
717.927000	-0.387497
718.127000	-0.544690
718.327000	-1.056758
718.527000	-0.922628
718.727000	-0.475113
718.927000	-0.539017
719.127000	-0.873491
719.326000	-0.594149
719.526000	-0.153152
719.726000	-0.351249
719.926000	-0.860757
720.126000	-0.908547
720.326000	-0.559023
720.526000	-0.598837
720.726000	-0.473188
720.925000	-0.106814
721.125000	-0.579254
721.325000	-0.354802
721.525000	-0.331631
721.725000	-0.628085
721.925000	-0.525414
722.125000	-0.517422
722.325000	0.061056
722.524000	-0.244965
722.724000	-1.003667
722.924000	-0.979403
723.124000	-0.705982
723.324000	-0.213468
723.524000	-0.148916
723.724000	-0.748491
723.924000	-0.360954
724.124000	-0.369211
724.323000	-0.100973
724.523000	-0.336824
724.723000	-0.133715
724.923000	-0.239779
725.123000	-0.191046
725.323000	0.013086
725.523000	-0.183558
725.723000	-0.649965
725.922000	-0.617917
726.122000	-0.405297
726.322000	-0.480429
726.522000	-0.620888
726.722000	0.111861
726.922000	-0.290970
727.122000	-0.448696
727.322000	-0.127183
727.521000	-0.359304
727.721000	-0.542237
727.921000	-0.368142
728.121000	-0.566995
728.321000	-1.033101
728.521000	-0.777642
728.721000	-0.578802
728.921000	-0.161741
729.121000	0.556169
729.320000	-0.053505
729.520000	-0.588607
729.720000	-0.832444
729.920000	-0.525069
730.120000	-0.414625
730.320000	-0.415641
730.520000	-0.668328
730.720000	-0.510002
730.919000	-0.341064
731.119000	-0.282485
731.319000	-0.884418
731.519000	-0.909708
731.719000	-0.418750
731.919000	-0.563154
732.119000	-1.235217
732.319000	-1.213529
732.519000	-0.523529
732.718000	-0.814497
732.918000	-0.618661
733.118000	-0.534541
733.318000	-0.192439
733.518000	-0.433021
733.718000	-1.139123
733.918000	-1.131179
734.118000	-0.683290
734.317000	-0.331804
734.517000	-0.736895
734.717000	-0.705764
734.917000	-0.081685
735.117000	-0.168764
735.317000	-0.177418
735.517000	0.354058
735.717000	0.372598
735.916000	-0.545860
736.116000	-0.702708
736.316000	-0.557545
736.516000	-0.337587
736.716000	-0.434512
736.916000	-0.877867
737.116000	-0.704649
737.316000	-0.154394
737.516000	-0.234717
737.715000	-0.128109
737.915000	-0.795703
738.115000	-0.967875
738.315000	-0.557565
738.515000	-0.861200
738.715000	-0.587689
738.915000	0.068386
739.115000	-0.544386
739.314000	-0.570909
739.514000	-0.075913
739.714000	0.105096
739.914000	-0.067240
740.114000	-0.540751
740.314000	-0.313394
740.514000	0.087593
740.714000	-0.543817
740.913000	-1.058047
741.113000	-0.775034
741.313000	-0.398537
741.513000	-0.454911
741.713000	-0.409966
741.913000	-0.393349
742.113000	-0.661378
742.313000	-1.034100
742.513000	-0.458996
742.712000	-0.385911
742.912000	-0.721676
743.112000	-0.462162
743.312000	-0.744061
743.512000	-0.482759
743.712000	-0.277016
743.912000	-0.872029
744.112000	-1.184226
744.311000	-1.225303
744.511000	-0.762694
744.711000	-0.374690
744.911000	-0.737119
745.111000	-0.718963
745.311000	-0.395522
745.511000	-0.931813
745.711000	-0.990146
745.911000	-0.627076
746.110000	-0.915162
746.310000	-1.036357
746.510000	-0.677858
746.710000	-0.303727
746.910000	-0.168457
747.110000	-0.663277
747.310000	-1.130709
747.510000	-0.871738
747.709000	-0.511366
747.909000	-0.532245
748.109000	-0.416240
748.309000	-0.692527
748.509000	-1.028598
748.709000	-0.992854
748.909000	-0.686084
749.109000	-0.808228
749.308000	-0.153063
749.508000	-0.532699
749.708000	-0.842227
749.908000	-0.333373
750.108000	-0.164178
750.308000	-0.717271
750.508000	0.046329
750.708000	-0.709271
750.908000	-1.407474
751.107000	-0.510440
751.307000	0.157806
751.507000	-0.339298
751.707000	-0.318576
751.907000	-0.492260
752.107000	-0.483721
752.307000	-0.925643
752.507000	-0.691944
752.706000	-0.619659
752.906000	0.294038
753.106000	-0.643763
753.306000	-1.349428
753.506000	-0.222059
753.706000	-0.555216
753.906000	-0.472111
754.106000	-0.243657
754.305000	-0.316956
754.505000	-0.380508
754.705000	-0.582288
754.905000	-0.509467
755.105000	-0.225594
755.305000	-1.007087
755.505000	-0.787663
755.705000	-0.258642
755.905000	-0.567748
756.104000	-1.249273
756.304000	-1.604730
756.504000	-1.725648
756.704000	-0.616894
756.904000	-0.444684
757.104000	-0.562043
757.304000	-0.508899
757.504000	-0.047528
757.703000	-0.544316
757.903000	-0.177545
758.103000	0.093294
758.303000	-0.341589
758.503000	-0.789691
758.703000	-0.813400
758.903000	-1.065329
759.103000	-0.629559
759.303000	-0.489313
759.502000	-0.623523
759.702000	-0.214392
759.902000	-0.804188
760.102000	-0.895187
760.302000	-0.451335
760.502000	-0.004455
760.702000	-0.116005
760.902000	-0.630437
761.101000	-0.901292
761.301000	-0.947791
761.501000	-0.599862
761.701000	-0.916234
761.901000	-0.819173
762.101000	-0.344698
762.301000	-0.662192
762.501000	-1.150710
762.700000	-1.190211
762.900000	-1.145018
763.100000	-0.780961
763.300000	-0.394369
763.500000	-0.612795
763.703000	-0.519249
763.905000	-0.991931
764.108000	-0.534599
764.311000	-0.557717
764.513000	-0.546854
764.716000	-0.606987
764.919000	-0.573002
765.121000	-1.130203
765.324000	-1.424565
765.527000	-1.244954
765.729000	-1.069411
765.932000	-0.121883
766.135000	-0.356167
766.337000	-0.625958
766.540000	-0.698578
766.743000	-0.300939
766.945000	-1.116236
767.148000	-1.569112
767.351000	-1.331900
767.553000	-0.337789
767.756000	-0.742974
767.958000	-1.183399
768.161000	-1.029521
768.364000	-1.128990
768.566000	-1.155433
768.769000	-0.762436
768.972000	-0.497799
769.174000	-0.824956
769.377000	-1.540940
769.580000	-1.447256
769.782000	-0.695144
769.985000	-1.304825
770.188000	-2.050791
770.390000	-1.143061
770.593000	0.154011
770.796000	-0.066054
770.998000	-0.580144
771.201000	-0.985077
771.404000	-0.618383
771.606000	-0.965747
771.809000	-0.669891
772.012000	-0.831575
772.214000	-1.770649
772.417000	-1.709095
772.620000	-0.608152
772.822000	-0.923019
773.025000	-1.220989
773.228000	-1.111385
773.430000	-0.926453
773.633000	-0.728595
773.836000	-0.592167
774.038000	-0.406302
774.241000	-0.907664
774.444000	-1.073931
774.646000	-0.105547
774.849000	-0.408030
775.052000	-0.622014
775.254000	-0.370922
775.457000	-0.887384
775.659000	-1.306468
775.862000	-1.193036
776.065000	-0.574714
776.267000	-0.195282
776.470000	0.147753
776.673000	-0.731627
776.875000	-0.222433
777.078000	-0.273133
777.281000	-1.375973
777.483000	-0.480682
777.686000	-0.275558
777.889000	-0.598114
778.091000	-0.225065
778.294000	-1.154722
778.497000	-1.337267
778.699000	-1.131243
778.902000	-0.810420
779.105000	-0.589672
779.307000	0.176894
779.510000	-0.813446
779.713000	-0.410923
779.915000	-0.858698
780.118000	-0.070971
780.321000	0.060531
780.523000	-0.902163
780.726000	-1.298389
780.929000	-1.245160
781.131000	-0.969663
781.334000	-1.583211
781.537000	-1.587640
781.739000	-0.511065
781.942000	-0.884430
782.145000	-1.652154
782.347000	-1.706785
782.550000	-1.024192
782.753000	-1.041008
782.955000	-1.003379
783.158000	-0.800612
783.361000	-0.789077
783.563000	-1.018942
783.766000	-1.075779
783.968000	1.039436
784.171000	0.921518
784.374000	-0.632578
784.576000	-0.714165
784.779000	-0.277596
784.982000	0.145072
785.184000	-0.734800
785.387000	-0.198451
785.590000	0.752057
785.792000	0.381602
785.995000	-0.185554
786.198000	-0.102637
786.400000	-0.409496
786.603000	-0.661884
786.806000	-0.729444
787.008000	-0.423147
787.211000	-0.215131
787.414000	-1.239132
787.616000	-1.032761
787.819000	-1.077505
788.022000	-1.615615
788.224000	-0.996698
788.427000	-1.422232
788.630000	-0.943900
788.832000	-0.701478
789.035000	-1.508470
789.238000	-2.084931
789.440000	-1.266278
789.643000	-0.263023
789.846000	-0.779849
790.048000	-0.451224
790.251000	-0.264475
790.454000	-0.708637
790.656000	0.123821
790.859000	-0.669605
791.062000	-1.335786
791.264000	-0.641342
791.467000	-1.354837
791.669000	-1.807151
791.872000	-0.560621
792.075000	-1.114115
792.277000	-0.837180
792.480000	-0.460459
792.683000	-0.824807
792.885000	-1.469694
793.088000	-1.416316
793.291000	-1.537689
793.493000	-1.820850
793.696000	-0.817784
793.899000	-0.361172
794.101000	-0.480702
794.304000	-0.689969
794.507000	-0.661208
794.709000	-0.677976
794.912000	-1.235463
795.115000	-1.493220
795.317000	-0.877063
795.520000	-0.714975
795.723000	-0.778437
795.925000	-1.295246
796.128000	-1.975214
796.331000	-1.373822
796.533000	-1.514190
796.736000	-0.802235
796.939000	-0.681383
797.141000	-0.975533
797.344000	-0.190980
797.547000	-0.067797
797.749000	-0.561669
797.952000	-1.122836
798.155000	-1.151333
798.357000	-1.080426
798.560000	-1.070869
798.763000	-0.616210
798.965000	-1.146879
799.168000	-1.212907
799.371000	-1.010367
799.573000	-1.328562
799.776000	-1.803498
799.978000	-1.588285
800.181000	-0.862233
800.384000	0.581002
800.586000	-0.245040
800.789000	-1.612748
800.992000	-1.595761
801.194000	-1.678931
801.397000	-1.922826
801.600000	-1.608906
801.802000	-0.471836
802.005000	-0.441139
802.208000	-1.734075
802.410000	-0.877586
802.613000	-0.832850
802.816000	-0.785155
803.018000	-2.023415
803.221000	-1.962009
803.424000	-0.365784
803.626000	-0.170092
803.829000	-0.662848
804.032000	0.059222
804.234000	0.618348
804.437000	-1.030618
804.640000	-1.161773
804.842000	-0.949408
805.045000	-1.419561
805.248000	-1.405564
805.450000	-1.487379
805.653000	-1.346123
805.856000	-1.277755
806.058000	-0.057038
806.261000	-1.234254
806.464000	-1.117663
806.666000	-0.613665
806.869000	-1.160541
807.072000	-1.974743
807.274000	-2.077897
807.477000	-1.079235
807.679000	-1.063096
807.882000	-1.851033
808.085000	-1.296207
808.287000	-0.368253
808.490000	-1.403425
808.693000	-1.266389
808.895000	-0.680542
809.098000	-1.009211
809.301000	-1.029925
809.503000	-1.313017
809.706000	-0.287148
809.909000	0.098035
810.111000	0.028049
810.314000	-0.586863
810.517000	-1.460635
810.719000	-1.468866
810.922000	-1.351278
811.125000	-0.060006
811.327000	-0.113599
811.530000	-0.559553
811.735000	-1.199265
811.940000	-1.540777
812.146000	-1.224914
812.351000	-0.401172
812.556000	-0.546197
812.761000	-1.467155
812.967000	-0.550294
813.172000	-0.405053
813.377000	-0.678388
813.582000	-0.171228
813.788000	-0.410849
813.993000	-1.379477
814.198000	-1.051187
814.403000	-1.691215
814.609000	-0.707265
814.814000	-0.414432
815.019000	0.417368
815.224000	0.158739
815.429000	-1.270922
815.635000	-0.902132
815.840000	-0.828473
816.045000	-0.663550
816.250000	-0.138932
816.456000	-1.700123
816.661000	-2.690355
816.866000	-1.654873
817.071000	-1.237535
817.277000	-2.369145
817.482000	-1.934457
817.687000	-1.094351
817.892000	-0.947160
818.097000	-0.219253
818.303000	0.261562
818.508000	0.280247
818.713000	6.579569
818.918000	3.481039
819.124000	-0.200974
819.329000	-1.424436
819.534000	-1.545467
819.739000	-1.234140
819.945000	-1.298635
820.150000	-1.069989
820.355000	-0.874998
820.560000	-0.577831
820.766000	-0.756651
820.971000	-0.800652
821.176000	-2.630292
821.381000	-3.177354
821.586000	-2.020666
821.792000	-0.487936
821.997000	-1.188952
822.202000	-1.370443
822.407000	-1.897107
822.613000	-2.082339
822.818000	-1.360891
823.023000	-1.119960
823.228000	-1.106846
823.434000	-0.435068
823.639000	0.114094
823.844000	-0.886558
824.049000	0.094036
824.255000	-0.192783
824.460000	-1.038471
824.665000	-1.535115
824.870000	-0.401642
825.075000	-0.505796
825.281000	-0.694446
825.486000	0.619088
825.691000	-1.830746
825.896000	-3.072605
826.102000	-1.478455
826.307000	-0.808394
826.512000	-1.445337
826.717000	-1.343815
826.923000	-1.538960
827.128000	-0.754124
827.333000	-1.295015
827.538000	-0.675758
827.744000	-0.073349
827.949000	-1.171360
828.154000	-0.743713
828.359000	-0.116687
828.564000	-0.573333
828.770000	-1.011843
828.975000	0.187965
829.180000	-0.579934
829.385000	-2.248586
829.591000	-1.794967
829.796000	-0.983965
830.001000	-1.341104
830.206000	-1.946731
830.412000	-1.610979
830.617000	-1.681785
830.822000	-0.569369
831.027000	-1.306187
831.232000	-1.629138
831.438000	-1.323393
831.643000	-0.824784
831.848000	-1.144808
832.053000	-1.194781
832.259000	-1.287577
832.464000	-3.237138
832.669000	-2.559551
832.874000	-2.165430
833.080000	-2.036762
833.285000	-0.632329
833.490000	-0.840625
833.695000	-2.008469
833.901000	-1.504097
834.106000	-1.529783
834.311000	-1.208626
834.516000	-1.069178
834.721000	-1.548871
834.927000	-0.057074
835.132000	-0.724357
835.337000	0.252948
835.542000	-0.273656
835.748000	-2.070003
835.953000	-0.370235
836.158000	-0.443443
836.363000	-0.662996
836.569000	-0.790058
836.774000	-2.086096
836.979000	-2.259832
837.184000	-2.485965
837.390000	-2.195768
837.595000	-1.167318
837.800000	-0.873796
838.005000	-1.152330
838.210000	-1.575203
838.416000	-2.080140
838.621000	-1.560551
838.826000	-1.484616
839.031000	-1.391751
839.237000	-2.212061
839.442000	-2.900050
839.647000	-3.098217
839.852000	-2.069301
840.058000	-2.102292
840.263000	-2.292088
840.468000	-2.243066
840.673000	-1.421949
840.878000	-1.500364
841.084000	-2.775676
841.289000	-1.513103
841.494000	1.189701
841.699000	1.350695
841.905000	0.855591
842.110000	0.385249
842.315000	-2.152469
842.520000	-1.489894
842.726000	-1.625854
842.931000	-1.756826
843.136000	-0.943396
843.341000	-2.104910
843.547000	-1.350387
843.752000	-1.486053
843.957000	-2.282492
844.162000	-2.021604
844.367000	-1.753697
844.573000	-0.968139
844.778000	-0.283674
844.983000	-0.667175
845.188000	-0.230861
845.394000	-1.342214
845.599000	-1.781537
845.804000	-1.732098
846.009000	-0.905575
846.215000	-2.089105
846.420000	-2.151053
846.625000	-0.915198
846.830000	-0.855616
847.036000	-1.425395
847.241000	-1.772259
847.446000	-0.096554
847.651000	-0.781384
847.856000	-2.428691
848.062000	-2.262727
848.267000	-0.588945
848.472000	-1.923607
848.677000	-3.207218
848.883000	-1.606034
849.088000	0.310404
849.293000	-0.746730
849.498000	-1.450450
849.704000	-0.423988
849.909000	-0.897406
850.114000	-2.904852
850.319000	-1.698287
850.524000	-1.320882
850.730000	-1.328375
850.935000	-1.994559
851.140000	-0.764990
851.345000	-0.283067
851.551000	0.169143
851.756000	-0.589112
851.961000	-2.326179
852.166000	-2.205534
852.372000	-1.294988
852.577000	-1.242919
852.782000	-1.593331
852.987000	-0.136006
853.193000	-0.136496
853.398000	-0.757159
853.603000	-2.593776
853.808000	-2.812954
854.013000	-1.515631
854.219000	-0.169407
854.424000	1.215641
854.629000	1.281451
854.834000	-1.188330
855.040000	-0.876172
855.245000	-0.968854
855.450000	-3.730047
855.655000	-4.354401
855.861000	-4.157175
856.066000	-2.539175
856.271000	-2.283747
856.476000	0.084633
856.682000	-1.026045
856.887000	-4.159336
857.092000	-2.761249
857.297000	-0.013139
857.502000	-0.441028
857.708000	-1.299281
857.913000	0.383193
858.118000	-0.346719
858.323000	-1.752065
858.529000	-1.281971
858.734000	-1.821066
858.939000	-2.296473
859.144000	-2.472683
859.350000	-2.776265
859.555000	-3.122924
859.760000	-1.033058
859.965000	0.767774
860.171000	-1.105461
860.376000	-0.185013
860.581000	-2.762006
860.786000	-5.188438
860.991000	-4.414159
861.197000	-2.887883
861.402000	-0.951498
861.607000	-1.542828
861.812000	-3.538647
862.018000	-3.412095
862.223000	-2.084806
862.428000	-1.320394
862.633000	-0.049449
862.839000	-1.506987
863.044000	-2.917319
863.249000	-3.088114
863.454000	-1.409635
863.659000	-1.808662
863.865000	-2.286494
864.070000	-2.617924
864.275000	-3.853772
864.480000	-2.670687
864.686000	-3.922228
864.891000	-3.706193
865.096000	-1.520125
865.301000	-0.750448
865.507000	-0.643854
865.712000	-0.791813
865.917000	-1.281004
866.122000	-0.724391
866.328000	-3.507309
866.533000	-4.217842
866.738000	-1.217369
866.943000	-0.692803
867.148000	-0.166602
867.354000	-3.831383
867.559000	-4.405075
867.764000	-1.472977
867.969000	-0.632275
868.175000	-2.474454
868.380000	-3.022945
868.585000	-3.876263
868.790000	-0.984033
868.996000	-2.082467
869.201000	-3.730109
869.406000	-4.963515
869.611000	-4.105414
869.817000	-3.079566
870.022000	1.403669
870.227000	-0.648222
870.432000	-3.431834
870.637000	-1.924661
870.843000	-2.455802
871.048000	-2.657069
871.253000	-0.736722
871.458000	-1.827009
871.664000	-2.770085
871.869000	-3.641941
872.074000	-3.652912
872.279000	-2.589296
872.485000	-2.688189
872.690000	-2.947537
872.895000	-2.089213
873.100000	-2.963218
873.306000	-4.142803
873.511000	-2.073243
873.716000	-0.773913
873.921000	-3.414787
874.126000	-3.462239
874.332000	-3.284195
874.537000	-1.850635
874.742000	-0.909580
874.947000	-1.425646
875.153000	0.241273
875.358000	-1.571951
875.563000	-1.743075
875.768000	-3.873389
875.974000	-4.933415
876.179000	-2.240494
876.384000	-1.900972
876.589000	-3.597724
876.794000	-3.203584
877.000000	-3.737644
877.205000	-4.794397
877.410000	-2.417891
877.615000	-3.478715
877.821000	-5.121103
878.026000	-3.152998
878.231000	-4.450809
878.436000	-5.445023
878.642000	-4.760074
878.847000	-2.371756
879.052000	-0.876841
879.257000	-2.753693
879.463000	-3.624919
879.668000	-3.763023
879.873000	-1.164578
880.078000	-3.695331
880.283000	-5.878338
880.489000	-5.924350
880.694000	-4.281841
880.899000	-3.100206
881.104000	-1.847049
881.310000	1.621987
881.515000	-0.627447
881.720000	0.685280
881.925000	2.246801
882.131000	3.049421
882.336000	0.076109
882.541000	-4.381892
882.746000	-3.488116
882.952000	-3.676551
883.157000	-4.312741
883.362000	-4.560942
883.567000	-4.725586
883.772000	-4.181849
883.978000	-3.549149
884.183000	-1.984965
884.388000	-2.274433
884.593000	-5.658954
884.799000	-0.216731
885.004000	-0.519510
885.209000	-2.268833
885.414000	-2.759087
885.620000	-4.986228
885.825000	-1.030684
886.030000	-2.390142
886.235000	-3.216577
886.440000	-2.015591
886.646000	-4.793949
886.851000	-4.508548
887.056000	-0.796958
887.261000	-2.506730
887.467000	-5.221075
887.672000	-2.638798
887.877000	-4.494101
888.082000	-6.313315
888.288000	-4.867854
888.493000	-8.070147
888.698000	-6.414870
888.903000	-2.692190
889.109000	-4.232485
889.314000	-0.981385
889.519000	-2.518522
889.724000	-1.298318
889.929000	-2.738177
890.135000	-3.546771
890.340000	-3.250357
890.545000	-3.517823
890.750000	-5.250650
890.956000	-4.456816
891.161000	-1.965943
891.366000	-4.246308
891.571000	-2.844755
891.777000	-1.380233
891.982000	-0.240263
892.187000	-1.283241
892.392000	-0.897226
892.598000	-0.847327
892.803000	-1.409893
893.008000	-4.070220
893.213000	-5.331511
893.418000	-5.146305
893.624000	-3.324937
893.829000	-5.286362
894.034000	-4.399728
894.239000	-2.560335
894.445000	-4.186073
894.650000	-3.754789
894.855000	-3.306523
895.060000	-4.883678
895.266000	-5.825047
895.471000	-6.511511
895.676000	-2.136196
895.881000	-2.212193
896.087000	-3.653128
896.292000	-3.502907
896.497000	0.909167
896.702000	-1.938747
896.907000	-5.371757
897.113000	0.210062
897.318000	-0.023328
897.523000	-1.836112
897.728000	-2.430180
897.934000	-2.012772
898.139000	-4.541226
898.344000	-2.037288
898.549000	-2.882744
898.755000	-5.153342
898.960000	-4.404990
899.165000	-6.928669
899.370000	-2.737349
899.575000	1.305675
899.781000	-3.782659
899.986000	-4.146592
900.191000	-2.159751
900.396000	-3.261712
900.602000	-3.527083
900.807000	-5.160935
901.012000	-2.454019
901.217000	-1.835717
901.423000	-4.754015
901.628000	-4.894797
901.833000	-0.276076
902.038000	-0.973778
902.244000	-5.322159
902.449000	-3.704317
902.654000	-5.025331
902.859000	-4.757772
903.064000	-1.182294
903.270000	-0.670656
903.475000	-5.317734
903.680000	-7.375340
903.885000	-6.719312
904.091000	-5.708798
904.296000	-6.190536
904.501000	-6.280938
904.706000	-5.310402
904.912000	-1.896065
905.117000	-3.848244
905.322000	-6.380197
905.527000	-5.139688
905.733000	-4.335253
905.938000	-4.023690
906.143000	-6.060076
906.348000	-8.534822
906.553000	-1.962441
906.759000	-1.132532
906.964000	-3.428342
907.169000	-4.494511
907.374000	-7.339488
907.580000	-5.908460
907.785000	-4.514829
907.990000	25.069674
908.195000	16.049566
908.401000	-2.548064
908.606000	-10.016667
908.811000	-11.380466
909.016000	-3.422617
909.221000	-3.143711
909.427000	-4.472876
909.632000	-6.202368
909.837000	-5.135593
910.042000	-5.966826
910.248000	-8.159349
910.453000	-5.126022
910.658000	-6.373308
910.863000	-6.442099
911.069000	-8.282598
911.274000	-3.996300
911.479000	-1.335183
911.684000	-7.697333
911.890000	-4.895920
912.095000	-5.443181
912.300000	-8.908245
912.506000	-8.835024
912.711000	-7.525259
912.917000	-4.058109
913.123000	-3.587602
913.328000	-4.404873
913.534000	-4.926717
913.740000	5.623856
913.946000	1.510446
914.151000	-8.018181
914.357000	-8.451916
914.563000	-2.389577
914.768000	-6.340327
914.974000	-10.049896
915.180000	-9.061001
915.385000	-7.083143
915.591000	-10.786790
915.797000	-5.810307
916.002000	-0.547252
916.208000	-4.715837
916.414000	-6.574852
916.620000	-8.400003
916.825000	-4.792791
917.031000	-5.662226
917.237000	-10.638936
917.442000	-7.415213
917.648000	-8.181788
917.854000	-9.149765
918.059000	-2.619468
918.265000	-1.904300
918.471000	-5.670281
918.676000	-9.436915
918.882000	-9.681173
919.088000	-7.602331
919.294000	-14.090934
919.499000	-9.193755
919.705000	-3.199065
919.911000	-3.663886
920.116000	-1.634257
920.322000	-8.903994
920.528000	-7.813714
920.733000	-9.172740
920.939000	-9.307114
921.145000	-9.864007
921.350000	-8.819731
921.556000	-4.662541
921.762000	-6.515095
921.968000	-7.714473
922.173000	-7.865222
922.379000	-10.035051
922.585000	-6.582746
922.790000	-9.518539
922.996000	-8.982971
923.202000	-10.428527
923.407000	-9.976359
923.613000	-7.917207
923.819000	-6.075790
924.024000	-5.211131
924.230000	-1.186145
924.436000	-5.486597
924.642000	3.667891
924.847000	1.563782
925.053000	-6.569571
925.259000	-12.471326
925.464000	-5.219519
925.670000	-7.801386
925.876000	-9.197072
926.081000	-8.917724
926.287000	-3.118059
926.493000	-2.055783
926.698000	-3.961746
926.904000	-4.827269
927.110000	-8.101156
927.316000	-6.449832
927.521000	-0.839986
927.727000	-5.230919
927.933000	-6.989383
928.138000	-8.414665
928.344000	-12.039559
928.550000	-8.289433
928.755000	-3.739734
928.961000	-8.962310
929.167000	-8.777769
929.372000	-1.008526
929.578000	-4.289350
929.784000	-10.545549
929.990000	-11.942851
930.195000	-11.359751
930.401000	-9.834171
930.607000	-5.760774
930.812000	-5.315606
931.018000	-8.107185
931.224000	-13.829069
931.429000	-11.841000
931.635000	-15.395804
931.841000	-16.321171
932.046000	-9.118166
932.252000	-4.740226
932.458000	1.261469
932.664000	-2.843678
932.869000	-8.832600
933.075000	-9.830240
933.281000	-10.105980
933.486000	-6.936325
933.692000	-5.723379
933.898000	-9.661890
934.103000	-4.238315
934.309000	-8.882478
934.515000	-6.424128
934.720000	-5.575093
934.926000	-1.668986
935.132000	-2.109891
935.338000	-3.761935
935.543000	-12.829854
935.749000	-15.224817
935.955000	-14.837850
936.160000	-14.855650
936.366000	-7.351623
936.572000	-7.338349
936.777000	-3.615160
936.983000	-2.491259
937.189000	-8.543222
937.394000	-15.433610
937.600000	-7.370810
937.806000	-0.568543
938.012000	-8.730744
938.217000	2.669534
938.423000	-0.413627
938.629000	-10.583494
938.834000	-16.388211
939.040000	-15.678764
939.246000	-8.915661
939.451000	-14.939285
939.657000	-13.097095
939.863000	-16.034123
940.068000	-3.223118
940.274000	-6.229208
940.480000	-7.445984
940.686000	-5.272759
940.891000	-9.998859
941.097000	16.218288
941.303000	5.373830
941.508000	-9.282957
941.714000	-5.592191
941.920000	-14.243483
942.125000	-6.696797
942.331000	-9.548088
942.537000	-2.294638
942.742000	-0.894648
942.948000	-11.672774
943.154000	-15.517641
943.360000	-25.566708
943.565000	-14.601787
943.771000	-0.293139
943.977000	5.115673
944.182000	-15.445293
944.388000	-20.933319
944.594000	-6.000562
944.799000	5.463826
945.005000	-5.750085
945.211000	2.231086
945.416000	0.983145
945.622000	-16.584468
945.828000	-12.431775
946.034000	-2.949642
946.239000	-4.072865
946.445000	-9.894294
946.651000	-24.597810
946.856000	-23.790701
947.062000	-4.452060
947.268000	-4.043738
947.473000	-19.065135
947.679000	-21.845272
947.885000	-5.879122
948.090000	-2.330243
948.296000	5.149450
948.502000	-8.623515
948.708000	-14.135564
948.913000	-16.366459
949.119000	-3.299588
949.325000	-10.638752
949.530000	-23.723444
949.736000	-27.528708
949.942000	-23.321447
950.147000	-22.344152
950.353000	-13.511035
950.559000	-8.967697
950.764000	8.178405
950.970000	2.220450
951.176000	-12.026612
951.382000	-18.510247
951.587000	-6.110058
951.793000	2.082435
951.999000	-1.766387
952.204000	-17.932962
952.410000	-33.061908
952.616000	-14.553451
952.821000	-6.536686
953.027000	-16.107239
953.233000	-23.694980
953.438000	-18.720113
953.644000	-0.832743
953.850000	-4.754707
954.056000	-17.684445
954.261000	-19.788111
954.467000	-2.847771
954.673000	1.645260
954.878000	-10.605871
955.084000	-9.116289
955.290000	-20.971538
955.495000	-26.076680
955.701000	-26.258598
955.907000	-7.017860
956.112000	-4.969359
956.318000	5.483695
956.524000	4.006072
956.730000	-8.712012
956.935000	-11.093017
957.141000	-19.852551
957.347000	-8.015754
957.552000	-10.904778
957.758000	-28.572218
957.964000	-40.844161
958.169000	1.765830
958.375000	1.234542
958.581000	-17.098323
958.786000	-30.632415
958.992000	-36.983955
959.198000	-13.895821
959.404000	-5.879264
959.609000	-12.618564
959.815000	-17.582446
960.021000	3.245214
960.226000	-1.806314
960.432000	-27.585265
960.638000	-21.153212
960.843000	-16.421204
961.049000	-20.851030
961.255000	-6.194052
961.460000	-21.397976
961.666000	-38.315451
961.872000	-25.952844
962.078000	-19.628418
962.283000	-28.871276
962.489000	-31.584938
962.695000	-21.262602
962.900000	-12.105790
963.106000	-15.871458
963.312000	-19.759595
963.517000	-21.749871
963.723000	-29.197641
963.929000	-12.258482
964.134000	1.738912
964.340000	-14.569298
964.546000	-22.963233
964.752000	-28.152861
964.957000	-30.965257
965.163000	-0.777049
965.369000	-5.379529
965.574000	-9.412014
965.780000	-15.058524
966.000000	-26.357289
966.220000	-20.170064
966.440000	-15.241166
966.661000	-0.472834
966.881000	-26.898880
967.101000	-51.642624
967.321000	-45.268835
967.541000	-22.447292
967.761000	-23.748770
967.981000	-16.099253
968.202000	-16.123952
968.422000	-8.343956
968.642000	-5.118946
968.862000	-5.951755
969.082000	-15.865985
969.302000	-12.985234
969.522000	-20.554146
969.743000	-5.563822
969.963000	-23.779914
970.183000	-36.308532
970.403000	-30.865825
970.623000	-22.769942
970.843000	-7.782065
971.063000	-8.289530
971.284000	-22.369613
971.504000	-40.129516
971.724000	-17.973134
971.944000	-31.610352
972.164000	-45.810515
972.384000	-28.046653
972.604000	-42.591159
972.825000	-50.585974
973.045000	-31.196462
973.265000	17.513373
973.485000	-2.679825
973.705000	-15.748031
973.925000	-19.405787
974.145000	-53.681202
974.365000	-18.124116
974.586000	-17.349640
974.806000	-38.334074
975.026000	-17.418985
975.246000	-24.930634
975.466000	-38.167748
975.686000	-19.536794
975.906000	-22.639317
976.127000	-48.242482
976.347000	-43.348081
976.567000	-12.135285
976.787000	-11.711651
977.007000	-22.906547
977.227000	-30.679736
977.447000	-38.820466
977.668000	-61.300246
977.888000	-38.615002
978.108000	-43.771901
978.328000	-32.964544
978.548000	-1.173558
978.768000	9.264607
978.988000	-5.932098
979.209000	-26.625029
979.429000	-39.802675
979.649000	-23.122052
979.869000	-37.721417
980.089000	-52.008979
980.309000	-52.180389
980.529000	-61.871543
980.750000	-41.568075
980.970000	-45.650022
981.190000	-33.247534
981.410000	-39.235133
981.630000	-50.905070
981.850000	-29.108296
982.070000	-25.440369
982.291000	-67.488343
982.511000	-58.205019
982.731000	-10.969565
982.951000	-39.194604
983.171000	-32.210373
983.391000	-27.100124
983.611000	2.177478
983.832000	-42.889854
984.052000	-60.396620
984.272000	-35.242565
984.492000	-30.990994
984.712000	-46.301285
984.932000	-76.389440
985.152000	-88.017427
985.373000	-72.003494
985.593000	-40.119107
985.813000	-49.747503
986.033000	-45.752522
986.253000	-21.635102
986.473000	-7.469107
986.693000	-35.349786
986.914000	-61.709691
987.134000	-29.935141
987.354000	-40.509973
987.574000	187.045128
987.794000	111.062527
988.014000	-54.288997
988.234000	-29.751967
988.455000	-7.169326
988.675000	-30.967104
988.895000	-47.118994
989.115000	-50.107922
989.335000	-29.984640
989.555000	-19.797900
989.775000	-49.453863
989.995000	-46.446200
990.216000	-34.053694
990.436000	-25.069141
990.656000	12.328248
990.876000	-30.790388
991.096000	-27.302721
991.316000	11.353717
991.536000	-22.312014
991.757000	-64.088358
991.977000	-113.427395
992.197000	-28.007811
992.417000	-57.202760
992.637000	-114.903533
992.857000	-107.432220
993.077000	-102.463173
993.298000	-69.685612
993.518000	-64.657908
993.738000	-99.001988
993.958000	-46.657223
994.178000	-61.367203
994.398000	-73.566073
994.618000	-98.819843
994.839000	-124.206740
995.059000	-30.715348
995.279000	29.235813
995.499000	-27.091920
995.719000	-18.908895
995.939000	-26.158217
996.159000	-16.937406
996.380000	-40.931948
996.600000	-91.231241
996.820000	-51.131581
997.040000	-0.448373
997.260000	-83.979101
997.480000	-56.475325
997.700000	-131.957672
997.921000	-83.250411
998.141000	23.301710
998.361000	4.112539
998.581000	-57.131040
998.801000	-123.063873
999.021000	-80.625858
999.241000	-37.028081
999.462000	-69.271547
999.682000	-92.665246
999.902000	-61.810052
1000.122000	-96.239245
1000.342000	-153.683252
1000.562000	-79.600589
1000.782000	-81.036554
1001.003000	-1057.012645
