Wavelength	Irradiance
(nm)	(mW/cm2/nm)

294.396000	0.000000
294.577000	0.000000
294.757000	-0.000000
294.938000	-0.000000
295.118000	0.000000
295.299000	0.000000
295.479000	-0.000000
295.660000	-0.000000
295.840000	-0.000000
296.021000	-0.000000
296.202000	-0.000000
296.382000	-0.000000
296.563000	-0.000000
296.743000	-0.000000
296.924000	-0.000000
297.104000	-0.000000
297.285000	-0.000000
297.465000	-0.000000
297.646000	-0.000000
297.826000	-0.000000
298.007000	0.000000
298.187000	0.000000
298.368000	-0.000000
298.548000	0.000000
298.729000	0.000000
298.909000	-0.000000
299.090000	-0.000000
299.270000	-0.000000
299.451000	-0.000000
299.631000	-0.000000
299.812000	-0.000000
299.992000	0.000000
300.173000	0.000000
300.353000	-0.000000
300.534000	-0.000000
300.714000	0.000000
300.895000	0.000000
301.075000	-0.000000
301.256000	0.000000
301.436000	-0.000000
301.617000	-0.000000
301.797000	-0.000000
301.978000	-0.000000
302.159000	0.000000
302.339000	0.000000
302.520000	-0.000000
302.700000	-0.000000
302.881000	0.000000
303.061000	0.000000
303.242000	0.000000
303.422000	0.000000
303.603000	-0.000000
303.783000	-0.000000
303.964000	-0.000000
304.144000	-0.000000
304.325000	-0.000000
304.505000	-0.000000
304.686000	-0.000000
304.866000	0.000000
305.047000	-0.000000
305.227000	-0.000000
305.408000	-0.000000
305.588000	-0.000000
305.769000	-0.000000
305.949000	-0.000000
306.130000	-0.000000
306.310000	-0.000000
306.491000	-0.000000
306.671000	0.000000
306.852000	-0.000000
307.032000	-0.000000
307.213000	-0.000000
307.393000	-0.000000
307.574000	0.000000
307.755000	0.000000
307.935000	-0.000000
308.116000	-0.000000
308.296000	-0.000000
308.477000	0.000000
308.657000	0.000000
308.838000	0.000000
309.018000	0.000000
309.199000	-0.000000
309.379000	-0.000000
309.560000	-0.000000
309.740000	-0.000000
309.921000	0.000000
310.101000	0.000000
310.282000	-0.000000
310.462000	-0.000000
310.643000	-0.000000
310.823000	-0.000000
311.004000	-0.000000
311.184000	-0.000000
311.365000	0.000000
311.545000	0.000000
311.726000	-0.000000
311.906000	-0.000000
312.087000	-0.000000
312.267000	-0.000000
312.448000	-0.000000
312.628000	-0.000000
312.809000	-0.000000
312.989000	-0.000000
313.170000	-0.000000
313.344000	-0.000000
313.518000	-0.000000
313.691000	-0.000000
313.865000	-0.000000
314.039000	-0.000000
314.213000	-0.000000
314.387000	-0.000000
314.560000	-0.000000
314.734000	-0.000000
314.908000	-0.000000
315.082000	-0.000000
315.255000	0.000000
315.429000	0.000000
315.603000	0.000000
315.777000	-0.000000
315.951000	0.000000
316.124000	-0.000000
316.298000	-0.000000
316.472000	-0.000000
316.646000	-0.000000
316.820000	-0.000000
316.993000	-0.000000
317.167000	-0.000000
317.341000	-0.000000
317.515000	-0.000000
317.688000	-0.000000
317.862000	-0.000000
318.036000	-0.000000
318.210000	-0.000000
318.384000	-0.000000
318.557000	-0.000000
318.731000	-0.000000
318.905000	-0.000000
319.079000	-0.000000
319.253000	-0.000000
319.426000	0.000000
319.600000	0.000000
319.774000	-0.000000
319.948000	-0.000000
320.122000	0.000000
320.295000	0.000000
320.469000	-0.000000
320.643000	-0.000000
320.817000	-0.000000
320.990000	-0.000000
321.164000	-0.000000
321.338000	-0.000000
321.512000	-0.000000
321.686000	-0.000000
321.859000	-0.000000
322.033000	-0.000000
322.207000	-0.000000
322.381000	-0.000000
322.555000	0.000000
322.728000	-0.000000
322.902000	-0.000000
323.076000	-0.000000
323.250000	-0.000000
323.423000	-0.000000
323.597000	-0.000000
323.771000	-0.000000
323.945000	-0.000000
324.119000	-0.000000
324.292000	0.000000
324.466000	-0.000000
324.640000	0.000000
324.814000	0.000000
324.988000	-0.000000
325.161000	-0.000000
325.335000	-0.000000
325.509000	-0.000000
325.683000	-0.000000
325.856000	-0.000000
326.030000	-0.000000
326.204000	-0.000000
326.378000	-0.000000
326.552000	-0.000000
326.725000	-0.000000
326.899000	-0.000000
327.073000	-0.000000
327.247000	-0.000000
327.421000	0.000000
327.594000	-0.000000
327.768000	-0.000000
327.942000	-0.000000
328.116000	-0.000000
328.289000	-0.000000
328.463000	-0.000000
328.637000	0.000000
328.811000	-0.000000
328.985000	-0.000000
329.158000	-0.000000
329.332000	-0.000000
329.506000	-0.000000
329.680000	-0.000000
329.854000	-0.000000
330.027000	0.000000
330.201000	0.000000
330.375000	0.000000
330.549000	0.000000
330.723000	-0.000000
330.896000	-0.000000
331.070000	-0.000000
331.244000	-0.000000
331.418000	-0.000000
331.591000	-0.000000
331.765000	-0.000000
331.939000	-0.000000
332.113000	-0.000000
332.287000	-0.000000
332.460000	0.000000
332.634000	0.000000
332.808000	-0.000000
332.982000	-0.000000
333.156000	-0.000000
333.329000	-0.000000
333.503000	-0.000000
333.677000	-0.000000
333.851000	-0.000000
334.024000	-0.000000
334.198000	-0.000000
334.372000	-0.000000
334.546000	-0.000000
334.720000	-0.000000
334.893000	-0.000000
335.067000	-0.000000
335.241000	0.000000
335.415000	-0.000000
335.589000	-0.000000
335.762000	-0.000000
335.936000	-0.000000
336.110000	-0.000000
336.284000	-0.000000
336.458000	-0.000000
336.631000	-0.000000
336.805000	-0.000000
336.979000	-0.000000
337.153000	-0.000000
337.326000	-0.000000
337.500000	-0.000000
337.674000	-0.000000
337.848000	-0.000000
338.022000	-0.000000
338.195000	-0.000000
338.369000	-0.000000
338.543000	-0.000000
338.717000	-0.000000
338.891000	0.000000
339.064000	0.000000
339.238000	-0.000000
339.412000	-0.000000
339.586000	-0.000000
339.759000	-0.000000
339.933000	-0.000000
340.107000	0.000000
340.281000	-0.000000
340.455000	-0.000000
340.628000	-0.000000
340.802000	-0.000000
340.976000	-0.000000
341.150000	-0.000000
341.324000	-0.000000
341.497000	-0.000000
341.671000	-0.000000
341.845000	-0.000000
342.019000	-0.000000
342.192000	-0.000000
342.366000	-0.000000
342.540000	-0.000000
342.714000	-0.000000
342.888000	-0.000000
343.061000	0.000000
343.235000	-0.000000
343.409000	-0.000000
343.583000	-0.000000
343.757000	-0.000000
343.930000	-0.000000
344.104000	-0.000000
344.278000	0.000000
344.452000	0.000000
344.626000	-0.000000
344.799000	-0.000000
344.973000	-0.000000
345.147000	-0.000000
345.321000	-0.000000
345.494000	-0.000000
345.668000	0.000000
345.842000	0.000000
346.016000	-0.000000
346.190000	0.000000
346.363000	0.000000
346.537000	-0.000000
346.711000	-0.000000
346.885000	-0.000000
347.059000	-0.000000
347.232000	0.000000
347.406000	0.000000
347.580000	-0.000000
347.754000	-0.000000
347.927000	-0.000000
348.101000	0.000000
348.275000	-0.000000
348.449000	-0.000000
348.623000	-0.000000
348.796000	0.000000
348.970000	0.000000
349.144000	-0.000000
349.318000	-0.000000
349.492000	-0.000000
349.665000	-0.000000
349.839000	-0.000000
350.013000	-0.000000
350.187000	-0.000000
350.361000	-0.000000
350.534000	-0.000000
350.708000	-0.000000
350.882000	-0.000000
351.056000	0.000000
351.229000	-0.000000
351.403000	-0.000000
351.577000	-0.000000
351.751000	-0.000000
351.925000	-0.000000
352.098000	-0.000000
352.272000	-0.000000
352.446000	-0.000000
352.620000	-0.000000
352.794000	-0.000000
352.967000	-0.000000
353.141000	0.000000
353.315000	0.000000
353.489000	-0.000000
353.662000	-0.000000
353.836000	-0.000000
354.010000	-0.000000
354.184000	-0.000000
354.358000	-0.000000
354.531000	-0.000000
354.705000	-0.000000
354.879000	-0.000000
355.053000	-0.000000
355.227000	0.000000
355.400000	-0.000000
355.574000	0.000000
355.748000	0.000000
355.922000	-0.000000
356.095000	-0.000000
356.269000	-0.000000
356.443000	-0.000000
356.617000	-0.000000
356.791000	-0.000000
356.964000	-0.000000
357.138000	-0.000000
357.312000	-0.000000
357.486000	-0.000000
357.660000	0.000000
357.833000	0.000000
358.007000	-0.000000
358.181000	-0.000000
358.355000	-0.000000
358.529000	-0.000000
358.702000	-0.000000
358.876000	-0.000000
359.050000	-0.000000
359.224000	-0.000000
359.397000	-0.000000
359.571000	-0.000000
359.745000	-0.000000
359.919000	-0.000000
360.093000	-0.098120
360.266000	0.008164
360.440000	0.055221
360.614000	0.082490
360.788000	-0.026041
360.962000	-0.246869
361.135000	-0.137009
361.309000	-0.278974
361.483000	-0.370014
361.657000	-0.413317
361.830000	-0.333793
362.004000	-0.110563
362.178000	-0.451710
362.352000	-0.359806
362.526000	-0.148679
362.699000	-0.112262
362.873000	-0.465039
363.047000	-0.453899
363.221000	-0.363135
363.395000	-0.248280
363.568000	-0.294763
363.742000	-0.292204
363.916000	-0.180771
364.090000	-0.267393
364.263000	-0.392372
364.437000	-0.461235
364.611000	-0.042052
364.785000	-0.047117
364.959000	-0.242073
365.132000	-0.223120
365.306000	-0.254882
365.480000	-0.063605
365.656000	-0.192188
365.831000	-0.208404
366.007000	-0.252699
366.183000	-0.199204
366.358000	-0.292647
366.534000	-0.229789
366.710000	-0.432197
366.886000	-0.303642
367.061000	-0.065965
367.237000	-0.021239
367.413000	-0.176387
367.588000	-0.411231
367.764000	-0.336006
367.940000	-0.360999
368.115000	-0.277463
368.291000	-0.372295
368.467000	-0.350688
368.643000	0.072748
368.818000	-0.230555
368.994000	-0.410059
369.170000	-0.415646
369.345000	-0.362864
369.521000	-0.357169
369.697000	-0.209126
369.872000	-0.294062
370.048000	-0.397256
370.224000	-0.362403
370.399000	-0.607815
370.575000	-0.427414
370.751000	-0.495444
370.927000	-0.432534
371.102000	-0.445343
371.278000	-0.443119
371.454000	-0.279607
371.629000	-0.040859
371.805000	-0.152146
371.981000	0.061956
372.156000	0.238634
372.332000	0.055659
372.508000	0.028781
372.683000	-0.017535
372.859000	-0.157080
373.035000	-0.238620
373.211000	0.213041
373.386000	0.015047
373.562000	-0.416011
373.738000	-0.570710
373.913000	-0.730836
374.089000	-0.494472
374.265000	-0.125764
374.440000	-0.070068
374.616000	0.019841
374.792000	-0.261041
374.968000	0.148199
375.143000	-0.050037
375.319000	-0.313615
375.495000	-0.346404
375.670000	-0.220675
375.846000	-0.110813
376.022000	-0.309570
376.197000	-0.307021
376.373000	-0.517566
376.549000	-0.502072
376.724000	-0.538720
376.900000	-0.336832
377.076000	-0.136469
377.252000	0.023344
377.427000	0.077703
377.603000	-0.305488
377.779000	-0.323900
377.954000	-0.467651
378.130000	-0.367659
378.306000	-0.321307
378.481000	-0.306429
378.657000	-0.273392
378.833000	-0.340268
379.009000	-0.235801
379.184000	0.028095
379.360000	-0.165300
379.536000	-0.257252
379.711000	-0.197066
379.887000	-0.244073
380.063000	-0.331253
380.238000	-0.473707
380.414000	-0.219324
380.590000	-0.362125
380.765000	-0.410766
380.941000	-0.263032
381.117000	-0.185793
381.293000	-0.216400
381.468000	-0.345540
381.644000	-0.337343
381.820000	-0.199553
381.995000	-0.021590
382.171000	0.217826
382.347000	0.113746
382.522000	-0.317780
382.698000	-0.079491
382.874000	-0.052618
383.050000	-0.425530
383.225000	-0.070808
383.401000	0.180747
383.577000	-0.139467
383.752000	-0.354375
383.928000	-0.282687
384.104000	-0.212558
384.279000	-0.290002
384.455000	-0.162548
384.631000	-0.207021
384.806000	-0.483570
384.982000	-0.158547
385.158000	-0.146516
385.334000	-0.126680
385.509000	-0.215547
385.685000	-0.528507
385.861000	-0.371518
386.036000	-0.463751
386.212000	-0.640646
386.388000	-0.464229
386.563000	-0.353861
386.739000	-0.313345
386.915000	-0.566227
387.090000	-0.310901
387.266000	-0.079009
387.442000	-0.016851
387.618000	-0.122305
387.793000	-0.407343
387.969000	-0.575665
388.145000	-0.436923
388.320000	-0.369011
388.496000	-0.313085
388.672000	-0.638325
388.847000	-0.226795
389.023000	-0.126906
389.199000	-0.477497
389.375000	-0.282938
389.550000	-0.341457
389.726000	-0.142489
389.902000	-0.418047
390.077000	-0.269745
390.253000	-0.226341
390.429000	-0.223274
390.604000	-0.103881
390.780000	-0.198912
390.956000	-0.313730
391.131000	-0.390553
391.307000	0.000861
391.483000	-0.218574
391.659000	-0.465343
391.834000	-0.269926
392.010000	-0.398331
392.186000	-0.411639
392.361000	-0.291956
392.537000	-0.434147
392.713000	0.000847
392.888000	0.238271
393.064000	-0.105521
393.240000	-0.347171
393.416000	-0.387217
393.591000	-0.432498
393.767000	-0.467968
393.943000	-0.327422
394.118000	-0.011718
394.294000	0.101213
394.470000	-0.095113
394.645000	-0.090652
394.821000	0.168136
394.997000	-0.157113
395.172000	-0.201764
395.348000	-0.297441
395.524000	-0.544187
395.700000	-0.374521
395.875000	-0.216699
396.051000	-0.306590
396.227000	-0.284099
396.402000	-0.231641
396.578000	-0.148236
396.754000	-0.357460
396.929000	-0.347664
397.105000	-0.076961
397.281000	-0.142415
397.457000	-0.297058
397.632000	-0.366602
397.808000	-0.608665
397.984000	-0.704164
398.159000	-0.578854
398.335000	-0.341332
398.511000	0.143112
398.686000	-0.096661
398.862000	-0.382421
399.038000	-0.473978
399.213000	-0.255496
399.389000	-0.442922
399.565000	-0.135963
399.741000	0.053039
399.916000	-0.129009
400.092000	0.105771
400.268000	-0.275464
400.443000	-0.375986
400.619000	0.008897
400.795000	-0.112837
400.970000	-0.299587
401.146000	-0.373135
401.322000	-0.120631
401.497000	0.300143
401.673000	0.171581
401.849000	-0.262597
402.025000	-0.180780
402.200000	-0.244677
402.376000	-0.329042
402.552000	0.081591
402.727000	-0.051459
402.903000	-0.436483
403.079000	-0.388603
403.254000	-0.059466
403.430000	-0.027140
403.606000	-0.111137
403.782000	-0.246749
403.957000	-0.459665
404.133000	-0.581285
404.309000	-0.376436
404.484000	-0.155155
404.660000	-0.143558
404.841000	-0.260008
405.023000	-0.122908
405.204000	-0.107262
405.385000	-0.357034
405.566000	-0.391452
405.748000	-0.286338
405.929000	-0.117058
406.110000	-0.095617
406.292000	-0.174211
406.473000	-0.118820
406.654000	-0.256408
406.835000	-0.207469
407.017000	-0.278507
407.198000	-0.231999
407.379000	-0.215621
407.560000	-0.287341
407.742000	-0.337302
407.923000	-0.239181
408.104000	-0.349505
408.286000	-0.197837
408.467000	-0.252826
408.648000	-0.476210
408.829000	-0.514146
409.011000	-0.383909
409.192000	-0.496887
409.373000	-0.277532
409.555000	-0.190091
409.736000	-0.165116
409.917000	-0.225202
410.098000	-0.274913
410.280000	-0.190811
410.461000	-0.085088
410.642000	-0.147810
410.823000	0.067233
411.005000	-0.007045
411.186000	-0.292954
411.367000	-0.406883
411.549000	-0.367418
411.730000	-0.151938
411.911000	-0.010946
412.092000	-0.182411
412.274000	-0.177169
412.455000	-0.216299
412.636000	-0.197097
412.818000	-0.316111
412.999000	-0.367709
413.180000	-0.304285
413.361000	-0.313170
413.543000	-0.350048
413.724000	-0.383759
413.905000	-0.376081
414.087000	-0.442376
414.268000	-0.479450
414.449000	-0.465073
414.630000	-0.520546
414.812000	-0.634252
414.993000	-0.188869
415.174000	-0.022007
415.355000	-0.274118
415.537000	-0.470552
415.718000	-0.174260
415.899000	-0.295132
416.081000	-0.426144
416.262000	-0.232993
416.443000	-0.473091
416.624000	-0.438229
416.806000	-0.224799
416.987000	-0.097452
417.168000	-0.228278
417.350000	-0.408403
417.531000	-0.439528
417.712000	-0.372337
417.893000	-0.185727
418.075000	-0.054989
418.256000	-0.327166
418.437000	-0.246176
418.618000	-0.047716
418.800000	-0.055085
418.981000	-0.262205
419.162000	-0.168527
419.344000	-0.036297
419.525000	-0.114692
419.706000	-0.267664
419.887000	-0.110869
420.069000	0.067641
420.250000	-0.028981
420.431000	-0.110454
420.613000	-0.218975
420.794000	-0.432063
420.975000	-0.098960
421.156000	-0.258237
421.338000	-0.276510
421.519000	-0.287542
421.700000	-0.381066
421.882000	-0.366174
422.063000	-0.154540
422.244000	0.342831
422.425000	0.081973
422.607000	-0.327593
422.788000	-0.348356
422.969000	-0.386517
423.150000	-0.427582
423.332000	-0.485257
423.513000	-0.198711
423.694000	-0.158913
423.876000	-0.232464
424.057000	-0.128838
424.238000	-0.047567
424.419000	-0.066340
424.601000	-0.234024
424.782000	-0.222619
424.963000	-0.028796
425.145000	-0.091808
425.326000	-0.120902
425.507000	-0.128085
425.688000	-0.154631
425.870000	-0.251812
426.051000	-0.397635
426.232000	-0.349654
426.413000	-0.262670
426.595000	-0.346179
426.776000	-0.334952
426.957000	-0.321578
427.139000	-0.294394
427.320000	-0.166005
427.501000	-0.103413
427.682000	-0.206556
427.864000	-0.139846
428.045000	0.074951
428.226000	0.037982
428.408000	-0.322909
428.589000	-0.258563
428.770000	-0.217321
428.951000	-0.316573
429.133000	-0.440704
429.314000	-0.315186
429.495000	-0.314140
429.677000	-0.293207
429.858000	-0.275133
430.039000	-0.176027
430.220000	-0.083977
430.402000	-0.043326
430.583000	-0.367293
430.764000	-0.369496
430.945000	-0.116794
431.127000	-0.072202
431.308000	-0.296920
431.489000	-0.127018
431.671000	0.000733
431.852000	-0.126685
432.033000	-0.268690
432.214000	-0.137352
432.396000	-0.079005
432.577000	-0.329791
432.758000	-0.447200
432.940000	-0.337588
433.121000	-0.257284
433.302000	-0.238322
433.483000	-0.017351
433.665000	0.101991
433.846000	-0.064364
434.027000	-0.240034
434.208000	-0.358144
434.390000	-0.445909
434.571000	0.018738
434.752000	0.422776
434.934000	0.235487
435.115000	0.082733
435.296000	0.157570
435.477000	0.068246
435.659000	-0.220873
435.840000	-0.158047
436.026000	-0.143510
436.211000	-0.241732
436.397000	-0.552337
436.582000	-0.401845
436.768000	-0.188166
436.953000	-0.261259
437.139000	-0.197957
437.325000	0.108259
437.510000	-0.016653
437.696000	0.083736
437.881000	0.093968
438.067000	-0.267236
438.252000	-0.212436
438.438000	-0.263812
438.624000	-0.277565
438.809000	-0.249063
438.995000	-0.136004
439.180000	-0.203718
439.366000	-0.223924
439.551000	-0.254212
439.737000	-0.202822
439.923000	-0.101204
440.108000	-0.189253
440.294000	-0.083855
440.479000	-0.012803
440.665000	-0.052889
440.850000	-0.165774
441.036000	-0.102761
441.222000	-0.099845
441.407000	-0.226389
441.593000	-0.109050
441.778000	0.033834
441.964000	0.093940
442.149000	-0.334507
442.335000	-0.375749
442.521000	-0.200530
442.706000	-0.022337
442.892000	-0.143565
443.077000	-0.186800
443.263000	-0.058296
443.448000	-0.172145
443.634000	-0.182054
443.820000	0.130323
444.005000	-0.002592
444.191000	-0.246083
444.376000	-0.232001
444.562000	0.100197
444.747000	0.116861
444.933000	-0.028327
445.119000	-0.159922
445.304000	-0.268605
445.490000	-0.095556
445.675000	-0.073076
445.861000	-0.195389
446.046000	-0.217409
446.232000	-0.140257
446.418000	-0.037744
446.603000	-0.120895
446.789000	-0.159103
446.974000	-0.182015
447.160000	-0.353780
447.345000	-0.288400
447.531000	-0.310361
447.717000	-0.155811
447.902000	-0.073101
448.088000	0.022949
448.273000	-0.129377
448.459000	-0.166958
448.644000	-0.167048
448.830000	-0.231185
449.016000	-0.415024
449.201000	-0.357404
449.387000	-0.212130
449.572000	-0.012031
449.758000	-0.132256
449.943000	-0.287704
450.129000	-0.283401
450.315000	-0.289168
450.500000	-0.349321
450.686000	-0.267840
450.871000	-0.306036
451.057000	-0.169799
451.243000	-0.197975
451.428000	-0.232966
451.614000	-0.194623
451.799000	-0.251160
451.985000	-0.043415
452.170000	0.107490
452.356000	-0.077890
452.542000	-0.169174
452.727000	-0.080873
452.913000	-0.165780
453.098000	0.044580
453.284000	0.207753
453.469000	-0.030791
453.655000	0.057085
453.841000	-0.015032
454.026000	-0.167743
454.212000	-0.151717
454.397000	-0.105225
454.583000	-0.288279
454.768000	-0.380403
454.954000	-0.101823
455.140000	-0.042767
455.325000	-0.265294
455.511000	-0.366008
455.696000	-0.300789
455.882000	-0.058287
456.067000	0.093676
456.253000	-0.166890
456.439000	-0.247507
456.624000	-0.187956
456.810000	-0.233682
456.995000	-0.280304
457.181000	-0.310353
457.366000	-0.069842
457.552000	0.009762
457.738000	0.070696
457.923000	-0.039073
458.109000	0.110840
458.294000	0.058729
458.480000	0.058802
458.665000	-0.109314
458.851000	-0.255431
459.037000	-0.347594
459.222000	-0.184105
459.408000	-0.265869
459.593000	-0.207329
459.779000	-0.044457
459.964000	0.072821
460.150000	0.244776
460.336000	0.184298
460.521000	-0.044261
460.707000	-0.214225
460.892000	-0.282300
461.078000	-0.071039
461.263000	0.065967
461.449000	-0.073955
461.635000	-0.094728
461.820000	-0.097512
462.006000	-0.029011
462.191000	-0.008258
462.377000	-0.193498
462.562000	0.100893
462.748000	0.286022
462.934000	-0.137877
463.119000	-0.351314
463.305000	-0.148336
463.490000	-0.188299
463.676000	-0.174212
463.861000	-0.180826
464.047000	-0.148170
464.233000	-0.045782
464.418000	-0.109409
464.604000	-0.270903
464.789000	-0.031214
464.975000	0.035149
465.160000	-0.111972
465.346000	-0.091719
465.532000	-0.270937
465.717000	-0.313754
465.903000	0.023609
466.088000	-0.016679
466.274000	-0.205417
466.459000	-0.262940
466.645000	0.103830
466.831000	0.043324
467.016000	0.037561
467.202000	-0.010862
467.387000	-0.136243
467.573000	-0.308858
467.758000	-0.036183
467.944000	-0.154837
468.130000	-0.266400
468.315000	-0.110255
468.501000	0.026050
468.686000	-0.033330
468.872000	-0.055946
469.057000	-0.041807
469.243000	-0.109757
469.429000	-0.143595
469.614000	-0.233489
469.800000	-0.295536
469.985000	-0.134376
470.171000	0.000560
470.356000	-0.125938
470.542000	-0.055874
470.728000	-0.038808
470.913000	-0.063799
471.099000	-0.002237
471.284000	-0.100819
471.470000	-0.137629
471.655000	-0.134829
471.841000	-0.145649
472.027000	-0.214788
472.212000	0.000560
472.398000	0.028645
472.583000	-0.123134
472.769000	-0.083933
472.954000	-0.131609
473.140000	-0.254251
473.326000	-0.268596
473.511000	0.034136
473.697000	0.011766
473.882000	-0.100701
474.068000	-0.151621
474.253000	-0.268829
474.439000	-0.134347
474.625000	-0.033105
474.810000	-0.066818
474.996000	-0.075240
475.181000	-0.195237
475.367000	-0.083440
475.552000	0.124465
475.738000	-0.156245
475.924000	-0.153790
476.109000	0.025808
476.295000	-0.181878
476.480000	-0.227019
476.666000	-0.170567
476.851000	-0.145241
477.037000	-0.044533
477.223000	-0.117353
477.408000	-0.204441
477.594000	-0.358556
477.779000	-0.241215
477.965000	-0.173803
478.151000	-0.280614
478.336000	-0.154227
478.522000	-0.235280
478.707000	-0.263329
478.893000	-0.162600
479.078000	-0.309648
479.264000	-0.329474
479.450000	-0.242125
479.635000	-0.089617
479.821000	-0.228106
480.006000	-0.165872
480.192000	-0.151623
480.377000	-0.120885
480.563000	-0.081263
480.749000	-0.307193
480.934000	-0.315326
481.120000	-0.168044
481.305000	-0.055563
481.491000	-0.083966
481.676000	-0.030499
481.862000	-0.007925
482.048000	-0.148645
482.233000	-0.097854
482.419000	-0.103712
482.604000	-0.236413
482.790000	-0.225133
482.975000	-0.129332
483.161000	0.011825
483.347000	-0.019114
483.532000	-0.097838
483.718000	-0.292791
483.903000	-0.256482
484.089000	-0.222049
484.274000	-0.322983
484.460000	-0.134752
484.646000	-0.157318
484.831000	-0.278750
485.017000	-0.187875
485.202000	-0.142604
485.388000	0.037030
485.573000	0.039757
485.759000	-0.151010
485.945000	0.008984
486.130000	-0.178980
486.316000	-0.120114
486.501000	-0.047023
486.687000	-0.248199
486.872000	-0.298781
487.058000	-0.091821
487.244000	-0.103083
487.429000	-0.312262
487.615000	-0.097216
487.800000	-0.013407
487.986000	-0.085700
488.171000	-0.010598
488.357000	-0.105064
488.543000	-0.088065
488.728000	-0.032689
488.914000	-0.060430
489.099000	-0.168438
489.285000	-0.218149
489.470000	-0.054677
489.656000	-0.013265
489.842000	-0.032485
490.027000	0.033484
490.213000	-0.081925
490.398000	-0.385291
490.584000	-0.227402
490.769000	-0.125785
490.955000	-0.043318
491.141000	-0.059636
491.326000	-0.059428
491.512000	0.093187
491.697000	-0.013052
491.883000	-0.146353
492.068000	-0.149091
492.254000	-0.157534
492.440000	-0.157440
492.625000	-0.189561
492.811000	-0.189178
492.996000	-0.069829
493.182000	-0.096586
493.367000	-0.229437
493.553000	-0.299866
493.739000	-0.204835
493.924000	-0.129318
494.110000	-0.118121
494.295000	-0.214553
494.481000	-0.144827
494.666000	-0.177256
494.852000	-0.018289
495.038000	-0.109509
495.223000	-0.244075
495.409000	-0.176458
495.594000	-0.249277
495.780000	-0.168253
495.965000	-0.248879
496.151000	-0.039644
496.337000	0.035325
496.522000	-0.196736
496.708000	-0.151967
496.893000	-0.044946
497.079000	-0.199610
497.264000	-0.236517
497.450000	-0.127364
497.636000	-0.050138
497.821000	-0.220248
498.007000	0.000532
498.192000	0.043254
498.378000	-0.084756
498.563000	-0.164767
498.749000	-0.159598
498.935000	-0.132708
499.120000	-0.068586
499.306000	-0.233738
499.491000	-0.246381
499.677000	-0.121560
499.862000	-0.047423
500.048000	0.005872
500.234000	-0.087319
500.419000	-0.151486
500.605000	-0.066201
500.790000	-0.042130
500.976000	-0.116977
501.161000	-0.234426
501.347000	-0.122281
501.533000	-0.050226
501.718000	-0.103597
501.904000	-0.146658
502.089000	-0.082551
502.275000	0.005881
502.460000	-0.103417
502.646000	-0.052836
502.832000	-0.020825
503.017000	-0.109152
503.203000	-0.315591
503.388000	-0.289494
503.574000	-0.117316
503.759000	-0.066408
503.945000	0.016630
504.131000	-0.106755
504.316000	-0.184428
504.502000	-0.152319
504.687000	-0.187680
504.873000	-0.263114
505.058000	-0.257701
505.244000	-0.260328
505.430000	-0.263514
505.615000	-0.145143
505.801000	-0.096757
505.986000	-0.228084
506.172000	-0.125953
506.358000	-0.101963
506.543000	-0.169307
506.729000	0.003237
506.914000	-0.048123
507.100000	0.071075
507.285000	-0.167932
507.471000	-0.268174
507.657000	0.003257
507.842000	-0.088896
508.028000	-0.224560
508.213000	-0.265904
508.399000	-0.201067
508.584000	-0.048544
508.770000	-0.184577
508.956000	-0.250111
509.141000	-0.176392
509.327000	-0.059464
509.512000	-0.157038
509.698000	-0.146392
509.883000	-0.078585
510.069000	-0.122572
510.255000	-0.100729
510.440000	-0.076188
510.626000	-0.218585
510.811000	-0.260047
510.997000	-0.158586
511.182000	0.137569
511.368000	0.044443
511.554000	-0.301403
511.739000	-0.210681
511.925000	-0.065330
512.110000	-0.100920
512.296000	0.044538
512.481000	0.118623
512.667000	0.061025
512.853000	-0.169910
513.038000	-0.109578
513.224000	-0.137143
513.409000	-0.227997
513.595000	-0.164930
513.780000	-0.302677
513.966000	-0.161698
514.152000	-0.202973
514.337000	-0.296603
514.523000	-0.241597
514.708000	-0.206036
514.894000	-0.112693
515.079000	-0.214051
515.265000	-0.200983
515.451000	-0.181734
515.636000	-0.291995
515.822000	-0.137613
516.007000	-0.262004
516.193000	-0.140261
516.378000	-0.054762
516.564000	-0.137535
516.750000	-0.137582
516.935000	-0.043673
517.121000	0.006080
517.306000	0.072472
517.492000	0.014405
517.677000	-0.157172
517.863000	-0.218089
518.049000	-0.143408
518.234000	-0.240124
518.420000	-0.121319
518.605000	0.089158
518.791000	0.055904
518.976000	-0.071685
519.162000	-0.235184
519.348000	-0.146466
519.533000	-0.118554
519.719000	0.061555
519.904000	0.008883
520.090000	-0.038230
520.275000	0.130844
520.461000	0.108882
520.647000	-0.102197
520.832000	-0.300180
521.018000	-0.202193
521.203000	-0.154470
521.389000	-0.356297
521.574000	-0.229283
521.760000	-0.088174
521.946000	-0.071755
522.131000	-0.152542
522.317000	-0.118955
522.502000	-0.177244
522.688000	-0.118956
522.873000	-0.138542
523.059000	-0.188751
523.245000	-0.155199
523.430000	-0.230588
523.616000	-0.197114
523.801000	-0.331188
523.987000	-0.284305
524.172000	-0.105556
524.358000	-0.088839
524.544000	-0.105428
524.729000	0.020028
524.915000	0.081420
525.100000	-0.105359
525.286000	-0.083184
525.471000	-0.117010
525.657000	-0.094713
525.843000	-0.240709
526.028000	-0.153848
526.214000	-0.167822
526.399000	-0.196452
526.585000	-0.297834
526.770000	-0.354094
526.956000	-0.202603
527.142000	-0.275919
527.327000	-0.151959
527.513000	-0.211535
527.698000	-0.245746
527.884000	-0.226751
528.069000	-0.246145
528.255000	-0.121530
528.441000	-0.241077
528.626000	-0.244668
528.812000	0.034762
528.997000	-0.087937
529.183000	-0.179222
529.368000	-0.108377
529.554000	-0.131661
529.740000	-0.134915
529.925000	-0.192612
530.111000	-0.137980
530.296000	-0.120839
530.482000	-0.077666
530.667000	-0.118285
530.853000	-0.008144
531.039000	-0.121838
531.224000	-0.084397
531.410000	-0.019921
531.595000	-0.122569
531.781000	-0.031673
531.967000	-0.191102
532.152000	-0.108866
532.338000	-0.126868
532.523000	-0.239962
532.709000	-0.336235
532.894000	-0.242034
533.080000	-0.134341
533.266000	-0.278488
533.451000	-0.303620
533.637000	-0.271366
533.822000	-0.075241
534.008000	-0.153989
534.193000	-0.191070
534.379000	-0.094046
534.565000	-0.235450
534.750000	-0.239400
534.936000	0.043861
535.121000	-0.135639
535.307000	-0.052116
535.492000	-0.018021
535.678000	-0.261935
535.864000	-0.140725
536.049000	0.202827
536.235000	-0.087926
536.420000	-0.072442
536.606000	-0.130005
536.791000	-0.294247
536.977000	-0.243570
537.163000	-0.041290
537.348000	-0.109670
537.534000	-0.005880
537.719000	-0.159799
537.905000	-0.387247
538.090000	-0.144555
538.276000	0.037094
538.462000	0.047183
538.647000	0.007340
538.833000	-0.096609
539.018000	-0.002696
539.204000	-0.103873
539.389000	-0.291342
539.575000	0.055055
539.761000	0.021175
539.946000	-0.287560
540.132000	-0.112991
540.317000	-0.220414
540.503000	-0.096249
540.688000	-0.072468
540.874000	0.150968
541.060000	0.189346
541.245000	-0.002808
541.431000	-0.168408
541.616000	0.011305
541.802000	-0.045259
541.987000	-0.041842
542.173000	0.004271
542.359000	-0.081252
542.544000	-0.002847
542.730000	-0.177920
542.915000	-0.167606
543.101000	0.011467
543.286000	-0.103416
543.472000	-0.194393
543.658000	-0.151144
543.843000	-0.151516
544.029000	0.011637
544.214000	-0.068453
544.400000	-0.334628
544.585000	-0.174623
544.771000	-0.127548
544.957000	0.037465
545.142000	0.180864
545.328000	0.192398
545.513000	0.214912
545.699000	0.186171
545.884000	0.045276
546.070000	-0.002970
546.261000	-0.070055
546.451000	-0.253430
546.642000	-0.362454
546.833000	-0.231801
547.023000	-0.295497
547.214000	-0.266572
547.405000	-0.082065
547.595000	0.234450
547.786000	0.167245
547.977000	-0.113065
548.167000	-0.268850
548.358000	-0.270037
548.549000	0.077328
548.740000	-0.060484
548.930000	-0.431961
549.121000	-0.344873
549.312000	-0.334627
549.502000	-0.350893
549.693000	-0.192295
549.884000	-0.176903
550.074000	-0.080623
550.265000	-0.282851
550.456000	-0.182275
550.646000	-0.116339
550.837000	-0.120285
551.028000	-0.253406
551.218000	-0.120415
551.409000	-0.215180
551.600000	-0.227154
551.790000	-0.109685
551.981000	-0.342452
552.172000	-0.283801
552.362000	0.000790
552.553000	0.100070
552.744000	-0.142068
552.934000	-0.301063
553.125000	-0.293643
553.316000	-0.250034
553.506000	0.152405
553.697000	-0.031235
553.888000	-0.031180
554.079000	0.124819
554.269000	0.072884
554.460000	-0.256139
554.651000	-0.256403
554.841000	-0.385439
555.032000	-0.309468
555.223000	-0.253409
555.413000	-0.188010
555.604000	-0.100052
555.795000	-0.084135
555.985000	-0.108627
556.176000	-0.290494
556.367000	-0.545267
556.557000	-0.348219
556.748000	-0.239105
556.939000	-0.315879
557.129000	-0.384576
557.320000	-0.198091
557.511000	-0.149101
557.701000	-0.152911
557.892000	-0.112910
558.083000	0.041382
558.273000	-0.165560
558.464000	-0.368473
558.655000	-0.262737
558.845000	-0.144727
559.036000	-0.047737
559.227000	-0.157082
559.418000	0.061651
559.608000	0.065681
559.799000	-0.306938
559.990000	-0.385862
560.180000	-0.297640
560.371000	-0.496014
560.562000	-0.422662
560.752000	-0.152588
560.943000	-0.330356
561.134000	-0.567107
561.324000	-0.321025
561.515000	-0.115644
561.706000	-0.224310
561.896000	-0.400314
562.087000	-0.259630
562.278000	-0.291570
562.468000	-0.500331
562.659000	-0.419002
562.850000	-0.119220
563.040000	-0.015203
563.231000	-0.427606
563.422000	-0.278547
563.612000	-0.306819
563.803000	-0.338163
563.994000	-0.328604
564.185000	-0.403331
564.375000	-0.201502
564.566000	-0.276531
564.757000	-0.336892
564.947000	-0.384109
565.138000	-0.216713
565.329000	-0.295210
565.519000	-0.448898
565.710000	-0.366430
565.901000	-0.192825
566.091000	-0.054488
566.282000	-0.200119
566.473000	-0.132738
566.663000	-0.116893
566.854000	-0.374295
567.045000	-0.287591
567.235000	-0.194030
567.426000	-0.135538
567.617000	-0.208783
567.807000	-0.220521
567.998000	-0.154205
568.189000	-0.281995
568.379000	-0.200141
568.570000	-0.134271
568.761000	-0.164790
568.951000	-0.191436
569.142000	-0.160899
569.333000	-0.203238
569.524000	-0.417224
569.714000	-0.459366
569.905000	-0.550447
570.096000	-0.179110
570.286000	-0.094785
570.477000	0.046502
570.668000	-0.136328
570.858000	-0.098242
571.049000	-0.207937
571.240000	-0.428232
571.430000	-0.158482
571.621000	-0.188143
571.812000	-0.074499
572.002000	-0.085939
572.193000	-0.337927
572.384000	-0.217414
572.574000	-0.123476
572.765000	-0.172101
572.956000	-0.216513
573.146000	0.034514
573.337000	-0.081621
573.528000	-0.204818
573.718000	-0.111088
573.909000	-0.051370
574.100000	-0.117952
574.290000	-0.235891
574.481000	-0.198473
574.672000	-0.187620
574.863000	-0.080193
575.053000	-0.193861
575.244000	-0.123806
575.435000	-0.295677
575.625000	-0.261584
575.816000	-0.275814
576.007000	-0.232151
576.197000	-0.188783
576.388000	-0.155376
576.579000	-0.013791
576.769000	-0.053648
576.960000	-0.350622
577.155000	-0.486913
577.350000	-0.248208
577.545000	-0.038891
577.740000	-0.150074
577.935000	0.179860
578.130000	0.097530
578.326000	-0.313861
578.521000	-0.085039
578.716000	-0.034855
578.911000	-0.272846
579.106000	-0.225810
579.301000	-0.136907
579.496000	-0.273656
579.691000	-0.431573
579.886000	-0.290236
580.081000	-0.226792
580.276000	-0.184341
580.471000	-0.271577
580.666000	-0.427915
580.861000	-0.333711
581.057000	-0.358328
581.252000	-0.274736
581.447000	-0.375003
581.642000	-0.372149
581.837000	-0.315970
582.032000	-0.231793
582.227000	-0.020009
582.422000	-0.099169
582.617000	-0.290672
582.812000	-0.337790
583.007000	-0.327355
583.202000	-0.429076
583.397000	-0.097887
583.592000	0.166931
583.788000	-0.185338
583.983000	-0.188541
584.178000	-0.083663
584.373000	-0.228037
584.568000	-0.257767
584.763000	-0.298332
584.958000	-0.372217
585.153000	-0.237860
585.348000	-0.237730
585.543000	-0.063191
585.738000	-0.123636
585.933000	-0.419395
586.128000	-0.180733
586.324000	-0.127316
586.519000	-0.174343
586.714000	-0.019536
586.909000	0.061413
587.104000	0.010834
587.299000	-0.188375
587.494000	-0.167892
587.689000	-0.215514
587.884000	-0.148400
588.079000	-0.212789
588.274000	-0.240338
588.469000	-0.219530
588.664000	-0.111266
588.859000	-0.148796
589.055000	-0.189780
589.250000	-0.186468
589.445000	-0.265050
589.640000	-0.275492
589.835000	-0.040329
590.030000	-0.009567
590.225000	-0.026655
590.420000	-0.160153
590.615000	-0.245925
590.810000	-0.238807
591.005000	-0.222608
591.200000	-0.260504
591.395000	-0.312008
591.591000	-0.187980
591.786000	-0.108992
591.981000	-0.260567
592.176000	-0.199096
592.371000	-0.199173
592.566000	-0.292000
592.761000	-0.071612
592.956000	0.004138
593.151000	0.007591
593.346000	-0.075428
593.541000	-0.020047
593.736000	-0.110253
593.931000	-0.294136
594.126000	-0.176465
594.322000	-0.117407
594.517000	-0.263244
594.712000	-0.381490
594.907000	-0.421219
595.102000	-0.271638
595.297000	-0.103979
595.492000	-0.051751
595.687000	-0.265578
595.882000	-0.384896
596.077000	-0.252178
596.272000	-0.048459
596.467000	0.063930
596.662000	-0.136424
596.857000	-0.214632
597.053000	-0.193777
597.248000	-0.154813
597.443000	-0.080695
597.638000	-0.176679
597.833000	-0.379262
598.028000	-0.173076
598.223000	-0.070361
598.418000	-0.230683
598.613000	-0.294723
598.808000	-0.138213
599.003000	-0.177589
599.198000	-0.384904
599.393000	-0.399066
599.589000	-0.196139
599.784000	-0.357451
599.979000	-0.322109
600.174000	-0.053124
600.369000	-0.257991
600.564000	-0.161184
600.759000	0.133997
600.954000	0.230863
601.149000	-0.002886
601.344000	-0.349514
601.539000	-0.183637
601.734000	-0.223109
601.929000	-0.419111
602.124000	-0.452062
602.320000	-0.220618
602.515000	0.047905
602.710000	0.022547
602.905000	-0.319253
603.100000	-0.329630
603.295000	-0.217490
603.490000	-0.156108
603.685000	-0.185318
603.880000	-0.119800
604.075000	-0.306849
604.270000	-0.289152
604.465000	-0.211933
604.660000	-0.417603
604.856000	-0.193613
605.051000	-0.036005
605.246000	-0.116736
605.441000	-0.362955
605.636000	-0.443902
605.831000	-0.245920
606.026000	-0.308376
606.221000	-0.393552
606.416000	-0.172676
606.611000	-0.025115
606.806000	-0.043542
607.001000	0.133749
607.196000	-0.080620
607.391000	-0.369591
607.587000	-0.214486
607.782000	-0.170181
607.977000	-0.321764
608.172000	0.019336
608.367000	0.075113
608.562000	-0.226535
608.757000	-0.308406
608.952000	-0.353925
609.147000	0.123794
609.342000	0.064234
609.537000	-0.205027
609.732000	-0.212846
609.927000	-0.264783
610.122000	-0.209042
610.318000	0.038249
610.513000	0.079540
610.708000	-0.145732
610.903000	-0.021809
611.098000	-0.003015
611.293000	-0.104785
611.488000	-0.040713
611.683000	-0.048337
611.878000	-0.093682
612.073000	-0.052144
612.268000	-0.044636
612.463000	0.027296
612.658000	0.012132
612.854000	-0.006839
613.049000	-0.029647
613.244000	0.038791
613.439000	0.061634
613.634000	-0.216637
613.829000	-0.128951
614.024000	-0.205740
614.219000	-0.236299
614.414000	0.058157
614.609000	-0.114188
614.804000	-0.302027
614.999000	-0.397485
615.194000	-0.302536
615.389000	-0.149140
615.585000	-0.268790
615.780000	-0.188079
615.975000	-0.242519
616.170000	-0.176997
616.365000	0.027853
616.560000	0.093708
616.755000	0.051269
616.950000	-0.026423
617.145000	0.008556
617.340000	-0.189976
617.535000	-0.501404
617.730000	-0.213621
617.925000	-0.370149
618.120000	-0.389795
618.316000	-0.038360
618.511000	-0.116754
618.706000	-0.321616
618.901000	-0.254645
619.096000	-0.109662
619.291000	-0.192332
619.486000	-0.145497
619.681000	-0.402804
619.876000	-0.497554
620.071000	-0.395068
620.266000	-0.106348
620.461000	0.024647
620.656000	-0.094789
620.852000	-0.130469
621.047000	-0.298261
621.242000	-0.442391
621.437000	-0.059233
621.632000	0.081018
621.827000	-0.171816
622.022000	-0.433084
622.217000	-0.244923
622.412000	-0.035488
622.607000	-0.015339
622.802000	-0.269786
622.997000	-0.347729
623.192000	-0.242336
623.387000	-0.153215
623.583000	-0.421565
623.778000	-0.003258
623.973000	-0.105141
624.168000	-0.223852
624.363000	-0.146014
624.558000	-0.019611
624.753000	-0.208214
624.948000	-0.011498
625.143000	-0.040272
625.338000	-0.130898
625.533000	-0.213289
625.728000	-0.118713
625.923000	0.087443
626.119000	-0.032247
626.314000	-0.326090
626.509000	-0.410110
626.704000	-0.319632
626.899000	-0.249095
627.094000	-0.341209
627.289000	-0.341993
627.484000	-0.367942
627.679000	-0.292772
627.874000	-0.217552
628.069000	0.021871
628.264000	-0.032777
628.459000	-0.138155
628.654000	-0.193087
628.850000	-0.346067
629.045000	-0.261745
629.240000	-0.219611
629.435000	-0.253857
629.630000	-0.169274
629.825000	-0.258582
630.020000	-0.233983
630.215000	-0.404552
630.410000	-0.294762
630.605000	-0.290715
630.800000	-0.239225
630.995000	-0.085077
631.190000	0.142960
631.385000	-0.042225
631.581000	-0.210620
631.776000	-0.158930
631.971000	-0.285092
632.166000	-0.285312
632.361000	-0.420124
632.556000	-0.338134
632.751000	-0.042730
632.946000	-0.138701
633.141000	-0.296621
633.336000	-0.275176
633.531000	-0.188119
633.726000	-0.209836
633.921000	-0.329255
634.117000	-0.572621
634.312000	-0.608525
634.507000	-0.511926
634.702000	-0.388839
634.897000	-0.327304
635.092000	-0.323721
635.287000	-0.181793
635.482000	-0.226943
635.677000	-0.101889
635.872000	-0.106370
636.067000	0.032253
636.262000	-0.125019
636.457000	-0.527611
636.652000	-0.497000
636.848000	-0.426161
637.043000	-0.436956
637.238000	-0.478832
637.433000	-0.664894
637.628000	-0.538054
637.823000	-0.076200
638.018000	0.023631
638.213000	-0.226820
638.408000	-0.272620
638.603000	-0.428235
638.798000	-0.447145
638.993000	-0.342646
639.188000	-0.306105
639.383000	-0.407263
639.579000	-0.021991
639.774000	-0.173663
639.969000	-0.334601
640.164000	-0.441320
640.359000	-0.506360
640.554000	-0.197634
640.749000	-0.147245
640.944000	-0.142924
641.139000	-0.253775
641.334000	-0.365573
641.529000	-0.659156
641.724000	-0.464490
641.919000	-0.376853
642.115000	-0.153348
642.310000	-0.059758
642.505000	-0.148408
642.700000	-0.270236
642.895000	-0.472712
643.090000	-0.224093
643.285000	-0.017817
643.480000	-0.107147
643.675000	-0.130756
643.870000	0.217718
644.065000	0.076491
644.260000	-0.220917
644.455000	-0.197683
644.650000	-0.406776
644.846000	-0.198178
645.041000	-0.411353
645.236000	-0.578625
645.431000	-0.474793
645.626000	-0.702727
645.821000	-0.540860
646.016000	-0.504309
646.211000	-0.008596
646.406000	-0.018182
646.601000	-0.123322
646.796000	-0.261883
646.991000	-0.515245
647.186000	-0.391840
647.381000	-0.142841
647.577000	-0.166967
647.772000	-0.099802
647.967000	-0.176918
648.162000	-0.225173
648.357000	-0.186934
648.552000	-0.061644
648.747000	-0.114687
648.942000	-0.129226
649.137000	-0.231188
649.332000	-0.396149
649.527000	-0.347574
649.722000	-0.139369
649.917000	-0.091244
650.113000	-0.241408
650.308000	-0.338840
650.503000	-0.338658
650.698000	-0.115807
650.893000	-0.208406
651.088000	-0.169563
651.283000	-0.008790
651.478000	-0.282247
651.673000	-0.135615
651.868000	-0.336295
652.063000	-0.145952
652.258000	0.069601
652.453000	0.206293
652.648000	-0.140981
652.844000	-0.199868
653.039000	-0.146228
653.234000	-0.558593
653.429000	-0.707109
653.624000	-0.446161
653.819000	-0.245238
654.014000	-0.353645
654.209000	-0.379266
654.404000	-0.156877
654.599000	-0.305651
654.794000	-0.314998
654.989000	-0.023769
655.184000	-0.098162
655.380000	-0.479517
655.575000	-0.405258
655.770000	-0.306681
655.965000	-0.301794
656.160000	-0.366515
656.355000	-0.257204
656.550000	-0.322741
656.745000	-0.138554
656.940000	-0.263368
657.135000	-0.143620
657.330000	-0.093790
657.525000	-0.483266
657.720000	-0.179042
657.915000	-0.083942
658.111000	-0.268916
658.306000	-0.024012
658.501000	-0.134373
658.696000	-0.450070
658.891000	-0.119339
659.086000	-0.199486
659.281000	-0.189771
659.476000	-0.456498
659.671000	-0.758078
659.866000	-0.441569
660.061000	-0.155005
660.256000	-0.094657
660.451000	-0.104820
660.646000	-0.180649
660.842000	-0.105079
661.037000	-0.423508
661.232000	-0.383626
661.427000	-0.186098
661.622000	-0.409359
661.817000	-0.485224
662.012000	-0.212247
662.207000	-0.374990
662.402000	-0.554221
662.597000	-0.248755
662.792000	-0.487886
662.987000	-0.599435
663.182000	-0.325338
663.378000	-0.340909
663.573000	-0.628239
663.768000	-0.606514
663.963000	-0.387408
664.158000	-0.433010
664.353000	0.067678
664.548000	0.277794
664.743000	-0.086203
664.938000	-0.491514
665.133000	-0.523116
665.328000	-0.081311
665.523000	-0.102096
665.718000	-0.421840
665.913000	-0.427638
666.109000	-0.350951
666.304000	-0.117980
666.499000	-0.273045
666.694000	-0.030079
666.889000	0.364019
667.084000	-0.050988
667.279000	-0.279747
667.474000	-0.155040
667.669000	-0.175808
667.864000	-0.300998
668.059000	-0.244086
668.254000	-0.249618
668.449000	-0.485162
668.644000	-0.422812
668.840000	-0.035537
669.035000	-0.312958
669.230000	-0.623843
669.425000	-0.224903
669.620000	-0.382517
669.815000	-0.542104
670.010000	-0.462575
670.205000	-0.273136
670.400000	-0.298967
670.595000	-0.262920
670.790000	-0.300279
670.985000	-0.184167
671.180000	-0.083708
671.376000	-0.454976
671.571000	-0.562274
671.766000	-0.531616
671.961000	-0.579777
672.156000	-0.537815
672.351000	-0.436543
672.546000	-0.416071
672.741000	-0.297764
672.936000	-0.234035
673.131000	0.397546
673.326000	0.054801
673.521000	-0.439865
673.716000	-0.622681
673.911000	-0.768413
674.107000	-0.112136
674.302000	0.168321
674.497000	-0.112342
674.692000	-0.404287
674.887000	-0.503286
675.082000	-0.422574
675.277000	-0.058743
675.472000	-0.178638
675.667000	-0.478917
675.862000	-0.528278
676.057000	-0.326572
676.252000	-0.299900
676.447000	-0.443271
676.643000	-0.179795
676.838000	0.067002
677.033000	-0.262885
677.228000	0.050724
677.423000	0.072822
677.618000	-0.363988
677.813000	-0.584915
678.008000	-0.326121
678.203000	-0.226528
678.398000	-0.432743
678.593000	-0.210325
678.788000	-0.188678
678.983000	-0.456066
679.178000	-0.255480
679.374000	-0.468131
679.569000	-0.256404
679.764000	-0.313313
679.959000	-0.544828
680.154000	-0.516791
680.349000	-0.744543
680.544000	-0.664565
680.739000	-0.518160
680.934000	-0.614735
681.129000	-0.565462
681.324000	-0.707983
681.519000	-0.414293
681.714000	-0.442902
681.909000	-0.533338
682.105000	-0.643176
682.300000	-0.250713
682.495000	0.006865
682.690000	-0.067663
682.885000	-0.262833
683.080000	-0.447712
683.275000	-0.315513
683.470000	0.104914
683.665000	0.203358
683.860000	0.417833
684.055000	0.035901
684.250000	-0.421958
684.445000	-0.409713
684.641000	0.018574
684.836000	-0.394187
685.031000	-0.407281
685.226000	-0.337717
685.421000	0.094921
685.616000	-0.227340
685.811000	-0.439326
686.006000	-0.110409
686.201000	-0.198766
686.396000	-0.654073
686.591000	-0.584406
686.786000	-0.028437
686.981000	-0.158790
687.176000	-0.159176
687.372000	-0.355576
687.567000	-0.123734
687.762000	-0.034598
687.957000	-0.112140
688.152000	-0.285731
688.347000	-0.340142
688.542000	-0.611135
688.737000	-0.922898
688.932000	-0.912444
689.127000	-0.606736
689.322000	-0.270429
689.517000	-0.451424
689.712000	-0.525698
689.908000	-0.350416
690.103000	-0.357170
690.298000	-0.332928
690.493000	-0.388621
690.688000	-0.626953
690.883000	-0.384320
691.078000	-0.029385
691.273000	-0.108980
691.468000	-0.256417
691.663000	-0.220447
691.858000	-0.097309
692.053000	-0.091146
692.248000	0.007398
692.443000	-0.072742
692.639000	-0.221150
692.834000	-0.104038
693.029000	0.304796
693.224000	0.405833
693.419000	-0.110898
693.614000	-0.385756
693.809000	-0.617162
694.004000	-0.655877
694.199000	-0.561855
694.394000	-0.325199
694.589000	-0.652343
694.784000	-0.640424
694.979000	-0.332176
695.174000	-0.396089
695.370000	0.108299
695.565000	-0.017673
695.760000	-0.416267
695.955000	-0.068489
696.150000	0.077391
696.345000	-0.508178
696.540000	-0.438896
696.740000	-0.413090
696.940000	-0.170976
697.140000	-0.043605
697.340000	-0.281358
697.539000	-0.152965
697.739000	-0.358775
697.939000	-0.223907
698.139000	-0.359397
698.339000	-0.761574
698.539000	-0.638374
698.739000	-0.685440
698.939000	-0.538775
699.138000	-0.656985
699.338000	0.014290
699.538000	0.301235
699.738000	-0.175254
699.938000	-0.378292
700.138000	-0.470716
700.338000	-0.590423
700.538000	-0.334833
700.737000	-0.229299
700.937000	-0.819875
701.137000	-0.742180
701.337000	-0.197091
701.537000	-0.157754
701.737000	-0.362775
701.937000	-0.502931
702.137000	-0.642298
702.337000	-0.596851
702.536000	-0.651349
702.736000	-0.678805
702.936000	-0.893499
703.136000	-0.300053
703.336000	-0.172759
703.536000	-0.320962
703.736000	-0.685409
703.936000	-0.596643
704.135000	-0.676931
704.335000	-0.328638
704.535000	-0.572635
704.735000	-0.661097
704.935000	-0.261719
705.135000	-0.364666
705.335000	-0.637919
705.535000	-0.427374
705.735000	-0.291217
705.934000	-0.182258
706.134000	-0.563284
706.334000	-0.625992
706.534000	-0.620063
706.734000	-0.524875
706.934000	-0.647856
707.134000	-0.736889
707.334000	-0.382244
707.533000	-0.348635
707.733000	-0.451252
707.933000	-0.582134
708.133000	-0.252318
708.333000	-0.115788
708.533000	-0.288625
708.733000	-0.033138
708.933000	-0.364845
709.132000	-0.434788
709.332000	-0.407783
709.532000	-0.526841
709.732000	-0.442789
709.932000	-0.819521
710.132000	-0.784244
710.332000	-1.047960
710.532000	-0.485512
710.732000	-0.326422
710.931000	-0.480224
711.131000	-0.531153
711.331000	-0.510523
711.531000	-0.553537
711.731000	-0.442254
711.931000	-0.457096
712.131000	-0.555185
712.331000	-0.315739
712.530000	-0.456139
712.730000	-0.577321
712.930000	-0.351356
713.130000	-0.175586
713.330000	-0.431001
713.530000	-0.453932
713.730000	0.229205
713.930000	-0.176475
714.129000	-0.709427
714.329000	-0.690310
714.529000	-0.433254
714.729000	-0.091399
714.929000	-0.091402
715.129000	-0.463489
715.329000	-0.435282
715.529000	-0.444254
715.729000	0.137761
715.928000	-0.164002
716.128000	-0.538376
716.328000	-0.373939
716.528000	-0.410502
716.728000	-0.287710
716.928000	-0.497396
717.128000	-0.310118
717.328000	-0.215888
717.527000	-0.361217
717.727000	-0.281705
717.927000	-0.355449
718.127000	-0.464971
718.327000	-0.881980
718.527000	-0.939917
718.727000	-0.385664
718.927000	-0.459538
719.127000	-0.689140
719.326000	-0.657076
719.526000	-0.196458
719.726000	-0.343790
719.926000	-0.824344
720.126000	-0.772855
720.326000	-0.352452
720.526000	-0.691760
720.726000	-0.753027
720.925000	-0.390817
721.125000	-0.689435
721.325000	-0.280486
721.525000	-0.325794
721.725000	-0.586197
721.925000	-0.438648
722.125000	-0.483448
722.325000	-0.147704
722.524000	-0.492347
722.724000	-0.964941
722.924000	-0.934916
723.124000	-0.666055
723.324000	-0.208732
723.524000	-0.216436
723.724000	-0.765733
723.924000	-0.564659
724.124000	-0.459132
724.323000	-0.119469
724.523000	-0.187357
724.723000	0.130221
724.923000	-0.021205
725.123000	-0.142526
725.323000	-0.112402
725.523000	-0.264801
725.723000	-0.644585
725.922000	-0.660532
726.122000	-0.394632
726.322000	-0.609586
726.522000	-0.533719
726.722000	0.329944
726.922000	-0.021371
727.122000	-0.419710
727.322000	-0.067485
727.521000	-0.083026
727.721000	-0.606671
727.921000	-0.483512
728.121000	-0.406418
728.321000	-0.731048
728.521000	-0.439133
728.721000	-0.308226
728.921000	-0.130059
729.121000	0.428043
729.320000	-0.029499
729.520000	-0.541905
729.720000	-0.721659
729.920000	-0.615706
730.120000	-0.497238
730.320000	-0.537520
730.520000	-0.600269
730.720000	-0.484551
730.919000	-0.460943
731.119000	-0.179060
731.319000	-0.706397
731.519000	-0.816414
731.719000	-0.376245
731.919000	-0.612709
732.119000	-1.189585
732.319000	-1.137927
732.519000	-0.544723
732.718000	-0.751562
732.918000	-0.585580
733.118000	-0.364315
733.318000	-0.094133
733.518000	-0.580799
733.718000	-0.989050
733.918000	-0.861728
734.118000	-0.669644
734.317000	-0.327360
734.517000	-0.775602
734.717000	-0.690777
734.917000	0.033891
735.117000	-0.273030
735.317000	-0.515234
735.517000	0.341725
735.717000	0.708212
735.916000	-0.388275
736.116000	-0.883005
736.316000	-0.733301
736.516000	-0.324903
736.716000	-0.308732
736.916000	-0.900451
737.116000	-0.748261
737.316000	-0.130183
737.516000	-0.221253
737.715000	-0.204872
737.915000	-0.824820
738.115000	-1.109332
738.315000	-0.645515
738.515000	-0.836186
738.715000	-0.524017
738.915000	0.035093
739.115000	-0.508849
739.314000	-0.658900
739.514000	-0.191331
739.714000	0.077399
739.914000	-0.200812
740.114000	-0.573133
740.314000	-0.446665
740.514000	0.171145
740.714000	-0.499872
740.913000	-0.943310
741.113000	-0.791301
741.313000	-0.347900
741.513000	-0.451491
741.713000	-0.469852
741.913000	-0.368699
742.113000	-0.540165
742.313000	-1.024022
742.513000	-0.636728
742.712000	-0.231973
742.912000	-0.526405
743.112000	-0.597683
743.312000	-0.824920
743.512000	-0.416879
743.712000	-0.374470
743.912000	-1.058623
744.112000	-1.182067
744.311000	-1.220433
744.511000	-0.826251
744.711000	-0.369120
744.911000	-0.723378
745.111000	-0.892506
745.311000	-0.441789
745.511000	-0.673371
745.711000	-0.949654
745.911000	-0.568039
746.110000	-0.897895
746.310000	-1.073439
746.510000	-0.704543
746.710000	-0.070059
746.910000	-0.222950
747.110000	-0.952665
747.310000	-1.161794
747.510000	-0.912693
747.709000	-0.587207
747.909000	-0.606883
748.109000	-0.353692
748.309000	-0.527968
748.509000	-0.958786
748.709000	-0.962339
748.909000	-0.631570
749.109000	-0.523689
749.308000	-0.081217
749.508000	-0.424250
749.708000	-0.628249
749.908000	-0.331804
750.108000	-0.230536
750.308000	-1.089540
750.508000	-0.512496
750.708000	-0.634286
750.908000	-1.095054
751.107000	-0.440124
751.307000	0.180350
751.507000	-0.394300
751.707000	-0.450326
751.907000	-0.460876
752.107000	-0.348722
752.307000	-0.777757
752.507000	-0.598668
752.706000	-0.683999
752.906000	0.240577
753.106000	-0.783628
753.306000	-1.391413
753.506000	-0.200416
753.706000	-0.673893
753.906000	-0.519500
754.106000	-0.220452
754.305000	-0.288508
754.505000	-0.182488
754.705000	-0.329883
754.905000	-0.476986
755.105000	-0.262340
755.305000	-0.782235
755.505000	-0.519059
755.705000	-0.076775
755.905000	-0.264584
756.104000	-0.946607
756.304000	-1.424716
756.504000	-1.596430
756.704000	-0.516944
756.904000	-0.357067
757.104000	-0.436242
757.304000	-0.336965
757.504000	-0.028085
757.703000	-0.489390
757.903000	-0.269411
758.103000	-0.128938
758.303000	-0.311129
758.503000	-0.646182
758.703000	-0.779664
758.903000	-0.820638
759.103000	-0.334052
759.303000	-0.509623
759.502000	-0.696014
759.702000	-0.203183
759.902000	-0.451761
760.102000	-0.473520
760.302000	-0.516610
760.502000	-0.204786
760.702000	-0.080789
760.902000	-0.506521
761.101000	-0.965991
761.301000	-1.207519
761.501000	-0.801099
761.701000	-0.980392
761.901000	-0.985497
762.101000	-0.503279
762.301000	-0.492756
762.501000	-0.840904
762.700000	-1.035327
762.900000	-0.929798
763.100000	-0.803633
763.300000	-0.498202
763.500000	-0.509351
763.703000	-0.635092
763.905000	-1.053271
764.108000	-0.222530
764.311000	-0.286760
764.513000	-0.544217
764.716000	-0.621715
764.919000	-0.590235
765.121000	-0.784412
765.324000	-0.927264
765.527000	-0.856157
765.729000	-0.780078
765.932000	0.013059
766.135000	-0.258924
766.337000	-0.520292
766.540000	-0.795015
766.743000	-0.525882
766.945000	-1.029916
767.148000	-1.450430
767.351000	-1.208155
767.553000	-0.340168
767.756000	-0.694327
767.958000	-1.070127
768.161000	-0.905087
768.364000	-1.063895
768.566000	-1.288818
768.769000	-0.812945
768.972000	-0.589526
769.174000	-0.916101
769.377000	-1.502754
769.580000	-1.539722
769.782000	-0.593762
769.985000	-0.979226
770.188000	-2.157611
770.390000	-1.213694
770.593000	0.626521
770.796000	0.308950
770.998000	-0.463696
771.201000	-1.124052
771.404000	-0.738273
771.606000	-1.038600
771.809000	-0.855308
772.012000	-0.730933
772.214000	-1.362119
772.417000	-1.488401
772.620000	-0.592148
772.822000	-0.850177
773.025000	-1.265128
773.228000	-1.198229
773.430000	-1.003657
773.633000	-0.692771
773.836000	-0.867726
774.038000	-0.731272
774.241000	-0.835846
774.444000	-0.931830
774.646000	0.154013
774.849000	-0.313399
775.052000	-1.049941
775.254000	-0.888013
775.457000	-0.934022
775.659000	-0.736806
775.862000	-1.042101
776.065000	-1.020307
776.267000	-0.280242
776.470000	0.167951
776.673000	-0.849802
776.875000	-0.092589
777.078000	-0.305770
777.281000	-1.104000
777.483000	-0.439187
777.686000	-0.188917
777.889000	-0.500331
778.091000	-0.357923
778.294000	-1.065045
778.497000	-0.898286
778.699000	-0.862947
778.902000	-1.131211
779.105000	-0.709165
779.307000	0.195661
779.510000	-0.687556
779.713000	-0.398584
779.915000	-0.631550
780.118000	0.258726
780.321000	0.307919
780.523000	-0.548684
780.726000	-1.112528
780.929000	-1.418329
781.131000	-1.199717
781.334000	-1.475049
781.537000	-1.652035
781.739000	-0.701954
781.942000	-1.061202
782.145000	-1.427226
782.347000	-1.465446
782.550000	-1.080496
782.753000	-1.046580
782.955000	-0.949241
783.158000	-1.148931
783.361000	-1.076488
783.563000	-0.951179
783.766000	-0.915902
783.968000	1.048353
784.171000	0.939239
784.374000	-0.579798
784.576000	-0.478381
784.779000	-0.073287
784.982000	0.218586
785.184000	-0.751313
785.387000	-0.189395
785.590000	0.565322
785.792000	0.272178
785.995000	0.002572
786.198000	-0.177733
786.400000	-0.734626
786.603000	-0.840222
786.806000	-0.966891
787.008000	-0.411017
787.211000	-0.347642
787.414000	-1.194878
787.616000	-0.898892
787.819000	-1.058163
788.022000	-1.675939
788.224000	-0.812447
788.427000	-1.339060
788.630000	-1.132558
788.832000	-0.814875
789.035000	-1.090036
789.238000	-1.742936
789.440000	-1.327464
789.643000	0.082297
789.846000	-0.636289
790.048000	-0.410988
790.251000	-0.331005
790.454000	-0.570106
790.656000	0.403756
790.859000	-0.506533
791.062000	-1.057807
791.264000	-0.278988
791.467000	-1.142224
791.669000	-1.548572
791.872000	-0.417546
792.075000	-1.175362
792.277000	-0.931774
792.480000	-0.746203
792.683000	-1.192293
792.885000	-1.451710
793.088000	-1.306965
793.291000	-1.405971
793.493000	-1.449639
793.696000	-0.490713
793.899000	-0.162189
794.101000	-0.727412
794.304000	-1.032829
794.507000	-0.481227
794.709000	-0.260694
794.912000	-0.999637
795.115000	-1.517685
795.317000	-1.098903
795.520000	-0.767553
795.723000	-1.037843
795.925000	-1.306946
796.128000	-1.685034
796.331000	-1.253113
796.533000	-1.722886
796.736000	-0.821700
796.939000	-0.595662
797.141000	-1.068734
797.344000	-0.354678
797.547000	-0.354831
797.749000	-0.598922
797.952000	-1.105998
798.155000	-1.477190
798.357000	-1.630647
798.560000	-1.290947
798.763000	-0.708709
798.965000	-1.201343
799.168000	-0.855616
799.371000	-0.579818
799.573000	-0.859473
799.776000	-1.592699
799.978000	-1.686367
800.181000	-0.880120
800.384000	0.784194
800.586000	-0.056145
800.789000	-1.798834
800.992000	-1.443406
801.194000	-1.490967
801.397000	-1.524481
801.600000	-1.410654
801.802000	-0.295070
802.005000	-0.445509
802.208000	-1.946048
802.410000	-0.895793
802.613000	-0.929838
802.816000	-1.156875
803.018000	-1.643270
803.221000	-1.404229
803.424000	0.184992
803.626000	-0.315885
803.829000	-0.972005
804.032000	0.079432
804.234000	1.010924
804.437000	-0.518376
804.640000	-0.839740
804.842000	-0.611279
805.045000	-0.938459
805.248000	-0.770110
805.450000	-1.217379
805.653000	-1.038533
805.856000	-0.913160
806.058000	-0.090350
806.261000	-1.527083
806.464000	-1.341051
806.666000	-0.685677
806.869000	-0.894887
807.072000	-2.107798
807.274000	-2.582093
807.477000	-1.372024
807.679000	-0.756190
807.882000	-1.233616
808.085000	-1.082301
808.287000	-0.492151
808.490000	-1.485690
808.693000	-1.150299
808.895000	-0.798736
809.098000	-0.959590
809.301000	-1.139903
809.503000	-1.274208
809.706000	0.165836
809.909000	0.393388
810.111000	-0.029301
810.314000	-0.518839
810.517000	-1.183920
810.719000	-1.337780
810.922000	-1.146363
811.125000	-0.062275
811.327000	0.135152
811.530000	-0.642034
811.735000	-1.169779
811.940000	-1.520141
812.146000	-1.227216
812.351000	-0.412430
812.556000	-0.847529
812.761000	-1.536419
812.967000	-0.517711
813.172000	-0.416419
813.377000	-0.754571
813.582000	0.054127
813.788000	-0.439409
813.993000	-1.593533
814.198000	-0.659805
814.403000	-1.339271
814.609000	-0.646485
814.814000	-0.872738
815.019000	-0.030867
815.224000	-0.236527
815.429000	-1.083522
815.635000	-0.273462
815.840000	-0.343065
816.045000	-0.536088
816.250000	-0.554386
816.456000	-1.672988
816.661000	-2.347313
816.866000	-1.912922
817.071000	-1.806292
817.277000	-2.206994
817.482000	-1.271923
817.687000	-0.439048
817.892000	-0.744197
818.097000	-0.621491
818.303000	-0.175016
818.508000	0.680873
818.713000	7.139790
818.918000	3.672686
819.124000	0.003589
819.329000	-1.113655
819.534000	-1.225418
819.739000	-1.243595
819.945000	-1.213140
820.150000	-0.946075
820.355000	-0.874716
820.560000	-0.397855
820.766000	-0.453766
820.971000	-0.548395
821.176000	-1.896376
821.381000	-2.645059
821.586000	-1.828222
821.792000	-0.441942
821.997000	-0.758321
822.202000	-0.907904
822.407000	-1.283878
822.613000	-1.735378
822.818000	-1.421176
823.023000	-0.653262
823.228000	-0.808626
823.434000	-0.147249
823.639000	0.382157
823.844000	-1.191221
824.049000	-0.299924
824.255000	0.327556
824.460000	-0.838018
824.665000	-1.433127
824.870000	-0.438316
825.075000	-0.342627
825.281000	-0.420886
825.486000	0.625362
825.691000	-1.552154
825.896000	-2.977861
826.102000	-1.029639
826.307000	-0.504344
826.512000	-1.016384
826.717000	-0.960473
826.923000	-1.022430
827.128000	-0.747733
827.333000	-1.588751
827.538000	-1.135076
827.744000	-0.276446
827.949000	-1.135678
828.154000	-0.758847
828.359000	0.124405
828.564000	-0.560613
828.770000	-0.704676
828.975000	0.044650
829.180000	-1.117817
829.385000	-2.300032
829.591000	-1.756850
829.796000	-0.901335
830.001000	-1.067999
830.206000	-1.650490
830.412000	-1.896746
830.617000	-2.294849
830.822000	-1.057400
831.027000	-0.951203
831.232000	-1.416655
831.438000	-1.531873
831.643000	-0.837408
831.848000	-1.092565
832.053000	-1.054391
832.259000	-1.288882
832.464000	-2.780577
832.669000	-2.150574
832.874000	-1.763672
833.080000	-2.156571
833.285000	-0.574305
833.490000	-0.724824
833.695000	-2.240599
833.901000	-1.578835
834.106000	-1.863608
834.311000	-1.087361
834.516000	-1.307708
834.721000	-1.293094
834.927000	0.313569
835.132000	-0.703593
835.337000	0.447602
835.542000	-0.151574
835.748000	-1.664080
835.953000	-0.263423
836.158000	-0.622129
836.363000	-0.714501
836.569000	-0.742682
836.774000	-1.605924
836.979000	-1.857688
837.184000	-2.340268
837.390000	-1.979630
837.595000	-1.184557
837.800000	-1.164356
838.005000	-1.194549
838.210000	-1.264279
838.416000	-2.056624
838.621000	-1.829932
838.826000	-1.759188
839.031000	-1.628256
839.237000	-2.039955
839.442000	-2.725859
839.647000	-3.097855
839.852000	-2.214203
840.058000	-1.629932
840.263000	-1.566517
840.468000	-1.734911
840.673000	-1.043912
840.878000	-1.665154
841.084000	-2.611011
841.289000	-1.125944
841.494000	1.506880
841.699000	1.098655
841.905000	0.346061
842.110000	0.151913
842.315000	-1.836663
842.520000	-0.804573
842.726000	-1.642498
842.931000	-2.206238
843.136000	-1.405576
843.341000	-2.961756
843.547000	-1.661955
843.752000	-1.389870
843.957000	-2.707079
844.162000	-2.467614
844.367000	-1.916696
844.573000	-1.086910
844.778000	-0.678790
844.983000	-0.883577
845.188000	-0.734986
845.394000	-2.389680
845.599000	-1.947124
845.804000	-1.747564
846.009000	-0.929133
846.215000	-1.611355
846.420000	-1.589559
846.625000	-0.388192
846.830000	0.292711
847.036000	-1.491655
847.241000	-2.078184
847.446000	-0.680338
847.651000	-1.027450
847.856000	-2.399504
848.062000	-1.763427
848.267000	0.166208
848.472000	-1.931470
848.677000	-3.150776
848.883000	-0.963703
849.088000	0.549272
849.293000	-1.031899
849.498000	-1.793978
849.704000	-1.115492
849.909000	-1.282851
850.114000	-1.995610
850.319000	-0.956079
850.524000	-1.651952
850.730000	-1.633543
850.935000	-2.058498
851.140000	-0.441870
851.345000	-0.246070
851.551000	-0.751650
851.756000	-1.122262
851.961000	-1.690699
852.166000	-1.606715
852.372000	-1.270554
852.577000	-1.194134
852.782000	-1.721312
852.987000	-0.568310
853.193000	-0.916031
853.398000	-0.714602
853.603000	-1.784720
853.808000	-2.941422
854.013000	-1.942405
854.219000	-0.168958
854.424000	1.380306
854.629000	1.236812
854.834000	-1.174259
855.040000	-1.359940
855.245000	-0.941082
855.450000	-3.150887
855.655000	-3.847725
855.861000	-3.394858
856.066000	-2.760798
856.271000	-2.735120
856.476000	-0.386895
856.682000	-1.602087
856.887000	-4.814159
857.092000	-2.849583
857.297000	-0.176909
857.502000	-1.002422
857.708000	-1.831148
857.913000	-0.607352
858.118000	-0.643907
858.323000	-0.738944
858.529000	-1.543802
858.734000	-2.262943
858.939000	-1.334333
859.144000	-2.496265
859.350000	-3.435194
859.555000	-3.037947
859.760000	-0.687896
859.965000	0.258675
860.171000	-1.862907
860.376000	-1.043511
860.581000	-2.928374
860.786000	-5.343184
860.991000	-4.497809
861.197000	-3.273231
861.402000	-1.154398
861.607000	-1.832728
861.812000	-3.460875
862.018000	-3.766917
862.223000	-2.437789
862.428000	-1.534239
862.633000	-0.190227
862.839000	-0.752478
863.044000	-2.089943
863.249000	-2.582108
863.454000	-0.923572
863.659000	-1.992707
863.865000	-2.270522
864.070000	-2.142173
864.275000	-2.213022
864.480000	-1.919069
864.686000	-4.130391
864.891000	-3.488981
865.096000	-0.947849
865.301000	-0.334759
865.507000	-0.061848
865.712000	-0.852072
865.917000	-2.102379
866.122000	-1.379970
866.328000	-4.002989
866.533000	-3.198762
866.738000	-0.341915
866.943000	-0.237748
867.148000	0.675061
867.354000	-2.756873
867.559000	-3.785594
867.764000	-1.631344
867.969000	-1.138425
868.175000	-2.347658
868.380000	-2.570715
868.585000	-3.613727
868.790000	-1.179954
868.996000	-1.549873
869.201000	-3.841264
869.406000	-4.623564
869.611000	-3.644201
869.817000	-3.093034
870.022000	1.325374
870.227000	-1.130435
870.432000	-2.758859
870.637000	-1.395777
870.843000	-1.552446
871.048000	-2.036248
871.253000	-0.066923
871.458000	-2.010399
871.664000	-4.354726
871.869000	-4.153488
872.074000	-3.103632
872.279000	-1.547276
872.485000	-1.442744
872.690000	-2.483998
872.895000	-2.686724
873.100000	-3.190884
873.306000	-3.784967
873.511000	-2.564274
873.716000	-0.578031
873.921000	-2.095737
874.126000	-2.762348
874.332000	-1.962152
874.537000	-0.942374
874.742000	-1.057736
874.947000	-1.141493
875.153000	0.448078
875.358000	-0.713794
875.563000	-1.594532
875.768000	-4.457678
875.974000	-4.758775
876.179000	-1.246656
876.384000	-0.886662
876.589000	-2.659462
876.794000	-2.333787
877.000000	-3.158145
877.205000	-4.550507
877.410000	-2.096606
877.615000	-3.905948
877.821000	-5.852689
878.026000	-3.942527
878.231000	-4.315839
878.436000	-4.947808
878.642000	-4.101354
878.847000	-2.261186
879.052000	-1.250693
879.257000	-2.827941
879.463000	-4.357990
879.668000	-3.723227
879.873000	-0.970700
880.078000	-3.576487
880.283000	-5.175679
880.489000	-5.218411
880.694000	-4.380480
880.899000	-2.419201
881.104000	-0.818381
881.310000	1.096951
881.515000	-0.382622
881.720000	1.534170
881.925000	2.813896
882.131000	4.260558
882.336000	1.113088
882.541000	-3.819602
882.746000	-3.838442
882.952000	-4.012720
883.157000	-3.843425
883.362000	-3.625010
883.567000	-4.811531
883.772000	-5.174495
883.978000	-3.450406
884.183000	-2.545780
884.388000	-3.313613
884.593000	-4.908677
884.799000	1.106877
885.004000	-0.315417
885.209000	-2.078931
885.414000	-0.591944
885.620000	-4.229479
885.825000	-1.820298
886.030000	-2.144501
886.235000	-3.052777
886.440000	-2.270645
886.646000	-4.327606
886.851000	-4.253570
887.056000	-0.182605
887.261000	-0.952232
887.467000	-5.012321
887.672000	-2.323907
887.877000	-2.775547
888.082000	-5.440117
888.288000	-5.273508
888.493000	-7.070835
888.698000	-6.273299
888.903000	-3.114944
889.109000	-4.395448
889.314000	-0.881570
889.519000	-2.703730
889.724000	-0.088936
889.929000	-1.622511
890.135000	-2.519673
890.340000	-2.188687
890.545000	-4.235527
890.750000	-5.145914
890.956000	-2.601612
891.161000	-0.591789
891.366000	-2.906957
891.571000	-2.359254
891.777000	-2.361455
891.982000	-0.801138
892.187000	-0.244427
892.392000	0.264166
892.598000	-0.756149
892.803000	-1.072090
893.008000	-3.800087
893.213000	-3.944117
893.418000	-3.661610
893.624000	-3.991844
893.829000	-7.321548
894.034000	-3.324649
894.239000	-0.932130
894.445000	-4.378176
894.650000	-4.505262
894.855000	-4.090285
895.060000	-3.716053
895.266000	-3.634153
895.471000	-5.539013
895.676000	-2.482165
895.881000	-1.594129
896.087000	-3.467097
896.292000	-3.812767
896.497000	-0.151528
896.702000	-2.145227
896.907000	-4.793720
897.113000	0.227568
897.318000	0.335763
897.523000	-0.369227
897.728000	-1.133749
897.934000	-1.999398
898.139000	-3.475907
898.344000	-0.483940
898.549000	-0.652617
898.755000	-2.536624
898.960000	-3.332463
899.165000	-5.619787
899.370000	-2.228295
899.575000	1.919653
899.781000	-3.084668
899.986000	-4.210678
900.191000	-3.161185
900.396000	-3.732034
900.602000	-3.640322
900.807000	-4.585435
901.012000	-2.764553
901.217000	-0.568198
901.423000	-2.935257
901.628000	-4.394436
901.833000	-0.396187
902.038000	-1.221287
902.244000	-5.258200
902.449000	-3.875578
902.654000	-4.214026
902.859000	-2.541498
903.064000	-0.167063
903.270000	-0.227544
903.475000	-4.182829
903.680000	-6.872476
903.885000	-6.806576
904.091000	-7.266167
904.296000	-7.903988
904.501000	-6.345836
904.706000	-3.974310
904.912000	-0.235577
905.117000	-2.415448
905.322000	-5.196462
905.527000	-4.297809
905.733000	-4.238124
905.938000	-5.019452
906.143000	-5.334394
906.348000	-7.632138
906.553000	-3.259547
906.759000	-0.628417
906.964000	-1.791502
907.169000	-4.847452
907.374000	-6.582461
907.580000	-3.822298
907.785000	-3.755915
907.990000	26.041122
908.195000	17.530797
908.401000	-1.457065
908.606000	-10.134534
908.811000	-12.205751
909.016000	-3.473162
909.221000	-2.811541
909.427000	-4.518667
909.632000	-6.059591
909.837000	-5.345964
910.042000	-5.774929
910.248000	-7.742752
910.453000	-3.535114
910.658000	-5.946120
910.863000	-6.920569
911.069000	-6.875486
911.274000	-3.314271
911.479000	-1.482075
911.684000	-8.101476
911.890000	-4.503187
912.095000	-4.508739
912.300000	-9.168551
912.506000	-7.003020
912.711000	-4.892883
912.917000	-3.431008
913.123000	-4.241227
913.328000	-4.562757
913.534000	-3.561496
913.740000	4.967047
913.946000	0.919956
914.151000	-5.106327
914.357000	-5.886156
914.563000	-1.267939
914.768000	-5.005091
914.974000	-7.902260
915.180000	-6.193913
915.385000	-5.751157
915.591000	-8.475335
915.797000	-3.928146
916.002000	0.889285
916.208000	-3.066875
916.414000	-7.096120
916.620000	-9.193432
916.825000	-4.321916
917.031000	-4.566391
917.237000	-10.234140
917.442000	-5.612869
917.648000	-8.452491
917.854000	-8.529078
918.059000	0.182014
918.265000	0.016526
918.471000	-4.551046
918.676000	-7.453458
918.882000	-8.769988
919.088000	-8.278180
919.294000	-12.521484
919.499000	-8.914956
919.705000	-2.659688
919.911000	-3.177671
920.116000	-2.511765
920.322000	-9.003705
920.528000	-7.202759
920.733000	-8.731822
920.939000	-10.022940
921.145000	-10.626376
921.350000	-9.494312
921.556000	-6.740870
921.762000	-7.270610
921.968000	-7.474098
922.173000	-8.352022
922.379000	-10.840368
922.585000	-5.121831
922.790000	-7.565280
922.996000	-9.039587
923.202000	-8.671339
923.407000	-7.956841
923.613000	-7.197730
923.819000	-5.583842
924.024000	-5.261351
924.230000	-2.685920
924.436000	-6.689221
924.642000	3.858706
924.847000	0.915011
925.053000	-6.239411
925.259000	-12.018268
925.464000	-5.387443
925.670000	-5.283022
925.876000	-9.693664
926.081000	-10.661204
926.287000	-4.465349
926.493000	-2.676668
926.698000	-5.071290
926.904000	-3.387669
927.110000	-5.486024
927.316000	-5.404824
927.521000	2.445365
927.727000	-3.402237
927.933000	-5.673501
928.138000	-5.374560
928.344000	-11.987491
928.550000	-7.413055
928.755000	-1.194401
928.961000	-7.483308
929.167000	-9.638804
929.372000	-1.427030
929.578000	-0.990116
929.784000	-10.290977
929.990000	-12.729348
930.195000	-7.055059
930.401000	-5.842467
930.607000	-4.473114
930.812000	-3.585527
931.018000	-7.574858
931.224000	-14.191745
931.429000	-10.566829
931.635000	-12.443785
931.841000	-13.644631
932.046000	-9.236583
932.252000	-5.175552
932.458000	1.732643
932.664000	-2.936695
932.869000	-8.498147
933.075000	-8.058578
933.281000	-8.299400
933.486000	-3.041524
933.692000	-4.595688
933.898000	-9.532490
934.103000	-3.598982
934.309000	-7.507809
934.515000	-4.272417
934.720000	-4.691540
934.926000	-0.924426
935.132000	-2.557824
935.338000	-4.785994
935.543000	-11.829735
935.749000	-12.926364
935.955000	-14.966251
936.160000	-13.851771
936.366000	-5.587942
936.572000	-6.872924
936.777000	-2.217975
936.983000	2.583699
937.189000	-3.603153
937.394000	-11.323804
937.600000	-2.589744
937.806000	2.049620
938.012000	-9.905196
938.217000	3.368698
938.423000	1.472315
938.629000	-8.931208
938.834000	-16.571735
939.040000	-16.765737
939.246000	-8.508796
939.451000	-8.948729
939.657000	-6.853492
939.863000	-15.127323
940.068000	-4.265735
940.274000	-9.490350
940.480000	-7.159807
940.686000	-5.146301
940.891000	-10.418659
941.097000	17.329623
941.303000	5.821649
941.508000	-5.419255
941.714000	-2.888924
941.920000	-16.449256
942.125000	-8.154740
942.331000	-6.696323
942.537000	-0.336432
942.742000	-2.794322
942.948000	-11.292203
943.154000	-12.975859
943.360000	-26.845335
943.565000	-11.709874
943.771000	1.788746
943.977000	5.252329
944.182000	-16.539632
944.388000	-19.321918
944.594000	-1.334129
944.799000	5.192464
945.005000	-6.976250
945.211000	-2.306257
945.416000	-5.120291
945.622000	-19.060813
945.828000	-13.635349
946.034000	1.267277
946.239000	2.096514
946.445000	-10.482721
946.651000	-22.518554
946.856000	-19.143157
947.062000	-2.999217
947.268000	-2.612104
947.473000	-18.809799
947.679000	-19.542765
947.885000	-7.816560
948.090000	-1.414790
948.296000	16.122141
948.502000	1.709945
948.708000	-9.213358
948.913000	-12.941226
949.119000	-0.595759
949.325000	-9.538191
949.530000	-22.966313
949.736000	-27.558105
949.942000	-20.682818
950.147000	-18.490130
950.353000	-16.221040
950.559000	-12.427317
950.764000	5.375693
950.970000	1.116833
951.176000	-8.429993
951.382000	-11.794886
951.587000	-3.305892
951.793000	-0.629573
951.999000	2.039188
952.204000	-12.041392
952.410000	-28.349016
952.616000	-14.482343
952.821000	-12.361085
953.027000	-18.152223
953.233000	-20.285656
953.438000	-19.521703
953.644000	-3.138531
953.850000	-9.057752
954.056000	-14.213368
954.261000	-15.227375
954.467000	-7.376370
954.673000	3.518436
954.878000	-8.779860
955.084000	-11.116291
955.290000	-24.003394
955.495000	-22.434303
955.701000	-17.936907
955.907000	0.047566
956.112000	-2.093132
956.318000	7.355114
956.524000	5.055281
956.730000	-10.850889
956.935000	-12.827235
957.141000	-14.187818
957.347000	-3.623663
957.552000	-9.489941
957.758000	-26.629247
957.964000	-38.025617
958.169000	0.049688
958.375000	2.292721
958.581000	-15.726759
958.786000	-27.525177
958.992000	-32.144749
959.198000	-11.213549
959.404000	-4.285819
959.609000	-17.121309
959.815000	-26.730231
960.021000	-6.442468
960.226000	-1.782122
960.432000	-28.061840
960.638000	-24.175100
960.843000	-18.542310
961.049000	-17.300764
961.255000	-1.827617
961.460000	-11.586059
961.666000	-34.323559
961.872000	-27.518159
962.078000	-28.649430
962.283000	-38.754755
962.489000	-31.711487
962.695000	-21.538739
962.900000	-19.143243
963.106000	-19.069115
963.312000	-21.881078
963.517000	-24.901131
963.723000	-26.067090
963.929000	-8.031572
964.134000	3.517748
964.340000	-18.601871
964.546000	-23.831591
964.752000	-26.555955
964.957000	-31.855485
965.163000	-5.652103
965.369000	-12.122684
965.574000	-15.633033
965.780000	-11.334169
966.000000	-15.350584
966.220000	-10.791080
966.440000	-10.848180
966.661000	-0.250892
966.881000	-18.811793
967.101000	-42.379308
967.321000	-44.682250
967.541000	-12.047400
967.761000	-16.055716
967.981000	-7.345780
968.202000	-14.444585
968.422000	-4.238200
968.642000	-6.205706
968.862000	-7.009384
969.082000	-15.207948
969.302000	-4.837108
969.522000	-8.199398
969.743000	-0.268385
969.963000	-18.789719
970.183000	-34.904186
970.403000	-29.154066
970.623000	-24.724830
970.843000	-2.408734
971.063000	-6.042835
971.284000	-27.792212
971.504000	-34.813554
971.724000	-14.263135
971.944000	-26.577858
972.164000	-35.313453
972.384000	-29.520695
972.604000	-43.451295
972.825000	-45.624192
973.045000	-39.597281
973.265000	17.636707
973.485000	8.631669
973.705000	-11.651618
973.925000	-16.987697
974.145000	-55.216183
974.365000	-16.585630
974.586000	-26.087366
974.806000	-47.031722
975.026000	-13.465292
975.246000	-19.974079
975.466000	-33.117449
975.686000	-18.713332
975.906000	-33.046607
976.127000	-55.390942
976.347000	-43.407120
976.567000	-9.731868
976.787000	-13.187135
977.007000	-26.496274
977.227000	-27.745959
977.447000	-35.321176
977.668000	-54.419606
977.888000	-33.779442
978.108000	-31.530364
978.328000	-14.198584
978.548000	8.717857
978.768000	8.417842
978.988000	-5.701653
979.209000	-12.890717
979.429000	-12.964895
979.649000	-1.324170
979.869000	-31.400253
980.089000	-48.005442
980.309000	-49.647137
980.529000	-66.692702
980.750000	-41.327123
980.970000	-54.790973
981.190000	-36.604777
981.410000	-32.917195
981.630000	-44.240316
981.850000	-29.436585
982.070000	-23.840925
982.291000	-46.471522
982.511000	-44.380482
982.731000	-22.586403
982.951000	-43.852066
983.171000	-33.562717
983.391000	-28.711806
983.611000	-8.312437
983.832000	-36.038778
984.052000	-51.661128
984.272000	-30.007981
984.492000	-36.000817
984.712000	-47.328600
984.932000	-65.132734
985.152000	-73.271302
985.373000	-54.270589
985.593000	-28.395142
985.813000	-27.565423
986.033000	-37.621803
986.253000	-8.189447
986.473000	-6.570568
986.693000	-43.724640
986.914000	-61.497872
987.134000	-9.047110
987.354000	-35.882314
987.574000	192.150476
987.794000	116.037139
988.014000	-56.780370
988.234000	-32.114433
988.455000	-15.439111
988.675000	-30.463396
988.895000	-40.365045
989.115000	-44.590085
989.335000	-25.232610
989.555000	-9.988029
989.775000	-41.663827
989.995000	-30.205600
990.216000	-19.526509
990.436000	-33.212620
990.656000	7.997679
990.876000	-33.618077
991.096000	-28.012977
991.316000	12.558260
991.536000	-14.519123
991.757000	-36.002280
991.977000	-75.893840
992.197000	-16.399478
992.417000	-28.264011
992.637000	-81.230897
992.857000	-91.601067
993.077000	-84.285506
993.298000	-48.310656
993.518000	-52.954080
993.738000	-97.512530
993.958000	-53.983783
994.178000	-64.416505
994.398000	-41.845174
994.618000	-74.238081
994.839000	-132.575604
995.059000	-33.760018
995.279000	16.918033
995.499000	-55.265689
995.719000	-29.391000
995.939000	-40.929224
996.159000	-43.710448
996.380000	-32.465369
996.600000	-82.135587
996.820000	-47.888630
997.040000	-10.200476
997.260000	-81.693955
997.480000	-56.125271
997.700000	-101.353732
997.921000	-66.140167
998.141000	-0.840284
998.361000	-14.638681
998.581000	-51.366116
998.801000	-78.307006
999.021000	-73.089613
999.241000	-61.749453
999.462000	-73.407444
999.682000	-126.373176
999.902000	-81.930337
1000.122000	-105.778996
1000.342000	-172.114859
1000.562000	-101.632895
1000.782000	-113.170947
1001.003000	-1172.061641
