Wavelength	Irradiance
(nm)	(mW/cm2/nm)

294.396000	0.000000
294.577000	0.000000
294.757000	-0.000000
294.938000	-0.000000
295.118000	-0.000000
295.299000	0.000000
295.479000	-0.000000
295.660000	-0.000000
295.840000	-0.000000
296.021000	-0.000000
296.202000	-0.000000
296.382000	-0.000000
296.563000	-0.000000
296.743000	-0.000000
296.924000	-0.000000
297.104000	-0.000000
297.285000	-0.000000
297.465000	-0.000000
297.646000	-0.000000
297.826000	-0.000000
298.007000	0.000000
298.187000	0.000000
298.368000	-0.000000
298.548000	0.000000
298.729000	0.000000
298.909000	-0.000000
299.090000	-0.000000
299.270000	-0.000000
299.451000	-0.000000
299.631000	-0.000000
299.812000	-0.000000
299.992000	0.000000
300.173000	0.000000
300.353000	-0.000000
300.534000	-0.000000
300.714000	0.000000
300.895000	0.000000
301.075000	-0.000000
301.256000	0.000000
301.436000	-0.000000
301.617000	-0.000000
301.797000	-0.000000
301.978000	-0.000000
302.159000	0.000000
302.339000	0.000000
302.520000	-0.000000
302.700000	-0.000000
302.881000	0.000000
303.061000	0.000000
303.242000	0.000000
303.422000	0.000000
303.603000	-0.000000
303.783000	-0.000000
303.964000	-0.000000
304.144000	-0.000000
304.325000	-0.000000
304.505000	-0.000000
304.686000	-0.000000
304.866000	0.000000
305.047000	-0.000000
305.227000	-0.000000
305.408000	-0.000000
305.588000	-0.000000
305.769000	-0.000000
305.949000	-0.000000
306.130000	-0.000000
306.310000	-0.000000
306.491000	-0.000000
306.671000	0.000000
306.852000	-0.000000
307.032000	-0.000000
307.213000	-0.000000
307.393000	-0.000000
307.574000	0.000000
307.755000	0.000000
307.935000	-0.000000
308.116000	-0.000000
308.296000	-0.000000
308.477000	0.000000
308.657000	0.000000
308.838000	0.000000
309.018000	0.000000
309.199000	-0.000000
309.379000	-0.000000
309.560000	0.000000
309.740000	-0.000000
309.921000	-0.000000
310.101000	-0.000000
310.282000	-0.000000
310.462000	-0.000000
310.643000	-0.000000
310.823000	-0.000000
311.004000	-0.000000
311.184000	-0.000000
311.365000	0.000000
311.545000	0.000000
311.726000	-0.000000
311.906000	-0.000000
312.087000	0.000000
312.267000	-0.000000
312.448000	-0.000000
312.628000	-0.000000
312.809000	-0.000000
312.989000	-0.000000
313.170000	-0.000000
313.344000	-0.000000
313.518000	-0.000000
313.691000	-0.000000
313.865000	-0.000000
314.039000	-0.000000
314.213000	-0.000000
314.387000	-0.000000
314.560000	-0.000000
314.734000	-0.000000
314.908000	-0.000000
315.082000	-0.000000
315.255000	0.000000
315.429000	0.000000
315.603000	0.000000
315.777000	-0.000000
315.951000	0.000000
316.124000	-0.000000
316.298000	-0.000000
316.472000	-0.000000
316.646000	-0.000000
316.820000	-0.000000
316.993000	-0.000000
317.167000	-0.000000
317.341000	-0.000000
317.515000	-0.000000
317.688000	-0.000000
317.862000	-0.000000
318.036000	-0.000000
318.210000	-0.000000
318.384000	-0.000000
318.557000	-0.000000
318.731000	-0.000000
318.905000	0.000000
319.079000	0.000000
319.253000	-0.000000
319.426000	0.000000
319.600000	0.000000
319.774000	-0.000000
319.948000	-0.000000
320.122000	0.000000
320.295000	0.000000
320.469000	-0.000000
320.643000	-0.000000
320.817000	-0.000000
320.990000	-0.000000
321.164000	-0.000000
321.338000	-0.000000
321.512000	-0.000000
321.686000	-0.000000
321.859000	-0.000000
322.033000	0.000000
322.207000	-0.000000
322.381000	-0.000000
322.555000	0.000000
322.728000	-0.000000
322.902000	-0.000000
323.076000	-0.000000
323.250000	-0.000000
323.423000	-0.000000
323.597000	-0.000000
323.771000	-0.000000
323.945000	-0.000000
324.119000	-0.000000
324.292000	0.000000
324.466000	-0.000000
324.640000	0.000000
324.814000	0.000000
324.988000	-0.000000
325.161000	-0.000000
325.335000	-0.000000
325.509000	-0.000000
325.683000	-0.000000
325.856000	-0.000000
326.030000	-0.000000
326.204000	-0.000000
326.378000	-0.000000
326.552000	-0.000000
326.725000	-0.000000
326.899000	-0.000000
327.073000	-0.000000
327.247000	-0.000000
327.421000	0.000000
327.594000	0.000000
327.768000	-0.000000
327.942000	-0.000000
328.116000	0.000000
328.289000	0.000000
328.463000	-0.000000
328.637000	0.000000
328.811000	-0.000000
328.985000	-0.000000
329.158000	-0.000000
329.332000	-0.000000
329.506000	-0.000000
329.680000	-0.000000
329.854000	-0.000000
330.027000	-0.000000
330.201000	0.000000
330.375000	0.000000
330.549000	0.000000
330.723000	-0.000000
330.896000	-0.000000
331.070000	-0.000000
331.244000	-0.000000
331.418000	-0.000000
331.591000	-0.000000
331.765000	-0.000000
331.939000	-0.000000
332.113000	-0.000000
332.287000	-0.000000
332.460000	0.000000
332.634000	0.000000
332.808000	-0.000000
332.982000	-0.000000
333.156000	-0.000000
333.329000	-0.000000
333.503000	-0.000000
333.677000	-0.000000
333.851000	-0.000000
334.024000	-0.000000
334.198000	-0.000000
334.372000	-0.000000
334.546000	-0.000000
334.720000	-0.000000
334.893000	-0.000000
335.067000	-0.000000
335.241000	-0.000000
335.415000	-0.000000
335.589000	-0.000000
335.762000	-0.000000
335.936000	-0.000000
336.110000	-0.000000
336.284000	-0.000000
336.458000	-0.000000
336.631000	-0.000000
336.805000	-0.000000
336.979000	-0.000000
337.153000	-0.000000
337.326000	-0.000000
337.500000	-0.000000
337.674000	-0.000000
337.848000	-0.000000
338.022000	-0.000000
338.195000	-0.000000
338.369000	-0.000000
338.543000	-0.000000
338.717000	-0.000000
338.891000	-0.000000
339.064000	0.000000
339.238000	-0.000000
339.412000	-0.000000
339.586000	-0.000000
339.759000	-0.000000
339.933000	-0.000000
340.107000	0.000000
340.281000	-0.000000
340.455000	-0.000000
340.628000	-0.000000
340.802000	-0.000000
340.976000	-0.000000
341.150000	-0.000000
341.324000	-0.000000
341.497000	-0.000000
341.671000	-0.000000
341.845000	-0.000000
342.019000	-0.000000
342.192000	-0.000000
342.366000	-0.000000
342.540000	-0.000000
342.714000	-0.000000
342.888000	-0.000000
343.061000	-0.000000
343.235000	-0.000000
343.409000	-0.000000
343.583000	-0.000000
343.757000	-0.000000
343.930000	-0.000000
344.104000	-0.000000
344.278000	0.000000
344.452000	0.000000
344.626000	-0.000000
344.799000	-0.000000
344.973000	-0.000000
345.147000	-0.000000
345.321000	-0.000000
345.494000	-0.000000
345.668000	0.000000
345.842000	0.000000
346.016000	-0.000000
346.190000	0.000000
346.363000	0.000000
346.537000	-0.000000
346.711000	-0.000000
346.885000	-0.000000
347.059000	-0.000000
347.232000	0.000000
347.406000	0.000000
347.580000	-0.000000
347.754000	-0.000000
347.927000	-0.000000
348.101000	0.000000
348.275000	-0.000000
348.449000	-0.000000
348.623000	-0.000000
348.796000	0.000000
348.970000	0.000000
349.144000	-0.000000
349.318000	-0.000000
349.492000	-0.000000
349.665000	-0.000000
349.839000	-0.000000
350.013000	-0.000000
350.187000	-0.000000
350.361000	-0.000000
350.534000	-0.000000
350.708000	-0.000000
350.882000	-0.000000
351.056000	0.000000
351.229000	-0.000000
351.403000	-0.000000
351.577000	-0.000000
351.751000	-0.000000
351.925000	-0.000000
352.098000	-0.000000
352.272000	-0.000000
352.446000	-0.000000
352.620000	-0.000000
352.794000	-0.000000
352.967000	-0.000000
353.141000	0.000000
353.315000	0.000000
353.489000	-0.000000
353.662000	-0.000000
353.836000	-0.000000
354.010000	-0.000000
354.184000	-0.000000
354.358000	-0.000000
354.531000	-0.000000
354.705000	-0.000000
354.879000	-0.000000
355.053000	-0.000000
355.227000	0.000000
355.400000	-0.000000
355.574000	-0.000000
355.748000	0.000000
355.922000	-0.000000
356.095000	-0.000000
356.269000	-0.000000
356.443000	-0.000000
356.617000	-0.000000
356.791000	-0.000000
356.964000	-0.000000
357.138000	-0.000000
357.312000	-0.000000
357.486000	-0.000000
357.660000	-0.000000
357.833000	-0.000000
358.007000	-0.000000
358.181000	-0.000000
358.355000	-0.000000
358.529000	-0.000000
358.702000	-0.000000
358.876000	-0.000000
359.050000	-0.000000
359.224000	-0.000000
359.397000	0.000000
359.571000	-0.000000
359.745000	-0.000000
359.919000	-0.000000
360.093000	-0.050049
360.266000	0.044677
360.440000	0.030178
360.614000	0.110630
360.788000	0.003217
360.962000	-0.217255
361.135000	-0.078939
361.309000	-0.257872
361.483000	-0.342796
361.657000	-0.264038
361.830000	-0.225486
362.004000	0.003341
362.178000	-0.283145
362.352000	-0.259261
362.526000	-0.083336
362.699000	-0.071988
362.873000	-0.457650
363.047000	-0.501256
363.221000	-0.425009
363.395000	-0.229060
363.568000	-0.253272
363.742000	-0.254619
363.916000	-0.248743
364.090000	-0.354083
364.263000	-0.324439
364.437000	-0.427691
364.611000	-0.040450
364.785000	-0.073700
364.959000	-0.318616
365.132000	-0.304086
365.306000	-0.356430
365.480000	-0.172880
365.656000	-0.268663
365.831000	-0.283037
366.007000	-0.237120
366.183000	-0.224520
366.358000	-0.480941
366.534000	-0.348203
366.710000	-0.433493
366.886000	-0.267933
367.061000	-0.075295
367.237000	-0.016932
367.413000	-0.178278
367.588000	-0.330132
367.764000	-0.323248
367.940000	-0.400733
368.115000	-0.444600
368.291000	-0.470435
368.467000	-0.332708
368.643000	0.041493
368.818000	-0.296938
368.994000	-0.465904
369.170000	-0.359311
369.345000	-0.285441
369.521000	-0.269551
369.697000	-0.152923
369.872000	-0.323069
370.048000	-0.441211
370.224000	-0.348115
370.399000	-0.516159
370.575000	-0.404631
370.751000	-0.524915
370.927000	-0.427262
371.102000	-0.460814
371.278000	-0.436699
371.454000	-0.288007
371.629000	0.008234
371.805000	-0.095679
371.981000	0.012704
372.156000	0.169219
372.332000	-0.021716
372.508000	-0.065422
372.683000	-0.056420
372.859000	-0.191285
373.035000	-0.171418
373.211000	0.241509
373.386000	0.030282
373.562000	-0.442058
373.738000	-0.594190
373.913000	-0.670368
374.089000	-0.519523
374.265000	-0.088035
374.440000	-0.079979
374.616000	-0.075396
374.792000	-0.300687
374.968000	0.098369
375.143000	-0.125834
375.319000	-0.416714
375.495000	-0.432666
375.670000	-0.246036
375.846000	-0.200333
376.022000	-0.373680
376.197000	-0.192052
376.373000	-0.373002
376.549000	-0.418668
376.724000	-0.546035
376.900000	-0.486048
377.076000	-0.299621
377.252000	0.066620
377.427000	0.164020
377.603000	-0.235183
377.779000	-0.337747
377.954000	-0.437736
378.130000	-0.256313
378.306000	-0.174087
378.481000	-0.215555
378.657000	-0.294197
378.833000	-0.369117
379.009000	-0.161874
379.184000	-0.063864
379.360000	-0.168115
379.536000	-0.190644
379.711000	-0.288355
379.887000	-0.267180
380.063000	-0.331372
380.238000	-0.384329
380.414000	-0.138845
380.590000	-0.445138
380.765000	-0.498650
380.941000	-0.167422
381.117000	0.007882
381.293000	-0.211492
381.468000	-0.430142
381.644000	-0.328561
381.820000	-0.191654
381.995000	-0.071787
382.171000	0.180949
382.347000	0.045920
382.522000	-0.415148
382.698000	-0.042098
382.874000	0.024555
383.050000	-0.377471
383.225000	0.012130
383.401000	0.217796
383.577000	-0.182152
383.752000	-0.282257
383.928000	-0.198914
384.104000	-0.131835
384.279000	-0.259214
384.455000	-0.103477
384.631000	-0.182072
384.806000	-0.432013
384.982000	-0.202953
385.158000	-0.250565
385.334000	-0.201574
385.509000	-0.243639
385.685000	-0.461030
385.861000	-0.331255
386.036000	-0.405162
386.212000	-0.582762
386.388000	-0.348508
386.563000	-0.306971
386.739000	-0.396963
386.915000	-0.622160
387.090000	-0.332994
387.266000	-0.087413
387.442000	-0.033525
387.618000	-0.078428
387.793000	-0.414561
387.969000	-0.563365
388.145000	-0.454436
388.320000	-0.402489
388.496000	-0.358551
388.672000	-0.617427
388.847000	-0.212902
389.023000	-0.173145
389.199000	-0.488246
389.375000	-0.228621
389.550000	-0.315862
389.726000	-0.154479
389.902000	-0.387356
390.077000	-0.196840
390.253000	-0.183928
390.429000	-0.287561
390.604000	-0.183727
390.780000	-0.170653
390.956000	-0.298044
391.131000	-0.337619
391.307000	0.011650
391.483000	-0.273475
391.659000	-0.419413
391.834000	-0.156855
392.010000	-0.320897
392.186000	-0.365347
392.361000	-0.301831
392.537000	-0.418339
392.713000	-0.063614
392.888000	0.142058
393.064000	-0.079822
393.240000	-0.376710
393.416000	-0.468878
393.591000	-0.440542
393.767000	-0.489675
393.943000	-0.408899
394.118000	-0.023827
394.294000	0.147944
394.470000	-0.023750
394.645000	0.065591
394.821000	0.218214
394.997000	-0.163319
395.172000	-0.174035
395.348000	-0.290371
395.524000	-0.548211
395.700000	-0.327365
395.875000	-0.165097
396.051000	-0.260519
396.227000	-0.324127
396.402000	-0.341346
396.578000	-0.205212
396.754000	-0.346314
396.929000	-0.310328
397.105000	-0.065335
397.281000	-0.130247
397.457000	-0.274588
397.632000	-0.316915
397.808000	-0.580602
397.984000	-0.669771
398.159000	-0.571887
398.335000	-0.437568
398.511000	-0.000379
398.686000	-0.182330
398.862000	-0.376881
399.038000	-0.466038
399.213000	-0.205945
399.389000	-0.455938
399.565000	-0.188095
399.741000	0.082129
399.916000	-0.007951
400.092000	0.131500
400.268000	-0.250747
400.443000	-0.348273
400.619000	0.044916
400.795000	-0.057203
400.970000	-0.288213
401.146000	-0.383160
401.322000	-0.038159
401.497000	0.369610
401.673000	0.022390
401.849000	-0.280266
402.025000	-0.098299
402.200000	-0.195688
402.376000	-0.278198
402.552000	0.101410
402.727000	-0.112942
402.903000	-0.445951
403.079000	-0.307617
403.254000	-0.034126
403.430000	-0.011548
403.606000	-0.134696
403.782000	-0.294768
403.957000	-0.430142
404.133000	-0.483708
404.309000	-0.359955
404.484000	-0.209380
404.660000	-0.221192
404.841000	-0.359891
405.023000	-0.011546
405.204000	-0.146058
405.385000	-0.480710
405.566000	-0.463605
405.748000	-0.291029
405.929000	-0.087631
406.110000	-0.187860
406.292000	-0.330762
406.473000	-0.182722
406.654000	-0.337966
406.835000	-0.176068
407.017000	-0.283402
407.198000	-0.313383
407.379000	-0.253761
407.560000	-0.302445
407.742000	-0.301079
407.923000	-0.257953
408.104000	-0.461070
408.286000	-0.252501
408.467000	-0.188999
408.648000	-0.460416
408.829000	-0.429221
409.011000	-0.352023
409.192000	-0.591221
409.373000	-0.289832
409.555000	-0.141415
409.736000	-0.162587
409.917000	-0.240902
410.098000	-0.220928
410.280000	-0.171886
410.461000	-0.200724
410.642000	-0.160949
410.823000	0.127326
411.005000	0.017899
411.186000	-0.248932
411.367000	-0.377196
411.549000	-0.333053
411.730000	-0.120976
411.911000	-0.047798
412.092000	-0.229547
412.274000	-0.281974
412.455000	-0.145078
412.636000	-0.098134
412.818000	-0.303333
412.999000	-0.408753
413.180000	-0.331933
413.361000	-0.365726
413.543000	-0.399754
413.724000	-0.452564
413.905000	-0.398743
414.087000	-0.435542
414.268000	-0.437883
414.449000	-0.385245
414.630000	-0.501226
414.812000	-0.668018
414.993000	-0.301230
415.174000	-0.081806
415.355000	-0.246222
415.537000	-0.514744
415.718000	-0.238282
415.899000	-0.365033
416.081000	-0.448156
416.262000	-0.292409
416.443000	-0.365385
416.624000	-0.336526
416.806000	-0.235425
416.987000	-0.162520
417.168000	-0.284196
417.350000	-0.364709
417.531000	-0.449577
417.712000	-0.428648
417.893000	-0.181351
418.075000	-0.080106
418.256000	-0.292487
418.437000	-0.164466
418.618000	-0.115164
418.800000	-0.094140
418.981000	-0.290697
419.162000	-0.216705
419.344000	-0.014173
419.525000	-0.184551
419.706000	-0.219549
419.887000	-0.045488
420.069000	0.127997
420.250000	-0.097446
420.431000	-0.211370
420.613000	-0.222798
420.794000	-0.411268
420.975000	-0.079611
421.156000	-0.190262
421.338000	-0.276363
421.519000	-0.334948
421.700000	-0.360160
421.882000	-0.360096
422.063000	-0.165976
422.244000	0.312079
422.425000	0.068582
422.607000	-0.282421
422.788000	-0.322706
422.969000	-0.465049
423.150000	-0.493159
423.332000	-0.505482
423.513000	-0.327836
423.694000	-0.298370
423.876000	-0.200729
424.057000	-0.128196
424.238000	-0.097462
424.419000	-0.062961
424.601000	-0.202075
424.782000	-0.205346
424.963000	-0.089933
425.145000	-0.142006
425.326000	-0.089792
425.507000	0.023703
425.688000	-0.027967
425.870000	-0.267263
426.051000	-0.423800
426.232000	-0.416880
426.413000	-0.377780
426.595000	-0.344801
426.776000	-0.361857
426.957000	-0.321924
427.139000	-0.182834
427.320000	-0.207852
427.501000	-0.066313
427.682000	-0.100539
427.864000	-0.141918
428.045000	0.068915
428.226000	0.027456
428.408000	-0.295479
428.589000	-0.218161
428.770000	-0.224565
428.951000	-0.293058
429.133000	-0.477589
429.314000	-0.274631
429.495000	-0.263467
429.677000	-0.295265
429.858000	-0.323048
430.039000	-0.196257
430.220000	-0.093161
430.402000	-0.031185
430.583000	-0.343837
430.764000	-0.359574
430.945000	-0.206018
431.127000	-0.109251
431.308000	-0.206997
431.489000	-0.061660
431.671000	-0.014024
431.852000	-0.149838
432.033000	-0.285777
432.214000	-0.203824
432.396000	-0.108577
432.577000	-0.247803
432.758000	-0.411608
432.940000	-0.295729
433.121000	-0.241149
433.302000	-0.284296
433.483000	-0.027327
433.665000	0.063798
433.846000	-0.081335
434.027000	-0.218330
434.208000	-0.291730
434.390000	-0.376850
434.571000	-0.017152
434.752000	0.450341
434.934000	0.232072
435.115000	0.112831
435.296000	0.192649
435.477000	-0.010284
435.659000	-0.223546
435.840000	-0.072768
436.026000	-0.121796
436.211000	-0.295465
436.397000	-0.467491
436.582000	-0.389103
436.768000	-0.173336
436.953000	-0.257859
437.139000	-0.276814
437.325000	0.057970
437.510000	-0.039181
437.696000	0.083644
437.881000	0.106082
438.067000	-0.240764
438.252000	-0.147903
438.438000	-0.195890
438.624000	-0.253610
438.809000	-0.121658
438.995000	-0.092811
439.180000	-0.178372
439.366000	-0.203596
439.551000	-0.196980
439.737000	-0.221906
439.923000	-0.177820
440.108000	-0.215572
440.294000	-0.161263
440.479000	-0.034906
440.665000	0.018433
440.850000	-0.065555
441.036000	-0.078160
441.222000	-0.131653
441.407000	-0.280794
441.593000	-0.164772
441.778000	-0.071515
441.964000	-0.009638
442.149000	-0.288357
442.335000	-0.354706
442.521000	-0.191163
442.706000	0.015023
442.892000	-0.092083
443.077000	-0.261213
443.263000	-0.156198
443.448000	-0.164624
443.634000	-0.216508
443.820000	0.087444
444.005000	-0.039611
444.191000	-0.276038
444.376000	-0.256645
444.562000	0.077631
444.747000	0.117206
444.933000	0.008713
445.119000	-0.162148
445.304000	-0.311428
445.490000	-0.081105
445.675000	-0.012265
445.861000	-0.237252
446.046000	-0.251698
446.232000	-0.125825
446.418000	-0.042094
446.603000	-0.060000
446.789000	-0.107645
446.974000	-0.128906
447.160000	-0.328109
447.345000	-0.225595
447.531000	-0.225398
447.717000	-0.074798
447.902000	-0.012269
448.088000	0.032426
448.273000	-0.095003
448.459000	-0.091785
448.644000	-0.201090
448.830000	-0.308542
449.016000	-0.376398
449.201000	-0.322635
449.387000	-0.142563
449.572000	-0.059396
449.758000	-0.162715
449.943000	-0.269411
450.129000	-0.259500
450.315000	-0.238432
450.500000	-0.232754
450.686000	-0.180119
450.871000	-0.360288
451.057000	-0.218277
451.243000	-0.141525
451.428000	-0.212426
451.614000	-0.185469
451.799000	-0.164796
451.985000	-0.006166
452.170000	0.081843
452.356000	-0.167380
452.542000	-0.238017
452.727000	-0.134872
452.913000	-0.205425
453.098000	-0.070617
453.284000	0.070004
453.469000	-0.017888
453.655000	0.113877
453.841000	0.040627
454.026000	-0.160343
454.212000	-0.142473
454.397000	-0.096176
454.583000	-0.220114
454.768000	-0.288873
454.954000	-0.090109
455.140000	-0.032107
455.325000	-0.202300
455.511000	-0.304779
455.696000	-0.322208
455.882000	-0.144973
456.067000	0.040241
456.253000	-0.153738
456.439000	-0.234770
456.624000	-0.236883
456.810000	-0.267882
456.995000	-0.265362
457.181000	-0.347997
457.366000	-0.126082
457.552000	-0.094245
457.738000	-0.068543
457.923000	-0.125646
458.109000	0.111167
458.294000	0.059667
458.480000	-0.011719
458.665000	-0.060133
458.851000	-0.170978
459.037000	-0.328095
459.222000	-0.183984
459.408000	-0.192467
459.593000	-0.143724
459.779000	-0.036727
459.964000	0.083975
460.150000	0.252935
460.336000	0.157115
460.521000	-0.039356
460.707000	-0.156223
460.892000	-0.247638
461.078000	-0.042066
461.263000	0.082924
461.449000	-0.100476
461.635000	-0.144853
461.820000	-0.108492
462.006000	-0.041720
462.191000	-0.025050
462.377000	-0.189656
462.562000	0.090588
462.748000	0.323805
462.934000	-0.085515
463.119000	-0.350610
463.305000	-0.136539
463.490000	-0.152150
463.676000	-0.076405
463.861000	-0.098586
464.047000	-0.174498
464.233000	-0.157125
464.418000	-0.167761
464.604000	-0.226696
464.789000	-0.024548
464.975000	0.007798
465.160000	-0.134944
465.346000	-0.145635
465.532000	-0.167415
465.717000	-0.239814
465.903000	0.010480
466.088000	-0.083469
466.274000	-0.259279
466.459000	-0.243539
466.645000	0.085397
466.831000	0.036977
467.016000	0.052851
467.202000	-0.032280
467.387000	-0.135939
467.573000	-0.304959
467.758000	-0.034562
467.944000	-0.124209
468.130000	-0.212325
468.315000	-0.037396
468.501000	0.079018
468.686000	-0.045081
468.872000	-0.084654
469.057000	-0.031902
469.243000	-0.042507
469.429000	-0.134814
469.614000	-0.252927
469.800000	-0.239775
469.985000	-0.071105
470.171000	0.002353
470.356000	-0.120953
470.542000	-0.076643
470.728000	-0.092127
470.913000	-0.133455
471.099000	0.007569
471.284000	-0.060717
471.470000	-0.066069
471.655000	-0.052916
471.841000	-0.107859
472.027000	-0.219524
472.212000	0.028476
472.398000	0.099339
472.583000	-0.042244
472.769000	-0.050209
472.954000	-0.100000
473.140000	-0.245925
473.326000	-0.251475
473.511000	-0.039434
473.697000	-0.029022
473.882000	-0.086899
474.068000	-0.139672
474.253000	-0.222883
474.439000	-0.147164
474.625000	-0.060486
474.810000	-0.047428
474.996000	-0.102454
475.181000	-0.256102
475.367000	-0.081274
475.552000	0.136404
475.738000	-0.146613
475.924000	-0.123369
476.109000	0.018066
476.295000	-0.136483
476.480000	-0.128757
476.666000	-0.136416
476.851000	-0.115408
477.037000	-0.068660
477.223000	-0.173203
477.408000	-0.272850
477.594000	-0.387810
477.779000	-0.281023
477.965000	-0.207626
478.151000	-0.317804
478.336000	-0.165747
478.522000	-0.199417
478.707000	-0.280623
478.893000	-0.191932
479.078000	-0.324012
479.264000	-0.316197
479.450000	-0.195167
479.635000	-0.071280
479.821000	-0.137277
480.006000	-0.131907
480.192000	-0.147565
480.377000	-0.092528
480.563000	-0.095070
480.749000	-0.311221
480.934000	-0.308256
481.120000	-0.173365
481.305000	-0.089313
481.491000	-0.100196
481.676000	-0.021349
481.862000	0.015587
482.048000	-0.150034
482.233000	-0.149856
482.419000	-0.108109
482.604000	-0.247773
482.790000	-0.266210
482.975000	-0.166305
483.161000	-0.016029
483.347000	-0.005509
483.532000	-0.102599
483.718000	-0.300389
483.903000	-0.240174
484.089000	-0.197514
484.274000	-0.315368
484.460000	-0.189706
484.646000	-0.139726
484.831000	-0.218824
485.017000	-0.128888
485.202000	-0.149603
485.388000	0.044249
485.573000	0.083359
485.759000	-0.133869
485.945000	0.018080
486.130000	-0.144269
486.316000	-0.136466
486.501000	-0.073408
486.687000	-0.214175
486.872000	-0.222202
487.058000	-0.104773
487.244000	-0.099609
487.429000	-0.232269
487.615000	-0.088909
487.800000	-0.013295
487.986000	-0.153480
488.171000	-0.041908
488.357000	-0.091055
488.543000	-0.093308
488.728000	-0.028700
488.914000	-0.093399
489.099000	-0.227798
489.285000	-0.250890
489.470000	-0.056960
489.656000	-0.051844
489.842000	0.010021
490.027000	0.040730
490.213000	-0.087497
490.398000	-0.373238
490.584000	-0.146365
490.769000	-0.136111
490.955000	-0.115406
491.141000	-0.041107
491.326000	-0.010432
491.512000	0.109100
491.697000	-0.028171
491.883000	-0.180520
492.068000	-0.211013
492.254000	-0.157970
492.440000	-0.117199
492.625000	-0.165011
492.811000	-0.152029
492.996000	-0.060880
493.182000	-0.093421
493.367000	-0.237626
493.553000	-0.298314
493.739000	-0.194458
493.924000	-0.136605
494.110000	-0.146240
494.295000	-0.233625
494.481000	-0.115826
494.666000	-0.108365
494.852000	0.097649
495.038000	-0.027807
495.223000	-0.223538
495.409000	-0.223013
495.594000	-0.240932
495.780000	-0.220300
495.965000	-0.223026
496.151000	-0.020251
496.337000	0.044710
496.522000	-0.166950
496.708000	-0.105129
496.893000	0.014732
497.079000	-0.159652
497.264000	-0.231439
497.450000	-0.132053
497.636000	-0.020162
497.821000	-0.171552
498.007000	0.019614
498.192000	0.059558
498.378000	-0.074877
498.563000	-0.152041
498.749000	-0.124796
498.935000	-0.109684
499.120000	-0.000248
499.306000	-0.161753
499.491000	-0.223265
499.677000	-0.109245
499.862000	-0.040034
500.048000	0.034625
500.234000	-0.114544
500.419000	-0.137156
500.605000	0.017191
500.790000	0.007217
500.976000	-0.142331
501.161000	-0.239481
501.347000	-0.097433
501.533000	-0.052613
501.718000	-0.149770
501.904000	-0.205072
502.089000	-0.050281
502.275000	0.024701
502.460000	-0.119658
502.646000	-0.037608
502.832000	0.012210
503.017000	-0.050189
503.203000	-0.250294
503.388000	-0.278466
503.574000	-0.065247
503.759000	-0.015245
503.945000	0.017274
504.131000	-0.140444
504.316000	-0.167880
504.502000	-0.090354
504.687000	-0.153335
504.873000	-0.294035
505.058000	-0.271402
505.244000	-0.276357
505.430000	-0.211493
505.615000	-0.133705
505.801000	-0.073406
505.986000	-0.211121
506.172000	-0.158500
506.358000	-0.168932
506.543000	-0.178905
506.729000	0.047586
506.914000	-0.050718
507.100000	0.040257
507.285000	-0.142280
507.471000	-0.202922
507.657000	0.035209
507.842000	-0.114083
508.028000	-0.339444
508.213000	-0.271776
508.399000	-0.183340
508.584000	-0.117342
508.770000	-0.188280
508.956000	-0.208771
509.141000	-0.139988
509.327000	-0.061355
509.512000	-0.144794
509.698000	-0.157712
509.883000	-0.063923
510.069000	-0.135595
510.255000	-0.135656
510.440000	-0.117918
510.626000	-0.166432
510.811000	-0.202515
510.997000	-0.066836
511.182000	0.158324
511.368000	0.040712
511.554000	-0.312822
511.739000	-0.205085
511.925000	-0.007942
512.110000	-0.069364
512.296000	0.092118
512.481000	0.081755
512.667000	-0.023347
512.853000	-0.233768
513.038000	-0.167285
513.224000	-0.131341
513.409000	-0.270109
513.595000	-0.203616
513.780000	-0.329582
513.966000	-0.215854
514.152000	-0.208180
514.337000	-0.298144
514.523000	-0.272489
514.708000	-0.159650
514.894000	-0.082752
515.079000	-0.192848
515.265000	-0.190934
515.451000	-0.188436
515.636000	-0.242391
515.822000	-0.121476
516.007000	-0.237572
516.193000	-0.093029
516.378000	-0.010584
516.564000	-0.118829
516.750000	-0.090506
516.935000	-0.020897
517.121000	0.022956
517.306000	0.084937
517.492000	-0.020943
517.677000	-0.271436
517.863000	-0.279236
518.049000	-0.129455
518.234000	-0.170669
518.420000	-0.049377
518.605000	0.139294
518.791000	0.090147
518.976000	-0.080650
519.162000	-0.163335
519.348000	-0.093465
519.533000	-0.124352
519.719000	0.074790
519.904000	0.010104
520.090000	-0.028700
520.275000	0.113583
520.461000	0.095661
520.647000	-0.119489
520.832000	-0.340724
521.018000	-0.254296
521.203000	-0.155282
521.389000	-0.317827
521.574000	-0.256125
521.760000	-0.124479
521.946000	-0.135241
522.131000	-0.135357
522.317000	-0.171465
522.502000	-0.212878
522.688000	-0.065111
522.873000	-0.119699
523.059000	-0.200333
523.245000	-0.156015
523.430000	-0.257582
523.616000	-0.195146
523.801000	-0.302084
523.987000	-0.313052
524.172000	-0.127970
524.358000	-0.055017
524.544000	-0.083562
524.729000	-0.021030
524.915000	0.010150
525.100000	-0.104318
525.286000	-0.060183
525.471000	-0.094317
525.657000	-0.049953
525.843000	-0.272579
526.028000	-0.126035
526.214000	-0.154800
526.399000	-0.333875
526.585000	-0.389118
526.770000	-0.331276
526.956000	-0.205688
527.142000	-0.263581
527.327000	-0.139983
527.513000	-0.229898
527.698000	-0.246010
527.884000	-0.220386
528.069000	-0.296697
528.255000	-0.153976
528.441000	-0.191307
528.626000	-0.189233
528.812000	0.087493
528.997000	-0.074879
529.183000	-0.210691
529.368000	-0.144770
529.554000	-0.190765
529.740000	-0.156325
529.925000	-0.150976
530.111000	-0.223885
530.296000	-0.191839
530.482000	-0.030023
530.667000	-0.135564
530.853000	-0.049133
531.039000	-0.130854
531.224000	-0.101472
531.410000	0.016132
531.595000	-0.074167
531.781000	-0.060492
531.967000	-0.212218
532.152000	-0.044454
532.338000	-0.135839
532.523000	-0.302408
532.709000	-0.309090
532.894000	-0.212759
533.080000	-0.187798
533.266000	-0.313979
533.451000	-0.278599
533.637000	-0.265403
533.822000	-0.062580
534.008000	-0.209643
534.193000	-0.216100
534.379000	-0.071532
534.565000	-0.117603
534.750000	-0.198453
534.936000	0.025658
535.121000	-0.147696
535.307000	-0.090045
535.492000	-0.110490
535.678000	-0.321199
535.864000	-0.158609
536.049000	0.091114
536.235000	-0.088854
536.420000	-0.089261
536.606000	-0.202527
536.791000	-0.329377
536.977000	-0.303209
537.163000	-0.015355
537.348000	-0.063899
537.534000	0.011890
537.719000	-0.186738
537.905000	-0.322465
538.090000	-0.101958
538.276000	-0.015765
538.462000	-0.015816
538.647000	-0.028336
538.833000	-0.144332
539.018000	0.024849
539.204000	-0.079006
539.389000	-0.291885
539.575000	0.012370
539.761000	-0.064073
539.946000	-0.307783
540.132000	-0.164297
540.317000	-0.242156
540.503000	-0.090802
540.688000	-0.042598
540.874000	0.120355
541.060000	0.296386
541.245000	0.153638
541.431000	-0.115419
541.616000	-0.099249
541.802000	-0.043232
541.987000	0.102265
542.173000	0.079401
542.359000	-0.073507
542.544000	-0.003653
542.730000	-0.157055
542.915000	-0.197545
543.101000	0.036455
543.286000	-0.198071
543.472000	-0.283617
543.658000	-0.115081
543.843000	-0.078150
544.029000	0.135421
544.214000	0.030245
544.400000	-0.381384
544.585000	-0.242426
544.771000	-0.137175
544.957000	0.003085
545.142000	0.150622
545.328000	0.219820
545.513000	0.234016
545.699000	0.293868
545.884000	0.124347
546.070000	0.003119
546.261000	-0.024693
546.451000	-0.213160
546.642000	-0.426707
546.833000	-0.231400
547.023000	-0.297847
547.214000	-0.281481
547.405000	-0.042513
547.595000	0.245909
547.786000	0.109125
547.977000	-0.152625
548.167000	-0.305153
548.358000	-0.295820
548.549000	0.160423
548.740000	-0.000357
548.930000	-0.418533
549.121000	-0.272775
549.312000	-0.309799
549.502000	-0.476462
549.693000	-0.324713
549.884000	-0.173401
550.074000	-0.079951
550.265000	-0.319477
550.456000	-0.218470
550.646000	-0.087814
550.837000	-0.062329
551.028000	-0.230307
551.218000	-0.142673
551.409000	-0.227588
551.600000	-0.249790
551.790000	-0.151349
551.981000	-0.305998
552.172000	-0.243853
552.362000	0.102883
552.553000	0.144175
552.744000	-0.089262
552.934000	-0.100460
553.125000	-0.152631
553.316000	-0.271640
553.506000	0.077825
553.697000	-0.142400
553.888000	-0.183190
554.079000	0.066837
554.269000	0.018314
554.460000	-0.326370
554.651000	-0.322955
554.841000	-0.435972
555.032000	-0.274921
555.223000	-0.260242
555.413000	-0.112860
555.604000	-0.117104
555.795000	-0.155164
555.985000	-0.087388
556.176000	-0.260932
556.367000	-0.513823
556.557000	-0.375383
556.748000	-0.315390
556.939000	-0.299746
557.129000	-0.390364
557.320000	-0.254216
557.511000	-0.355844
557.701000	-0.306199
557.892000	-0.136845
558.083000	0.090500
558.273000	-0.083700
558.464000	-0.246569
558.655000	-0.238788
558.845000	-0.215447
559.036000	-0.121204
559.227000	-0.136408
559.418000	-0.023092
559.608000	0.052599
559.799000	-0.246036
559.990000	-0.308636
560.180000	-0.267634
560.371000	-0.433918
560.562000	-0.365501
560.752000	-0.233968
560.943000	-0.486622
561.134000	-0.594334
561.324000	-0.296995
561.515000	-0.041600
561.706000	-0.169211
561.896000	-0.404699
562.087000	-0.351890
562.278000	-0.396610
562.468000	-0.576610
562.659000	-0.384725
562.850000	-0.052649
563.040000	0.051902
563.231000	-0.437589
563.422000	-0.316963
563.612000	-0.354600
563.803000	-0.305570
563.994000	-0.367073
564.185000	-0.440415
564.375000	-0.178073
564.566000	-0.233321
564.757000	-0.278466
564.947000	-0.378130
565.138000	-0.266120
565.329000	-0.309787
565.519000	-0.456892
565.710000	-0.368905
565.901000	-0.170013
566.091000	0.007002
566.282000	-0.206264
566.473000	-0.216622
566.663000	-0.150471
566.854000	-0.350436
567.045000	-0.265872
567.235000	-0.200368
567.426000	-0.200295
567.617000	-0.148865
567.807000	-0.188788
567.998000	-0.134161
568.189000	-0.289587
568.379000	-0.249185
568.570000	-0.148006
568.761000	-0.154882
568.951000	-0.265858
569.142000	-0.309327
569.333000	-0.269803
569.524000	-0.472803
569.714000	-0.504970
569.905000	-0.554122
570.096000	-0.178957
570.286000	-0.114507
570.477000	0.003202
570.668000	-0.195835
570.858000	-0.153177
571.049000	-0.251801
571.240000	-0.429092
571.430000	-0.209135
571.621000	-0.222497
571.812000	-0.095168
572.002000	-0.074229
572.193000	-0.316452
572.384000	-0.172377
572.574000	-0.140893
572.765000	-0.305473
572.956000	-0.346471
573.146000	-0.119399
573.337000	-0.269423
573.528000	-0.234071
573.718000	-0.042099
573.909000	0.006601
574.100000	-0.059198
574.290000	-0.186692
574.481000	-0.241364
574.672000	-0.234747
574.863000	-0.089610
575.053000	-0.240221
575.244000	-0.222558
575.435000	-0.314560
575.625000	-0.309771
575.816000	-0.285614
576.007000	-0.142978
576.197000	-0.184021
576.388000	-0.203635
576.579000	-0.061308
576.769000	-0.000338
576.960000	-0.331642
577.155000	-0.495920
577.350000	-0.212468
577.545000	-0.064193
577.740000	-0.184637
577.935000	0.176899
578.130000	0.079984
578.326000	-0.307284
578.521000	-0.053691
578.716000	0.032863
578.911000	-0.245704
579.106000	-0.205140
579.301000	-0.118888
579.496000	-0.230134
579.691000	-0.495629
579.886000	-0.337300
580.081000	-0.193053
580.276000	-0.101341
580.471000	-0.192547
580.666000	-0.345073
580.861000	-0.409975
581.057000	-0.371202
581.252000	-0.237872
581.447000	-0.325003
581.642000	-0.306035
581.837000	-0.260153
582.032000	-0.262652
582.227000	-0.045399
582.422000	-0.074239
582.617000	-0.288250
582.812000	-0.380047
583.007000	-0.341570
583.202000	-0.442810
583.397000	-0.155758
583.592000	0.078851
583.788000	-0.192868
583.983000	-0.239989
584.178000	-0.119962
584.373000	-0.229472
584.568000	-0.269716
584.763000	-0.364046
584.958000	-0.448677
585.153000	-0.360911
585.348000	-0.310571
585.543000	-0.113251
585.738000	-0.113199
585.933000	-0.332783
586.128000	-0.113188
586.324000	-0.135489
586.519000	-0.179369
586.714000	-0.063190
586.909000	-0.003464
587.104000	0.012324
587.299000	-0.104293
587.494000	-0.167083
587.689000	-0.261994
587.884000	-0.183727
588.079000	-0.193227
588.274000	-0.203088
588.469000	-0.221653
588.664000	-0.123795
588.859000	-0.133486
589.055000	-0.162208
589.250000	-0.190869
589.445000	-0.315107
589.640000	-0.312179
589.835000	0.015630
590.030000	0.095349
590.225000	0.037955
590.420000	-0.156822
590.615000	-0.268850
590.810000	-0.230231
591.005000	-0.224761
591.200000	-0.289006
591.395000	-0.365933
591.591000	-0.221231
591.786000	-0.150670
591.981000	-0.282659
592.176000	-0.186787
592.371000	-0.173995
592.566000	-0.189938
592.761000	-0.009961
592.956000	-0.009978
593.151000	0.044764
593.346000	-0.113350
593.541000	-0.093877
593.736000	-0.116818
593.931000	-0.298160
594.126000	-0.237001
594.322000	-0.162425
594.517000	-0.256391
594.712000	-0.399186
594.907000	-0.439676
595.102000	-0.254507
595.297000	-0.062201
595.492000	-0.068861
595.687000	-0.258664
595.882000	-0.281696
596.077000	-0.177344
596.272000	-0.026547
596.467000	0.022622
596.662000	-0.157849
596.857000	-0.135416
597.053000	-0.135644
597.248000	-0.109194
597.443000	-0.092822
597.638000	-0.195695
597.833000	-0.364916
598.028000	-0.159221
598.223000	-0.043448
598.418000	-0.146526
598.613000	-0.222917
598.808000	-0.090100
599.003000	-0.103510
599.198000	-0.320254
599.393000	-0.326820
599.589000	-0.207450
599.784000	-0.297852
599.979000	-0.191161
600.174000	-0.013736
600.369000	-0.225030
600.564000	-0.245469
600.759000	-0.013784
600.954000	0.090283
601.149000	-0.054201
601.344000	-0.344074
601.539000	-0.169033
601.734000	-0.155334
601.929000	-0.355026
602.124000	-0.382370
602.320000	-0.169672
602.515000	0.114826
602.710000	0.013237
602.905000	-0.366862
603.100000	-0.396766
603.295000	-0.268505
603.490000	-0.136509
603.685000	-0.109294
603.880000	-0.170788
604.075000	-0.304506
604.270000	-0.312001
604.465000	-0.236475
604.660000	-0.373665
604.856000	-0.267293
605.051000	-0.058636
605.246000	-0.109981
605.441000	-0.315785
605.636000	-0.374181
605.831000	-0.206504
606.026000	-0.374712
606.221000	-0.499039
606.416000	-0.299944
606.611000	-0.124441
606.806000	-0.100220
607.001000	0.078969
607.196000	-0.103894
607.391000	-0.287229
607.587000	-0.052298
607.782000	-0.128664
607.977000	-0.394766
608.172000	-0.083642
608.367000	-0.014229
608.562000	-0.254206
608.757000	-0.229790
608.952000	-0.296530
609.147000	0.097096
609.342000	0.072848
609.537000	-0.213358
609.732000	-0.185716
609.927000	-0.265631
610.122000	-0.206644
610.318000	0.101148
610.513000	0.125713
610.708000	-0.112529
610.903000	-0.038955
611.098000	0.017233
611.293000	-0.017942
611.488000	0.048906
611.683000	0.003172
611.878000	-0.056763
612.073000	-0.014459
612.268000	-0.021536
612.463000	0.077492
612.658000	-0.074662
612.854000	-0.120916
613.049000	-0.110327
613.244000	0.038690
613.439000	0.102621
613.634000	-0.228180
613.829000	-0.082254
614.024000	-0.168110
614.219000	-0.196636
614.414000	0.149627
614.609000	-0.100496
614.804000	-0.279388
614.999000	-0.336318
615.194000	-0.272692
615.389000	-0.229962
615.585000	-0.399309
615.780000	-0.313311
615.975000	-0.234641
616.170000	-0.187921
616.365000	-0.032856
616.560000	0.100833
616.755000	0.043138
616.950000	-0.094655
617.145000	-0.065702
617.340000	-0.236536
617.535000	-0.490867
617.730000	-0.182280
617.925000	-0.284614
618.120000	-0.408646
618.316000	0.039821
618.511000	-0.113724
618.706000	-0.356320
618.901000	-0.191089
619.096000	-0.110819
619.291000	-0.287290
619.486000	-0.159045
619.681000	-0.443533
619.876000	-0.465491
620.071000	-0.369838
620.266000	-0.115184
620.461000	-0.011502
620.656000	-0.063565
620.852000	-0.104322
621.047000	-0.249720
621.242000	-0.395384
621.437000	-0.093759
621.632000	0.025829
621.827000	-0.090297
622.022000	-0.319095
622.217000	-0.244762
622.412000	-0.045543
622.607000	0.044833
622.802000	-0.298164
622.997000	-0.382421
623.192000	-0.268920
623.387000	-0.250062
623.583000	-0.470409
623.778000	0.003421
623.973000	0.022441
624.168000	-0.091883
624.363000	-0.068901
624.558000	0.003432
624.753000	-0.302593
624.948000	-0.115362
625.143000	-0.088598
625.338000	-0.131007
625.533000	-0.211752
625.728000	-0.135037
625.923000	0.034262
626.119000	-0.062123
626.314000	-0.347995
626.509000	-0.399429
626.704000	-0.307257
626.899000	-0.202553
627.094000	-0.296270
627.289000	-0.312560
627.484000	-0.336763
627.679000	-0.329235
627.874000	-0.317901
628.069000	0.007459
628.264000	-0.098443
628.459000	-0.263787
628.654000	-0.232547
628.850000	-0.375512
629.045000	-0.371977
629.240000	-0.348607
629.435000	-0.412454
629.630000	-0.302085
629.825000	-0.270320
630.020000	-0.227549
630.215000	-0.418606
630.410000	-0.344289
630.605000	-0.360578
630.800000	-0.296501
630.995000	-0.116701
631.190000	0.075958
631.385000	-0.149193
631.581000	-0.153476
631.776000	-0.129390
631.971000	-0.340089
632.166000	-0.279646
632.361000	-0.369026
632.556000	-0.247849
632.751000	-0.000407
632.946000	-0.220235
633.141000	-0.290321
633.336000	-0.208982
633.531000	-0.176808
633.726000	-0.246243
633.921000	-0.370163
634.117000	-0.568621
634.312000	-0.606287
634.507000	-0.466657
634.702000	-0.289755
634.897000	-0.290168
635.092000	-0.232830
635.287000	-0.187555
635.482000	-0.238082
635.677000	-0.167253
635.872000	-0.096358
636.067000	0.024668
636.262000	-0.117944
636.457000	-0.468609
636.652000	-0.469309
636.848000	-0.524880
637.043000	-0.383811
637.238000	-0.329902
637.433000	-0.495017
637.628000	-0.469635
637.823000	-0.152824
638.018000	-0.030115
638.213000	-0.272488
638.408000	-0.404644
638.603000	-0.498969
638.798000	-0.503961
638.993000	-0.436522
639.188000	-0.398181
639.383000	-0.389957
639.579000	-0.060292
639.774000	-0.193388
639.969000	-0.373638
640.164000	-0.477682
640.359000	-0.473894
640.554000	-0.220229
640.749000	-0.194906
640.944000	-0.126033
641.139000	-0.233831
641.334000	-0.450749
641.529000	-0.842120
641.724000	-0.604240
641.919000	-0.387860
642.115000	-0.070253
642.310000	-0.044009
642.505000	-0.139821
642.700000	-0.188075
642.895000	-0.333087
643.090000	-0.197339
643.285000	-0.004814
643.480000	0.025878
643.675000	0.087359
643.870000	0.329436
644.065000	0.070070
644.260000	-0.335277
644.455000	-0.252038
644.650000	-0.354436
644.846000	-0.230543
645.041000	-0.469296
645.236000	-0.674398
645.431000	-0.542158
645.626000	-0.741524
645.821000	-0.497262
646.016000	-0.423086
646.211000	-0.013817
646.406000	-0.036172
646.601000	-0.071826
646.796000	-0.201159
646.991000	-0.455467
647.186000	-0.376000
647.381000	-0.219661
647.577000	-0.179569
647.772000	-0.018361
647.967000	-0.112625
648.162000	-0.157621
648.357000	-0.207297
648.552000	-0.004944
648.747000	-0.036430
648.942000	-0.058955
649.137000	-0.144904
649.332000	-0.289735
649.527000	-0.248949
649.722000	-0.032068
649.917000	0.103734
650.113000	-0.330733
650.308000	-0.449003
650.503000	-0.321968
650.698000	-0.154864
650.893000	-0.345851
651.088000	-0.132337
651.283000	0.004102
651.478000	-0.447103
651.673000	-0.223553
651.868000	-0.415611
652.063000	-0.187877
652.258000	0.100186
652.453000	0.218547
652.648000	-0.132953
652.844000	-0.187915
653.039000	-0.174493
653.234000	-0.655586
653.429000	-0.771493
653.624000	-0.440723
653.819000	-0.147537
654.014000	-0.165954
654.209000	-0.456766
654.404000	-0.166217
654.599000	-0.328204
654.794000	-0.424409
654.989000	-0.069789
655.184000	-0.167041
655.380000	-0.499794
655.575000	-0.448987
655.770000	-0.361731
655.965000	-0.236736
656.160000	-0.334201
656.355000	-0.134858
656.550000	-0.112030
656.745000	-0.140016
656.940000	-0.317040
657.135000	-0.279727
657.330000	-0.251904
657.525000	-0.522339
657.720000	-0.205848
657.915000	-0.051764
658.111000	-0.177744
658.306000	0.083574
658.501000	-0.154896
658.696000	-0.477602
658.891000	-0.150226
659.086000	-0.276473
659.281000	-0.150411
659.476000	-0.361780
659.671000	-0.760558
659.866000	-0.460479
660.061000	-0.211841
660.256000	-0.183742
660.451000	-0.216829
660.646000	-0.372533
660.842000	-0.245656
661.037000	-0.368388
661.232000	-0.364192
661.427000	-0.231746
661.622000	-0.340930
661.817000	-0.501567
662.012000	-0.280084
662.207000	-0.384610
662.402000	-0.442630
662.597000	-0.247872
662.792000	-0.575617
662.987000	-0.560897
663.182000	-0.290798
663.378000	-0.305321
663.573000	-0.625988
663.768000	-0.624689
663.963000	-0.372552
664.158000	-0.477060
664.353000	-0.091400
664.548000	0.109546
664.743000	-0.206409
664.938000	-0.532011
665.133000	-0.475292
665.328000	-0.077331
665.523000	-0.087108
665.718000	-0.236327
665.913000	-0.337910
666.109000	-0.309679
666.304000	-0.159860
666.499000	-0.217678
666.694000	-0.063408
666.889000	0.105991
667.084000	-0.209294
667.279000	-0.214022
667.474000	-0.257845
667.669000	-0.214090
667.864000	-0.185181
668.059000	-0.307159
668.254000	-0.273431
668.449000	-0.332294
668.644000	-0.317946
668.840000	-0.010243
669.035000	-0.264253
669.230000	-0.593526
669.425000	-0.294756
669.620000	-0.476185
669.815000	-0.423769
670.010000	-0.413543
670.205000	-0.261324
670.400000	-0.152782
670.595000	-0.168029
670.790000	-0.316280
670.985000	-0.227703
671.180000	0.024230
671.376000	-0.406332
671.571000	-0.501476
671.766000	-0.512581
671.961000	-0.617221
672.156000	-0.523374
672.351000	-0.344182
672.546000	-0.280019
672.741000	-0.164855
672.936000	-0.239877
673.131000	0.319537
673.326000	0.064687
673.521000	-0.386953
673.716000	-0.562599
673.911000	-0.718692
674.107000	-0.075979
674.302000	0.130413
674.497000	-0.116447
674.692000	-0.459561
674.887000	-0.516808
675.082000	-0.390853
675.277000	-0.046197
675.472000	-0.137755
675.667000	-0.438335
675.862000	-0.484400
676.057000	-0.342009
676.252000	-0.276331
676.447000	-0.369173
676.643000	-0.189808
676.838000	0.168639
677.033000	-0.205835
677.228000	0.040652
677.423000	-0.062303
677.618000	-0.434204
677.813000	-0.604227
678.008000	-0.435345
678.203000	-0.347712
678.398000	-0.556003
678.593000	-0.338078
678.788000	-0.219343
678.983000	-0.474056
679.178000	-0.276454
679.374000	-0.344637
679.569000	-0.256553
679.764000	-0.425013
679.959000	-0.636158
680.154000	-0.631033
680.349000	-0.775575
680.544000	-0.690290
680.739000	-0.527342
680.934000	-0.512053
681.129000	-0.502910
681.324000	-0.582951
681.519000	-0.340464
681.714000	-0.335270
681.909000	-0.409158
682.105000	-0.628503
682.300000	-0.128753
682.495000	-0.005874
682.690000	-0.155739
682.885000	-0.236206
683.080000	-0.440959
683.275000	-0.419686
683.470000	-0.081241
683.665000	0.096518
683.860000	0.280330
684.055000	-0.005945
684.250000	-0.427909
684.445000	-0.519047
684.641000	-0.038463
684.836000	-0.255582
685.031000	-0.327303
685.226000	-0.333199
685.421000	0.015859
685.616000	-0.377885
685.811000	-0.433610
686.006000	-0.038917
686.201000	-0.115810
686.396000	-0.568044
686.591000	-0.458770
686.786000	-0.006082
686.981000	-0.171983
687.176000	-0.189031
687.372000	-0.411231
687.567000	-0.167120
687.762000	-0.139743
687.957000	-0.200978
688.152000	-0.469204
688.347000	-0.341499
688.542000	-0.499233
688.737000	-0.885454
688.932000	-0.870128
689.127000	-0.517411
689.322000	-0.113242
689.517000	-0.372324
689.712000	-0.537568
689.908000	-0.470212
690.103000	-0.539157
690.298000	-0.357796
690.493000	-0.358733
690.688000	-0.552710
690.883000	-0.468935
691.078000	-0.080563
691.273000	-0.149143
691.468000	-0.435705
691.663000	-0.333913
691.858000	-0.196014
692.053000	-0.178762
692.248000	-0.069621
692.443000	-0.086879
692.639000	-0.081294
692.834000	-0.156634
693.029000	0.328997
693.224000	0.371226
693.419000	-0.337844
693.614000	-0.530737
693.809000	-0.624408
694.004000	-0.578857
694.199000	-0.543669
694.394000	-0.258401
694.589000	-0.639942
694.784000	-0.652335
694.979000	-0.258946
695.174000	-0.342015
695.370000	0.158084
695.565000	-0.106628
695.760000	-0.431619
695.955000	-0.113049
696.150000	-0.095322
696.345000	-0.476083
696.540000	-0.298296
696.740000	-0.280238
696.940000	-0.095865
697.140000	-0.042494
697.340000	-0.246413
697.539000	-0.084581
697.739000	-0.198634
697.939000	-0.180756
698.139000	-0.523595
698.339000	-0.809156
698.539000	-0.639839
698.739000	-0.726212
698.939000	-0.565410
699.138000	-0.542013
699.338000	0.229766
699.538000	0.254985
699.738000	-0.397331
699.938000	-0.501510
700.138000	-0.514597
700.338000	-0.601994
700.538000	-0.357419
700.737000	-0.332703
700.937000	-0.840635
701.137000	-0.792799
701.337000	-0.105556
701.537000	-0.087229
701.737000	-0.451660
701.937000	-0.520801
702.137000	-0.508442
702.337000	-0.521702
702.536000	-0.647086
702.736000	-0.734994
702.936000	-0.854500
703.136000	-0.250669
703.336000	-0.300610
703.536000	-0.483188
703.736000	-0.748428
703.936000	-0.702981
704.135000	-0.784112
704.335000	-0.327471
704.535000	-0.574166
704.735000	-0.719862
704.935000	-0.220978
705.135000	-0.342253
705.335000	-0.457651
705.535000	-0.362678
705.735000	-0.337213
705.934000	-0.305304
706.134000	-0.610179
706.334000	-0.560710
706.534000	-0.650747
706.734000	-0.581099
706.934000	-0.632093
707.134000	-0.855557
707.334000	-0.505731
707.533000	-0.295288
707.733000	-0.378283
707.933000	-0.583690
708.133000	-0.327008
708.333000	-0.232219
708.533000	-0.522654
708.733000	-0.251944
708.933000	-0.445645
709.132000	-0.446512
709.332000	-0.356649
709.532000	-0.461229
709.732000	-0.318049
709.932000	-0.792806
710.132000	-0.896134
710.332000	-1.077332
710.532000	-0.461585
710.732000	-0.221986
710.931000	-0.456678
711.131000	-0.589266
711.331000	-0.471907
711.531000	-0.597277
711.731000	-0.533053
711.931000	-0.415431
712.131000	-0.480690
712.331000	-0.270351
712.530000	-0.375141
712.730000	-0.560571
712.930000	-0.468193
713.130000	-0.443401
713.330000	-0.629205
713.530000	-0.445584
713.730000	0.211932
713.930000	-0.113570
714.129000	-0.644218
714.329000	-0.779404
714.529000	-0.486175
714.729000	-0.200602
714.929000	-0.207273
715.129000	-0.528053
715.329000	-0.555271
715.529000	-0.523999
715.729000	0.039511
715.928000	-0.108088
716.128000	-0.376863
716.328000	-0.330818
716.528000	-0.526811
716.728000	-0.486456
716.928000	-0.398785
717.128000	-0.203557
717.328000	-0.264378
717.527000	-0.528721
717.727000	-0.529237
717.927000	-0.428966
718.127000	-0.551649
718.327000	-0.934256
718.527000	-0.913355
718.727000	-0.368816
718.927000	-0.348995
719.127000	-0.672683
719.326000	-0.581173
719.526000	-0.178572
719.726000	-0.350353
719.926000	-0.867797
720.126000	-0.716514
720.326000	-0.482422
720.526000	-0.675241
720.726000	-0.615145
720.925000	-0.325385
721.125000	-0.701025
721.325000	-0.360822
721.525000	-0.417235
721.725000	-0.701949
721.925000	-0.592523
722.125000	-0.564719
722.325000	-0.070321
722.524000	-0.426700
722.724000	-0.832786
722.924000	-0.895661
723.124000	-0.686757
723.324000	-0.154872
723.524000	-0.014730
723.724000	-0.688709
723.924000	-0.571403
724.124000	-0.416542
724.323000	-0.120679
724.523000	-0.226340
724.723000	-0.007773
724.923000	-0.283440
725.123000	-0.255436
725.323000	0.048910
725.523000	-0.256380
725.723000	-0.639214
725.922000	-0.604422
726.122000	-0.441561
726.322000	-0.542567
726.522000	-0.557372
726.722000	0.148984
726.922000	-0.278531
727.122000	-0.315242
727.322000	0.149591
727.521000	-0.151393
727.721000	-0.439041
727.921000	-0.395946
728.121000	-0.467688
728.321000	-0.864405
728.521000	-0.642928
728.721000	-0.463320
728.921000	-0.029625
729.121000	0.614458
729.320000	0.173166
729.520000	-0.486214
729.720000	-0.704758
729.920000	-0.554969
730.120000	-0.408078
730.320000	-0.292407
730.520000	-0.562440
730.720000	-0.483714
730.919000	-0.366559
731.119000	-0.249951
731.319000	-0.859738
731.519000	-0.955053
731.719000	-0.470910
731.919000	-0.581417
732.119000	-0.935786
732.319000	-0.909181
732.519000	-0.554963
732.718000	-0.792470
732.918000	-0.807963
733.118000	-0.631798
733.318000	-0.030527
733.518000	-0.268806
733.718000	-1.044655
733.918000	-0.985578
734.118000	-0.724196
734.317000	-0.577373
734.517000	-0.741095
734.717000	-0.677037
734.917000	-0.030878
735.117000	-0.174158
735.317000	-0.234413
735.517000	0.105055
735.717000	0.294872
735.916000	-0.463223
736.116000	-0.705214
736.316000	-0.496162
736.516000	-0.374101
736.716000	-0.381913
736.916000	-0.965183
737.116000	-0.731450
737.316000	0.122273
737.516000	-0.023887
737.715000	-0.270629
737.915000	-0.625585
738.115000	-0.828765
738.315000	-0.573828
738.515000	-0.883415
738.715000	-0.709481
738.915000	-0.070965
739.115000	-0.524136
739.314000	-0.492447
739.514000	-0.047777
739.714000	0.046327
739.914000	-0.071662
740.114000	-0.434725
740.314000	-0.206075
740.514000	0.331333
740.714000	-0.484797
740.913000	-0.986105
741.113000	-0.693184
741.313000	-0.223634
741.513000	-0.320034
741.713000	-0.376910
741.913000	-0.354571
742.113000	-0.538674
742.313000	-1.038618
742.513000	-0.709431
742.712000	-0.493605
742.912000	-0.825047
743.112000	-0.641350
743.312000	-0.959158
743.512000	-0.481068
743.712000	-0.376453
743.912000	-0.965964
744.112000	-1.269407
744.311000	-1.207186
744.511000	-0.880513
744.711000	-0.495338
744.911000	-0.859210
745.111000	-0.703262
745.311000	-0.166425
745.511000	-0.556345
745.711000	-0.797544
745.911000	-0.441254
746.110000	-1.065003
746.310000	-1.071288
746.510000	-0.635043
746.710000	-0.084670
746.910000	-0.034401
747.110000	-0.731997
747.310000	-1.162635
747.510000	-1.006497
747.709000	-0.559054
747.909000	-0.484174
748.109000	-0.051899
748.309000	-0.503853
748.509000	-0.863274
748.709000	-0.952177
748.909000	-0.729120
749.109000	-0.801145
749.308000	0.024980
749.508000	-0.242940
749.708000	-0.450585
749.908000	-0.165222
750.108000	-0.295855
750.308000	-1.106580
750.508000	-0.367476
750.708000	-0.786714
750.908000	-1.024676
751.107000	-0.290532
751.307000	0.148163
751.507000	-0.379459
751.707000	-0.299840
751.907000	-0.441610
752.107000	-0.354661
752.307000	-0.870555
752.507000	-0.828348
752.706000	-0.738872
752.906000	0.391160
753.106000	-0.439010
753.306000	-1.148876
753.506000	-0.270690
753.706000	-0.622659
753.906000	-0.352384
754.106000	-0.100170
754.305000	-0.226804
754.505000	-0.209279
754.705000	-0.465480
754.905000	-0.666868
755.105000	-0.375498
755.305000	-1.126235
755.505000	-0.854220
755.705000	-0.267334
755.905000	-0.415569
756.104000	-1.199827
756.304000	-1.517451
756.504000	-1.613242
756.704000	-0.662248
756.904000	-0.373291
757.104000	-0.698120
757.304000	-0.624350
757.504000	-0.131999
757.703000	-0.525092
757.903000	-0.244883
758.103000	-0.029145
758.303000	-0.283787
758.503000	-0.558674
758.703000	-0.635778
758.903000	-0.939400
759.103000	-0.628316
759.303000	-0.373450
759.502000	-0.393792
759.702000	-0.269132
759.902000	-0.732581
760.102000	-0.676438
760.302000	-0.485074
760.502000	-0.213336
760.702000	-0.213642
760.902000	-0.669411
761.101000	-0.933652
761.301000	-1.081276
761.501000	-0.721407
761.701000	-0.859429
761.901000	-0.608949
762.101000	-0.079598
762.301000	-0.305621
762.501000	-0.787794
762.700000	-1.008791
762.900000	-0.999268
763.100000	-0.733235
763.300000	-0.398419
763.500000	-0.637505
763.703000	-0.556077
763.905000	-0.816889
764.108000	-0.200705
764.311000	-0.300599
764.513000	-0.660916
764.716000	-0.533083
764.919000	-0.503638
765.121000	-1.137397
765.324000	-1.372812
765.527000	-1.177324
765.729000	-0.903500
765.932000	0.151338
766.135000	-0.021323
766.337000	-0.508972
766.540000	-0.694109
766.743000	-0.391221
766.945000	-0.872098
767.148000	-1.264376
767.351000	-1.336086
767.553000	-0.454588
767.756000	-0.640815
767.958000	-1.022517
768.161000	-0.703268
768.364000	-1.058269
768.566000	-1.309890
768.769000	-0.699341
768.972000	-0.553351
769.174000	-0.784995
769.377000	-1.384750
769.580000	-1.503255
769.782000	-0.882696
769.985000	-1.159278
770.188000	-1.995828
770.390000	-1.199602
770.593000	0.443861
770.796000	0.030744
770.998000	-0.754188
771.201000	-1.009827
771.404000	-0.458307
771.606000	-0.801751
771.809000	-0.673421
772.012000	-0.631948
772.214000	-1.445742
772.417000	-1.499410
772.620000	-0.363824
772.822000	-0.667700
773.025000	-1.151750
773.228000	-1.229319
773.430000	-1.004736
773.633000	-0.660642
773.836000	-0.672372
774.038000	-0.729254
774.241000	-0.826844
774.444000	-0.981964
774.646000	0.031580
774.849000	-0.339437
775.052000	-0.524893
775.254000	-0.438461
775.457000	-0.885956
775.659000	-0.909979
775.862000	-0.855430
776.065000	-0.560620
776.267000	-0.089018
776.470000	0.352144
776.673000	-0.487157
776.875000	-0.200530
777.078000	-0.355072
777.281000	-1.133662
777.483000	-0.424389
777.686000	-0.358225
777.889000	-0.503842
778.091000	0.032509
778.294000	-1.131731
778.497000	-1.290105
778.699000	-0.943393
778.902000	-0.789034
779.105000	-0.699035
779.307000	0.167963
779.510000	-0.848470
779.713000	-0.511516
779.915000	-0.797687
780.118000	0.306403
780.321000	0.466440
780.523000	-0.412656
780.726000	-0.813076
780.929000	-0.904236
781.131000	-0.985780
781.334000	-1.414636
781.537000	-1.337926
781.739000	-0.381790
781.942000	-1.109356
782.145000	-1.892524
782.347000	-1.800832
782.550000	-1.081658
782.753000	-0.956992
782.955000	-0.679079
783.158000	-0.853897
783.361000	-0.891135
783.563000	-0.821009
783.766000	-0.823138
783.968000	1.210142
784.171000	1.026665
784.374000	-0.426536
784.576000	-0.757142
784.779000	-0.508291
784.982000	-0.143521
785.184000	-0.800208
785.387000	-0.275902
785.590000	0.416616
785.792000	0.250438
785.995000	0.106809
786.198000	-0.193532
786.400000	-0.423703
786.603000	-0.642614
786.806000	-1.123214
787.008000	-0.459615
787.211000	-0.146494
787.414000	-0.742265
787.616000	-0.574350
787.819000	-0.820164
788.022000	-1.445486
788.224000	-0.884664
788.427000	-1.756825
788.630000	-1.220910
788.832000	-0.542722
789.035000	-1.119349
789.238000	-1.729183
789.440000	-1.168204
789.643000	-0.112738
789.846000	-0.970319
790.048000	-0.623954
790.251000	-0.374961
790.454000	-1.033118
790.656000	-0.313200
790.859000	-1.089359
791.062000	-1.204038
791.264000	-0.088883
791.467000	-1.296137
791.669000	-1.940121
791.872000	-0.849010
792.075000	-1.315647
792.277000	-0.924010
792.480000	-0.789232
792.683000	-1.370096
792.885000	-1.650527
793.088000	-1.236387
793.291000	-1.443719
793.493000	-1.395198
793.696000	-0.423457
793.899000	-0.155225
794.101000	-0.708492
794.304000	-1.148263
794.507000	-0.672427
794.709000	-0.389563
794.912000	-0.910904
795.115000	-1.316257
795.317000	-0.938437
795.520000	-0.602651
795.723000	-0.539454
795.925000	-1.315772
796.128000	-1.826063
796.331000	-1.107669
796.533000	-1.321539
796.736000	-0.611679
796.939000	-0.639743
797.141000	-1.241522
797.344000	-0.441822
797.547000	-0.295121
797.749000	-0.442649
797.952000	-0.767478
798.155000	-1.315676
798.357000	-1.755355
798.560000	-1.398914
798.763000	-0.733301
798.965000	-0.976357
799.168000	-0.938462
799.371000	-0.708407
799.573000	-1.106401
799.776000	-1.791201
799.978000	-1.632897
800.181000	-0.921723
800.384000	0.603967
800.586000	-0.125490
800.789000	-1.834673
800.992000	-1.599258
801.194000	-1.658011
801.397000	-1.759183
801.600000	-1.362442
801.802000	-0.070936
802.005000	-0.294414
802.208000	-1.470681
802.410000	-0.700456
802.613000	-0.717590
802.816000	-0.971494
803.018000	-1.707108
803.221000	-1.187744
803.424000	0.055194
803.626000	-0.440822
803.829000	-1.053666
804.032000	0.098374
804.234000	0.967758
804.437000	-0.445170
804.640000	-0.716537
804.842000	-0.689506
805.045000	-1.211558
805.248000	-1.228259
805.450000	-1.054032
805.653000	-1.118755
805.856000	-1.132029
806.058000	-0.045071
806.261000	-0.992448
806.464000	-1.343552
806.666000	-0.805070
806.869000	-0.736706
807.072000	-1.912877
807.274000	-2.355516
807.477000	-1.491523
807.679000	-1.035042
807.882000	-1.584990
808.085000	-1.506282
808.287000	-0.568211
808.490000	-1.271588
808.693000	-1.078098
808.895000	-0.645191
809.098000	-0.915087
809.301000	-1.203660
809.503000	-0.937222
809.706000	0.074355
809.909000	0.317095
810.111000	-0.168646
810.314000	-0.519274
810.517000	-0.836333
810.719000	-1.192118
810.922000	-0.875265
811.125000	-0.230965
811.327000	-0.078454
811.530000	-0.480312
811.735000	-0.988475
811.940000	-1.191605
812.146000	-1.010375
812.351000	-0.343026
812.556000	-0.468699
812.761000	-1.344952
812.967000	-0.425151
813.172000	-0.330673
813.377000	-0.488899
813.582000	-0.064726
813.788000	-0.732803
813.993000	-1.650615
814.198000	-0.414248
814.403000	-1.318196
814.609000	-0.815688
814.814000	-0.642986
815.019000	0.190462
815.224000	-0.001600
815.429000	-1.273771
815.635000	-0.825463
815.840000	-0.761673
816.045000	-0.813879
816.250000	-0.473495
816.456000	-1.419653
816.661000	-2.277607
816.866000	-1.724678
817.071000	-1.690793
817.277000	-2.526961
817.482000	-1.605434
817.687000	-0.811294
817.892000	-1.015289
818.097000	-0.618396
818.303000	0.265024
818.508000	0.580584
818.713000	6.792339
818.918000	3.723517
819.124000	-0.035170
819.329000	-0.909906
819.534000	-1.064439
819.739000	-1.604383
819.945000	-1.662801
820.150000	-1.058581
820.355000	-0.667810
820.560000	-0.614912
820.766000	-0.821413
820.971000	-0.826151
821.176000	-2.222769
821.381000	-2.594046
821.586000	-1.866957
821.792000	-0.435009
821.997000	-0.765012
822.202000	-1.199872
822.407000	-1.830521
822.613000	-2.043807
822.818000	-1.209187
823.023000	-0.597447
823.228000	-0.724740
823.434000	-0.177958
823.639000	0.104179
823.844000	-1.205637
824.049000	-0.249810
824.255000	0.318161
824.460000	-0.501790
824.665000	-0.985307
824.870000	-0.145336
825.075000	-0.343140
825.281000	-0.290115
825.486000	0.741371
825.691000	-1.744585
825.896000	-2.984877
826.102000	-1.039259
826.307000	-1.096525
826.512000	-1.357011
826.717000	-1.140759
826.923000	-1.180861
827.128000	-0.943436
827.333000	-1.581319
827.538000	-0.617364
827.744000	-0.132747
827.949000	-1.177532
828.154000	-0.938722
828.359000	-0.357697
828.564000	-0.792387
828.770000	-0.965758
828.975000	-0.001894
829.180000	-0.630166
829.385000	-1.981127
829.591000	-1.530794
829.796000	-1.250345
830.001000	-1.464409
830.206000	-1.835808
830.412000	-1.833935
830.617000	-1.915688
830.822000	-0.507052
831.027000	-1.087445
831.232000	-2.030122
831.438000	-1.592755
831.643000	-1.042763
831.848000	-1.576837
832.053000	-0.930743
832.259000	-0.872539
832.464000	-2.620998
832.669000	-2.590645
832.874000	-2.129186
833.080000	-1.898981
833.285000	-0.062002
833.490000	-0.402299
833.695000	-1.855509
833.901000	-1.823757
834.106000	-1.704904
834.311000	-1.143257
834.516000	-0.573526
834.721000	-1.069368
834.927000	-0.393654
835.132000	-0.931339
835.337000	0.659733
835.542000	-0.459774
835.748000	-2.223816
835.953000	-0.481305
836.158000	-0.419825
836.363000	-0.673159
836.569000	-0.488178
836.774000	-1.568725
836.979000	-2.291300
837.184000	-2.339357
837.390000	-2.364913
837.595000	-1.624230
837.800000	-1.178720
838.005000	-0.884612
838.210000	-0.971126
838.416000	-1.990849
838.621000	-1.345975
838.826000	-1.128542
839.031000	-1.177881
839.237000	-1.735059
839.442000	-2.836337
839.647000	-2.678540
839.852000	-2.007103
840.058000	-1.970133
840.263000	-1.868710
840.468000	-2.315439
840.673000	-1.448129
840.878000	-1.427230
841.084000	-2.062890
841.289000	-1.596531
841.494000	1.173525
841.699000	1.290839
841.905000	0.520878
842.110000	0.477955
842.315000	-1.606507
842.520000	-0.872275
842.726000	-1.057952
842.931000	-1.974313
843.136000	-1.157126
843.341000	-2.468795
843.547000	-1.465241
843.752000	-1.466919
843.957000	-1.947690
844.162000	-1.721443
844.367000	-1.276786
844.573000	-1.045262
844.778000	-0.711548
844.983000	-0.381529
845.188000	-0.597857
845.394000	-2.309681
845.599000	-2.040285
845.804000	-1.253366
846.009000	-0.850235
846.215000	-2.387308
846.420000	-2.052135
846.625000	-0.932711
846.830000	-0.490290
847.036000	-1.816247
847.241000	-2.291629
847.446000	-0.248578
847.651000	-0.620354
847.856000	-1.997627
848.062000	-1.503290
848.267000	-0.077564
848.472000	-1.985989
848.677000	-3.477004
848.883000	-1.660728
849.088000	0.581177
849.293000	-0.690480
849.498000	-0.893172
849.704000	-0.385319
849.909000	-1.179419
850.114000	-2.049338
850.319000	-1.079527
850.524000	-0.776068
850.730000	-0.547107
850.935000	-1.590640
851.140000	0.232308
851.345000	0.728144
851.551000	-0.159679
851.756000	-0.292126
851.961000	-1.322025
852.166000	-1.745134
852.372000	-1.273201
852.577000	-0.989208
852.782000	-1.372828
852.987000	0.184844
853.193000	-0.943685
853.398000	-1.885243
853.603000	-2.320714
853.808000	-2.564642
854.013000	-1.929611
854.219000	-0.764003
854.424000	0.897979
854.629000	0.626417
854.834000	-1.737588
855.040000	-1.194451
855.245000	-0.306591
855.450000	-3.059232
855.655000	-4.069854
855.861000	-3.928648
856.066000	-2.837787
856.271000	-3.151613
856.476000	-1.187688
856.682000	-1.333859
856.887000	-3.652859
857.092000	-2.469638
857.297000	-0.116719
857.502000	-0.630385
857.708000	-1.517587
857.913000	-1.119408
858.118000	-1.071941
858.323000	-0.756330
858.529000	-1.362762
858.734000	-1.946711
858.939000	-1.836059
859.144000	-2.134233
859.350000	-3.127341
859.555000	-2.639164
859.760000	-0.326909
859.965000	0.527024
860.171000	-1.599734
860.376000	-1.042238
860.581000	-2.503898
860.786000	-4.248493
860.991000	-4.327077
861.197000	-3.424138
861.402000	-0.935987
861.607000	-1.448544
861.812000	-2.876285
862.018000	-3.251649
862.223000	-1.858543
862.428000	-0.462020
862.633000	0.149995
862.839000	-1.266012
863.044000	-2.705389
863.249000	-2.667072
863.454000	-0.561230
863.659000	-2.024697
863.865000	-3.347513
864.070000	-3.450308
864.275000	-3.707204
864.480000	-2.557407
864.686000	-4.750740
864.891000	-4.026130
865.096000	-1.212428
865.301000	-0.863996
865.507000	-0.997357
865.712000	-1.157626
865.917000	-1.907355
866.122000	-0.585736
866.328000	-3.745886
866.533000	-3.580662
866.738000	0.159561
866.943000	0.094633
867.148000	0.620212
867.354000	-2.053835
867.559000	-3.807807
867.764000	-2.197447
867.969000	-0.771838
868.175000	-2.201137
868.380000	-2.977447
868.585000	-3.617073
868.790000	-1.715730
868.996000	-1.693272
869.201000	-3.392027
869.406000	-4.699894
869.611000	-3.206994
869.817000	-2.624702
870.022000	1.431795
870.227000	-1.133861
870.432000	-2.860656
870.637000	-0.865037
870.843000	-2.083299
871.048000	-2.223028
871.253000	-0.454579
871.458000	-1.642698
871.664000	-3.232575
871.869000	-3.181063
872.074000	-2.588637
872.279000	-2.233438
872.485000	-3.280906
872.690000	-3.509798
872.895000	-2.949494
873.100000	-3.456534
873.306000	-3.868561
873.511000	-2.295116
873.716000	-0.149455
873.921000	-2.039643
874.126000	-2.479871
874.332000	-2.026244
874.537000	-1.408018
874.742000	-1.992859
874.947000	-1.890333
875.153000	1.004442
875.358000	-0.452872
875.563000	-1.162913
875.768000	-4.434611
875.974000	-5.395433
876.179000	-1.590431
876.384000	-0.649134
876.589000	-2.838401
876.794000	-2.228054
877.000000	-2.498553
877.205000	-4.258640
877.410000	-0.966860
877.615000	-3.195626
877.821000	-5.163779
878.026000	-3.186737
878.231000	-4.272597
878.436000	-4.979460
878.642000	-3.996234
878.847000	-1.926071
879.052000	-0.630663
879.257000	-2.256144
879.463000	-3.367127
879.668000	-3.051519
879.873000	-0.639754
880.078000	-3.429672
880.283000	-4.922608
880.489000	-4.282696
880.694000	-4.381628
880.899000	-2.148667
881.104000	-1.141670
881.310000	0.442843
881.515000	-0.937424
881.720000	0.362041
881.925000	2.123133
882.131000	3.309676
882.336000	-0.498828
882.541000	-5.073214
882.746000	-3.428054
882.952000	-4.049660
883.157000	-3.599740
883.362000	-3.814635
883.567000	-4.419280
883.772000	-4.842261
883.978000	-5.017503
884.183000	-1.963019
884.388000	-1.788501
884.593000	-4.466683
884.799000	0.209178
885.004000	-0.697009
885.209000	-2.299817
885.414000	-1.040219
885.620000	-3.656233
885.825000	-1.317996
886.030000	-1.970943
886.235000	-3.170239
886.440000	-2.886285
886.646000	-5.297981
886.851000	-4.966969
887.056000	-0.318438
887.261000	-1.530625
887.467000	-4.511411
887.672000	-2.273345
887.877000	-3.653168
888.082000	-5.778569
888.288000	-6.168407
888.493000	-8.678409
888.698000	-6.469216
888.903000	-1.902695
889.109000	-3.192310
889.314000	-0.744217
889.519000	-3.274079
889.724000	-1.295835
889.929000	-2.220729
890.135000	-2.180410
890.340000	-1.543740
890.545000	-3.314499
890.750000	-5.377514
890.956000	-4.364146
891.161000	-1.923816
891.366000	-3.947694
891.571000	-2.027883
891.777000	-1.982681
891.982000	-0.714601
892.187000	-0.527554
892.392000	-1.237515
892.598000	-0.815414
892.803000	-0.630196
893.008000	-2.792223
893.213000	-3.743487
893.418000	-3.673333
893.624000	-5.147122
893.829000	-8.206928
894.034000	-3.993052
894.239000	-1.568910
894.445000	-3.564539
894.650000	-4.170605
894.855000	-5.059056
895.060000	-4.903650
895.266000	-4.096874
895.471000	-5.579181
895.676000	-1.737515
895.881000	-1.353048
896.087000	-3.900127
896.292000	-3.875236
896.497000	-0.055560
896.702000	-2.017304
896.907000	-3.985410
897.113000	0.551219
897.318000	-0.055600
897.523000	-1.322702
897.728000	-2.294387
897.934000	-3.098343
898.139000	-3.310284
898.344000	-0.056460
898.549000	-1.966699
898.755000	-3.727028
898.960000	-4.426194
899.165000	-6.613657
899.370000	-1.938654
899.575000	1.356854
899.781000	-4.418356
899.986000	-4.155887
900.191000	-2.596176
900.396000	-4.187289
900.602000	-3.466864
900.807000	-3.437735
901.012000	-2.056642
901.217000	-0.600667
901.423000	-4.211825
901.628000	-4.658798
901.833000	-0.603603
902.038000	-0.772699
902.244000	-4.486841
902.449000	-3.908561
902.654000	-3.505340
902.859000	-2.111581
903.064000	0.606996
903.270000	-0.899797
903.475000	-5.430886
903.680000	-7.548549
903.885000	-6.594976
904.091000	-6.062822
904.296000	-7.735109
904.501000	-5.768719
904.706000	-4.527933
904.912000	0.283520
905.117000	-2.271850
905.322000	-5.043330
905.527000	-4.611816
905.733000	-4.439820
905.938000	-5.465625
906.143000	-4.996592
906.348000	-7.081707
906.553000	-2.820663
906.759000	-0.065834
906.964000	-0.848064
907.169000	-3.635157
907.374000	-6.523835
907.580000	-5.223807
907.785000	-4.511506
907.990000	26.765298
908.195000	17.086666
908.401000	-3.562012
908.606000	-9.477716
908.811000	-10.470896
909.016000	-3.510709
909.221000	-2.454605
909.427000	-3.605012
909.632000	-6.056862
909.837000	-4.880540
910.042000	-5.666506
910.248000	-8.668004
910.453000	-3.059126
910.658000	-4.718564
910.863000	-5.955799
911.069000	-7.814714
911.274000	-2.716569
911.479000	0.392370
911.684000	-7.116200
911.890000	-5.226948
912.095000	-4.563304
912.300000	-7.565259
912.506000	-7.096586
912.711000	-6.501382
912.917000	-3.222802
913.123000	-3.910539
913.328000	-5.175063
913.534000	-3.692630
913.740000	5.105104
913.946000	0.907891
914.151000	-6.642303
914.357000	-7.232001
914.563000	-2.331599
914.768000	-6.538565
914.974000	-8.831877
915.180000	-6.599596
915.385000	-6.262371
915.591000	-9.033019
915.797000	-3.541116
916.002000	0.585446
916.208000	-3.474738
916.414000	-5.750414
916.620000	-6.061686
916.825000	-5.330899
917.031000	-6.685582
917.237000	-11.307057
917.442000	-7.012823
917.648000	-8.449202
917.854000	-10.130814
918.059000	-2.401476
918.265000	-0.547560
918.471000	-2.720662
918.676000	-7.528441
918.882000	-9.234116
919.088000	-6.722988
919.294000	-13.541626
919.499000	-9.466916
919.705000	-2.828941
919.911000	-2.587038
920.116000	-0.496539
920.322000	-8.264491
920.528000	-7.651244
920.733000	-9.008002
920.939000	-10.634955
921.145000	-10.360419
921.350000	-8.210285
921.556000	-5.720301
921.762000	-6.726377
921.968000	-7.342525
922.173000	-8.593630
922.379000	-12.136015
922.585000	-6.725674
922.790000	-7.261919
922.996000	-9.167915
923.202000	-10.259175
923.407000	-10.502774
923.613000	-7.822560
923.819000	-4.517309
924.024000	-3.593337
924.230000	-1.812513
924.436000	-6.451987
924.642000	2.563283
924.847000	-1.494518
925.053000	-6.964030
925.259000	-11.987759
925.464000	-5.523631
925.670000	-5.425771
925.876000	-10.114600
926.081000	-9.504205
926.287000	-4.291356
926.493000	-3.205086
926.698000	-4.471326
926.904000	-4.540302
927.110000	-6.991909
927.316000	-6.047560
927.521000	1.662567
927.727000	-5.002787
927.933000	-6.829692
928.138000	-5.650843
928.344000	-10.709408
928.550000	-6.541274
928.755000	-1.145740
928.961000	-7.736431
929.167000	-9.441882
929.372000	-3.132034
929.578000	-1.690698
929.784000	-7.626808
929.990000	-10.424858
930.195000	-8.641115
930.401000	-7.632010
930.607000	-5.928797
930.812000	-5.552134
931.018000	-9.830171
931.224000	-15.490089
931.429000	-12.339074
931.635000	-13.198961
931.841000	-13.104282
932.046000	-8.205486
932.252000	-3.171437
932.458000	3.746739
932.664000	-2.660300
932.869000	-10.156603
933.075000	-12.198962
933.281000	-8.487755
933.486000	-2.993813
933.692000	-5.763009
933.898000	-10.478942
934.103000	-5.207736
934.309000	-7.537769
934.515000	-3.398229
934.720000	-3.032424
934.926000	-1.789036
935.132000	-1.409524
935.338000	-5.018876
935.543000	-11.340550
935.749000	-11.446919
935.955000	-13.876081
936.160000	-11.365702
936.366000	-2.029710
936.572000	-1.110242
936.777000	1.524608
936.983000	2.369392
937.189000	-6.655235
937.394000	-13.619252
937.600000	-2.891881
937.806000	1.289811
938.012000	-8.700169
938.217000	4.434393
938.423000	1.926813
938.629000	-9.426320
938.834000	-15.361633
939.040000	-13.849575
939.246000	-5.841173
939.451000	-8.709209
939.657000	-7.697860
939.863000	-11.145612
940.068000	-7.400822
940.274000	-11.977238
940.480000	-8.205701
940.686000	-6.521030
940.891000	-8.781441
941.097000	17.973329
941.303000	5.889147
941.508000	-10.879730
941.714000	-5.136677
941.920000	-16.441847
942.125000	-6.968145
942.331000	-5.080227
942.537000	-0.889675
942.742000	-1.779807
942.948000	-9.711043
943.154000	-14.275959
943.360000	-24.048473
943.565000	-9.904602
943.771000	1.252122
943.977000	4.307425
944.182000	-15.670883
944.388000	-18.088000
944.594000	-5.145552
944.799000	4.790808
945.005000	-1.836949
945.211000	1.258669
945.416000	-1.870825
945.622000	-13.946095
945.828000	-12.031821
946.034000	0.934787
946.239000	2.858384
946.445000	-6.251857
946.651000	-18.817831
946.856000	-17.358078
947.062000	-3.612570
947.268000	-2.495103
947.473000	-20.673021
947.679000	-23.684952
947.885000	-4.458334
948.090000	-4.679904
948.296000	6.299342
948.502000	-0.797975
948.708000	-11.013960
948.913000	-15.117963
949.119000	-4.587344
949.325000	-12.340035
949.530000	-23.085618
949.736000	-29.545346
949.942000	-23.113437
950.147000	-20.100560
950.353000	-15.198777
950.559000	-12.644302
950.764000	10.930576
950.970000	7.797787
951.176000	-6.509345
951.382000	-17.208548
951.587000	-6.275238
951.793000	2.917023
951.999000	0.599935
952.204000	-12.554681
952.410000	-26.728227
952.616000	-16.043560
952.821000	-12.219309
953.027000	-18.039789
953.233000	-23.634972
953.438000	-21.681680
953.644000	1.252380
953.850000	-6.181119
954.056000	-15.906093
954.261000	-13.629041
954.467000	-2.403119
954.673000	2.138839
954.878000	-10.644225
955.084000	-9.355049
955.290000	-21.814758
955.495000	-23.627053
955.701000	-21.384157
955.907000	-7.347410
956.112000	-1.576192
956.318000	9.659088
956.524000	5.541733
956.730000	-9.517134
956.935000	-13.854062
957.141000	-14.660745
957.347000	-1.622487
957.552000	-12.578249
957.758000	-34.973731
957.964000	-43.174816
958.169000	-6.051980
958.375000	-5.605537
958.581000	-20.357972
958.786000	-27.191539
958.992000	-35.797020
959.198000	-20.334585
959.404000	-10.500256
959.609000	-12.279531
959.815000	-19.251946
960.021000	-1.478997
960.226000	-6.628795
960.432000	-35.496405
960.638000	-20.934386
960.843000	-12.669693
961.049000	-16.729496
961.255000	-4.791225
961.460000	-13.921317
961.666000	-32.875676
961.872000	-22.157909
962.078000	-22.655716
962.283000	-29.311953
962.489000	-27.029457
962.695000	-18.349061
962.900000	-15.607679
963.106000	-14.201522
963.312000	-14.386049
963.517000	-19.840579
963.723000	-25.765199
963.929000	-3.532351
964.134000	9.123079
964.340000	-23.158066
964.546000	-29.573471
964.752000	-32.044580
964.957000	-27.309815
965.163000	-2.553468
965.369000	-5.145541
965.574000	-7.496470
965.780000	-9.514953
966.000000	-16.427385
966.220000	-14.499738
966.440000	-17.776884
966.661000	-8.517772
966.881000	-25.279527
967.101000	-42.598911
967.321000	-40.027061
967.541000	-14.605613
967.761000	-19.589263
967.981000	-9.351908
968.202000	-13.881752
968.422000	-1.885116
968.642000	-3.419740
968.862000	-6.950972
969.082000	-19.992115
969.302000	-10.828578
969.522000	-13.537045
969.743000	5.604768
969.963000	-13.152803
970.183000	-33.654443
970.403000	-38.153799
970.623000	-30.886524
970.843000	-0.694282
971.063000	0.302142
971.284000	-25.027466
971.504000	-37.792624
971.724000	-17.532383
971.944000	-35.130476
972.164000	-47.168157
972.384000	-33.871114
972.604000	-49.064692
972.825000	-50.728508
973.045000	-38.110200
973.265000	17.422928
973.485000	7.584463
973.705000	-12.079105
973.925000	-18.189007
974.145000	-53.517224
974.365000	-22.043711
974.586000	-21.791265
974.806000	-44.384845
975.026000	-9.234125
975.246000	-17.199437
975.466000	-41.096624
975.686000	-19.868274
975.906000	-21.414855
976.127000	-49.089944
976.347000	-44.612400
976.567000	-12.389636
976.787000	-14.425926
977.007000	-37.265924
977.227000	-36.419278
977.447000	-28.432487
977.668000	-51.750752
977.888000	-37.976282
978.108000	-27.822368
978.328000	-18.113951
978.548000	5.466823
978.768000	2.115253
978.988000	-0.947054
979.209000	-14.859598
979.429000	-23.523867
979.649000	-11.520283
979.869000	-33.449064
980.089000	-57.510327
980.309000	-66.905902
980.529000	-76.448853
980.750000	-42.957305
980.970000	-48.908653
981.190000	-42.283210
981.410000	-46.780057
981.630000	-47.499750
981.850000	-23.031301
982.070000	-20.371835
982.291000	-55.871684
982.511000	-49.777910
982.731000	-7.285222
982.951000	-20.827877
983.171000	-22.428419
983.391000	-24.883565
983.611000	-5.818706
983.832000	-43.437822
984.052000	-67.384417
984.272000	-36.994091
984.492000	-31.589066
984.712000	-39.963770
984.932000	-54.756610
985.152000	-67.980177
985.373000	-55.386966
985.593000	-30.069728
985.813000	-36.476984
986.033000	-55.596664
986.253000	-17.974131
986.473000	-3.463744
986.693000	-29.876416
986.914000	-39.835935
987.134000	-13.522588
987.354000	-41.146832
987.574000	201.633111
987.794000	132.702935
988.014000	-42.433954
988.234000	-27.552033
988.455000	-13.947135
988.675000	-28.631796
988.895000	-39.255252
989.115000	-35.562706
989.335000	-12.925670
989.555000	-8.849298
989.775000	-48.323957
989.995000	-33.496038
990.216000	-30.669248
990.436000	-40.201108
990.656000	-4.464064
990.876000	-41.860266
991.096000	-19.791664
991.316000	9.333423
991.536000	-22.915200
991.757000	-43.038342
991.977000	-101.158717
992.197000	-38.729272
992.417000	-44.800082
992.637000	-80.553972
992.857000	-102.386993
993.077000	-86.147026
993.298000	-46.159597
993.518000	-46.204300
993.738000	-91.255912
993.958000	-60.253237
994.178000	-65.324943
994.398000	-60.168831
994.618000	-110.000486
994.839000	-152.683234
995.059000	-55.322452
995.279000	25.613115
995.499000	-24.126742
995.719000	-13.448609
995.939000	-24.187769
996.159000	-44.895124
996.380000	-37.968645
996.600000	-106.564641
996.820000	-51.667875
997.040000	-2.040095
997.260000	-67.379310
997.480000	-47.630636
997.700000	-122.128726
997.921000	-55.144890
998.141000	33.233215
998.361000	0.891050
998.581000	-67.884673
998.801000	-106.336665
999.021000	-69.564724
999.241000	-36.129667
999.462000	-74.585891
999.682000	-106.240999
999.902000	-102.332597
1000.122000	-115.004262
1000.342000	-157.603214
1000.562000	-87.450092
1000.782000	-100.470320
1001.003000	-1095.182546
