Wavelength	Irradiance
(nm)	(mW/cm2/nm)

294.396000	0.000000
294.577000	0.000000
294.757000	0.000000
294.938000	-0.000000
295.118000	0.000000
295.299000	0.000000
295.479000	-0.000000
295.660000	-0.000000
295.840000	-0.000000
296.021000	-0.000000
296.202000	-0.000000
296.382000	-0.000000
296.563000	-0.000000
296.743000	-0.000000
296.924000	-0.000000
297.104000	-0.000000
297.285000	-0.000000
297.465000	-0.000000
297.646000	-0.000000
297.826000	-0.000000
298.007000	0.000000
298.187000	-0.000000
298.368000	-0.000000
298.548000	0.000000
298.729000	0.000000
298.909000	-0.000000
299.090000	-0.000000
299.270000	-0.000000
299.451000	-0.000000
299.631000	-0.000000
299.812000	-0.000000
299.992000	0.000000
300.173000	0.000000
300.353000	-0.000000
300.534000	-0.000000
300.714000	0.000000
300.895000	0.000000
301.075000	-0.000000
301.256000	0.000000
301.436000	-0.000000
301.617000	-0.000000
301.797000	-0.000000
301.978000	-0.000000
302.159000	0.000000
302.339000	0.000000
302.520000	-0.000000
302.700000	-0.000000
302.881000	0.000000
303.061000	0.000000
303.242000	0.000000
303.422000	0.000000
303.603000	-0.000000
303.783000	-0.000000
303.964000	-0.000000
304.144000	-0.000000
304.325000	-0.000000
304.505000	-0.000000
304.686000	-0.000000
304.866000	-0.000000
305.047000	-0.000000
305.227000	-0.000000
305.408000	-0.000000
305.588000	-0.000000
305.769000	-0.000000
305.949000	-0.000000
306.130000	-0.000000
306.310000	-0.000000
306.491000	-0.000000
306.671000	0.000000
306.852000	-0.000000
307.032000	-0.000000
307.213000	-0.000000
307.393000	-0.000000
307.574000	0.000000
307.755000	0.000000
307.935000	0.000000
308.116000	0.000000
308.296000	-0.000000
308.477000	-0.000000
308.657000	0.000000
308.838000	0.000000
309.018000	0.000000
309.199000	-0.000000
309.379000	-0.000000
309.560000	0.000000
309.740000	-0.000000
309.921000	-0.000000
310.101000	-0.000000
310.282000	-0.000000
310.462000	-0.000000
310.643000	-0.000000
310.823000	-0.000000
311.004000	-0.000000
311.184000	-0.000000
311.365000	0.000000
311.545000	0.000000
311.726000	0.000000
311.906000	0.000000
312.087000	0.000000
312.267000	-0.000000
312.448000	-0.000000
312.628000	-0.000000
312.809000	-0.000000
312.989000	-0.000000
313.170000	-0.000000
313.344000	-0.000000
313.518000	-0.000000
313.691000	-0.000000
313.865000	-0.000000
314.039000	-0.000000
314.213000	-0.000000
314.387000	-0.000000
314.560000	-0.000000
314.734000	-0.000000
314.908000	-0.000000
315.082000	-0.000000
315.255000	0.000000
315.429000	0.000000
315.603000	-0.000000
315.777000	-0.000000
315.951000	0.000000
316.124000	-0.000000
316.298000	-0.000000
316.472000	-0.000000
316.646000	-0.000000
316.820000	-0.000000
316.993000	-0.000000
317.167000	-0.000000
317.341000	-0.000000
317.515000	-0.000000
317.688000	-0.000000
317.862000	-0.000000
318.036000	-0.000000
318.210000	-0.000000
318.384000	-0.000000
318.557000	-0.000000
318.731000	-0.000000
318.905000	-0.000000
319.079000	0.000000
319.253000	-0.000000
319.426000	0.000000
319.600000	0.000000
319.774000	-0.000000
319.948000	-0.000000
320.122000	0.000000
320.295000	-0.000000
320.469000	-0.000000
320.643000	-0.000000
320.817000	-0.000000
320.990000	-0.000000
321.164000	-0.000000
321.338000	-0.000000
321.512000	-0.000000
321.686000	-0.000000
321.859000	-0.000000
322.033000	-0.000000
322.207000	-0.000000
322.381000	-0.000000
322.555000	-0.000000
322.728000	-0.000000
322.902000	-0.000000
323.076000	-0.000000
323.250000	-0.000000
323.423000	-0.000000
323.597000	-0.000000
323.771000	-0.000000
323.945000	-0.000000
324.119000	-0.000000
324.292000	-0.000000
324.466000	-0.000000
324.640000	0.000000
324.814000	0.000000
324.988000	-0.000000
325.161000	-0.000000
325.335000	-0.000000
325.509000	-0.000000
325.683000	-0.000000
325.856000	-0.000000
326.030000	-0.000000
326.204000	-0.000000
326.378000	-0.000000
326.552000	-0.000000
326.725000	-0.000000
326.899000	-0.000000
327.073000	-0.000000
327.247000	-0.000000
327.421000	0.000000
327.594000	-0.000000
327.768000	-0.000000
327.942000	-0.000000
328.116000	0.000000
328.289000	0.000000
328.463000	-0.000000
328.637000	0.000000
328.811000	-0.000000
328.985000	-0.000000
329.158000	-0.000000
329.332000	-0.000000
329.506000	-0.000000
329.680000	-0.000000
329.854000	-0.000000
330.027000	0.000000
330.201000	0.000000
330.375000	0.000000
330.549000	0.000000
330.723000	-0.000000
330.896000	-0.000000
331.070000	-0.000000
331.244000	-0.000000
331.418000	-0.000000
331.591000	-0.000000
331.765000	-0.000000
331.939000	-0.000000
332.113000	-0.000000
332.287000	-0.000000
332.460000	0.000000
332.634000	0.000000
332.808000	-0.000000
332.982000	-0.000000
333.156000	-0.000000
333.329000	-0.000000
333.503000	-0.000000
333.677000	-0.000000
333.851000	-0.000000
334.024000	-0.000000
334.198000	-0.000000
334.372000	-0.000000
334.546000	-0.000000
334.720000	-0.000000
334.893000	-0.000000
335.067000	-0.000000
335.241000	-0.000000
335.415000	-0.000000
335.589000	-0.000000
335.762000	-0.000000
335.936000	-0.000000
336.110000	-0.000000
336.284000	-0.000000
336.458000	-0.000000
336.631000	-0.000000
336.805000	-0.000000
336.979000	-0.000000
337.153000	-0.000000
337.326000	-0.000000
337.500000	-0.000000
337.674000	-0.000000
337.848000	-0.000000
338.022000	-0.000000
338.195000	-0.000000
338.369000	-0.000000
338.543000	-0.000000
338.717000	-0.000000
338.891000	-0.000000
339.064000	0.000000
339.238000	-0.000000
339.412000	-0.000000
339.586000	-0.000000
339.759000	-0.000000
339.933000	-0.000000
340.107000	0.000000
340.281000	0.000000
340.455000	-0.000000
340.628000	-0.000000
340.802000	-0.000000
340.976000	-0.000000
341.150000	-0.000000
341.324000	-0.000000
341.497000	-0.000000
341.671000	-0.000000
341.845000	-0.000000
342.019000	-0.000000
342.192000	-0.000000
342.366000	-0.000000
342.540000	-0.000000
342.714000	-0.000000
342.888000	-0.000000
343.061000	-0.000000
343.235000	-0.000000
343.409000	-0.000000
343.583000	-0.000000
343.757000	-0.000000
343.930000	-0.000000
344.104000	-0.000000
344.278000	0.000000
344.452000	0.000000
344.626000	-0.000000
344.799000	-0.000000
344.973000	-0.000000
345.147000	-0.000000
345.321000	-0.000000
345.494000	-0.000000
345.668000	0.000000
345.842000	0.000000
346.016000	-0.000000
346.190000	-0.000000
346.363000	0.000000
346.537000	-0.000000
346.711000	-0.000000
346.885000	-0.000000
347.059000	-0.000000
347.232000	0.000000
347.406000	0.000000
347.580000	-0.000000
347.754000	-0.000000
347.927000	0.000000
348.101000	0.000000
348.275000	-0.000000
348.449000	-0.000000
348.623000	-0.000000
348.796000	0.000000
348.970000	0.000000
349.144000	-0.000000
349.318000	-0.000000
349.492000	-0.000000
349.665000	-0.000000
349.839000	-0.000000
350.013000	-0.000000
350.187000	-0.000000
350.361000	-0.000000
350.534000	-0.000000
350.708000	-0.000000
350.882000	-0.000000
351.056000	0.000000
351.229000	-0.000000
351.403000	-0.000000
351.577000	-0.000000
351.751000	-0.000000
351.925000	-0.000000
352.098000	-0.000000
352.272000	-0.000000
352.446000	-0.000000
352.620000	-0.000000
352.794000	-0.000000
352.967000	-0.000000
353.141000	0.000000
353.315000	0.000000
353.489000	-0.000000
353.662000	-0.000000
353.836000	-0.000000
354.010000	-0.000000
354.184000	-0.000000
354.358000	-0.000000
354.531000	-0.000000
354.705000	-0.000000
354.879000	-0.000000
355.053000	-0.000000
355.227000	0.000000
355.400000	-0.000000
355.574000	0.000000
355.748000	0.000000
355.922000	-0.000000
356.095000	-0.000000
356.269000	-0.000000
356.443000	-0.000000
356.617000	-0.000000
356.791000	-0.000000
356.964000	-0.000000
357.138000	-0.000000
357.312000	-0.000000
357.486000	-0.000000
357.660000	-0.000000
357.833000	-0.000000
358.007000	-0.000000
358.181000	-0.000000
358.355000	-0.000000
358.529000	-0.000000
358.702000	-0.000000
358.876000	-0.000000
359.050000	-0.000000
359.224000	-0.000000
359.397000	-0.000000
359.571000	-0.000000
359.745000	-0.000000
359.919000	-0.000000
360.093000	-0.147750
360.266000	-0.007793
360.440000	0.122704
360.614000	0.151510
360.788000	-0.001340
360.962000	-0.278013
361.135000	-0.138635
361.309000	-0.199171
361.483000	-0.318981
361.657000	-0.262096
361.830000	-0.236242
362.004000	-0.025752
362.178000	-0.300911
362.352000	-0.275303
362.526000	-0.114539
362.699000	-0.121550
362.873000	-0.394962
363.047000	-0.392144
363.221000	-0.432102
363.395000	-0.240827
363.568000	-0.227744
363.742000	-0.301180
363.916000	-0.293436
364.090000	-0.269735
364.263000	-0.286959
364.437000	-0.387108
364.611000	-0.080349
364.785000	-0.112229
364.959000	-0.258801
365.132000	-0.304677
365.306000	-0.339084
365.480000	-0.291058
365.656000	-0.237983
365.831000	-0.153520
366.007000	-0.191788
366.183000	-0.168857
366.358000	-0.341422
366.534000	-0.176224
366.710000	-0.361159
366.886000	-0.291550
367.061000	-0.138058
367.237000	0.037168
367.413000	-0.079108
367.588000	-0.358242
367.764000	-0.422141
367.940000	-0.372951
368.115000	-0.245138
368.291000	-0.320251
368.467000	-0.262459
368.643000	0.029863
368.818000	-0.291484
368.994000	-0.357186
369.170000	-0.225904
369.345000	-0.245202
369.521000	-0.359727
369.697000	-0.197689
369.872000	-0.235526
370.048000	-0.341927
370.224000	-0.275251
370.399000	-0.440057
370.575000	-0.351746
370.751000	-0.517922
370.927000	-0.476835
371.102000	-0.433246
371.278000	-0.386093
371.454000	-0.222926
371.629000	-0.026001
371.805000	-0.038153
371.981000	0.064069
372.156000	0.210436
372.332000	0.002395
372.508000	-0.050367
372.683000	-0.090444
372.859000	-0.204948
373.035000	-0.240029
373.211000	0.229302
373.386000	0.055956
373.562000	-0.440255
373.738000	-0.582466
373.913000	-0.723495
374.089000	-0.533263
374.265000	-0.194630
374.440000	-0.142503
374.616000	-0.014054
374.792000	-0.291143
374.968000	0.010471
375.143000	-0.163779
375.319000	-0.416550
375.495000	-0.435205
375.670000	-0.239950
375.846000	-0.152368
376.022000	-0.409192
376.197000	-0.352748
376.373000	-0.483383
376.549000	-0.465720
376.724000	-0.477676
376.900000	-0.380990
377.076000	-0.262062
377.252000	-0.005499
377.427000	0.132818
377.603000	-0.245694
377.779000	-0.309832
377.954000	-0.466750
378.130000	-0.276868
378.306000	-0.263672
378.481000	-0.175587
378.657000	-0.253383
378.833000	-0.339370
379.009000	-0.156935
379.184000	-0.096748
379.360000	-0.154856
379.536000	-0.100659
379.711000	-0.199023
379.887000	-0.382668
380.063000	-0.362897
380.238000	-0.393136
380.414000	-0.107752
380.590000	-0.279535
380.765000	-0.353879
380.941000	-0.150304
381.117000	-0.083229
381.293000	-0.238239
381.468000	-0.392898
381.644000	-0.309194
381.820000	-0.180845
381.995000	-0.013381
382.171000	0.180316
382.347000	0.184048
382.522000	-0.237213
382.698000	0.064866
382.874000	0.002341
383.050000	-0.425754
383.225000	0.025881
383.401000	0.195135
383.577000	-0.247237
383.752000	-0.351267
383.928000	-0.234169
384.104000	-0.144658
384.279000	-0.232274
384.455000	-0.160008
384.631000	-0.198948
384.806000	-0.398461
384.982000	-0.144929
385.158000	-0.228260
385.334000	-0.132398
385.509000	-0.217976
385.685000	-0.445171
385.861000	-0.284247
386.036000	-0.435209
386.212000	-0.655146
386.388000	-0.420022
386.563000	-0.373240
386.739000	-0.373315
386.915000	-0.596272
387.090000	-0.266582
387.266000	-0.090882
387.442000	-0.001552
387.618000	-0.082380
387.793000	-0.459703
387.969000	-0.591409
388.145000	-0.446542
388.320000	-0.439397
388.496000	-0.421226
388.672000	-0.587648
388.847000	-0.170096
389.023000	-0.159624
389.199000	-0.505403
389.375000	-0.307171
389.550000	-0.376881
389.726000	-0.237193
389.902000	-0.386953
390.077000	-0.204457
390.253000	-0.204166
390.429000	-0.266896
390.604000	-0.112283
390.780000	-0.096524
390.956000	-0.288089
391.131000	-0.313883
391.307000	0.009792
391.483000	-0.227394
391.659000	-0.405664
391.834000	-0.151941
392.010000	-0.298212
392.186000	-0.396277
392.361000	-0.333079
392.537000	-0.475408
392.713000	0.020744
392.888000	0.187713
393.064000	-0.105734
393.240000	-0.306003
393.416000	-0.389009
393.591000	-0.507060
393.767000	-0.523587
393.943000	-0.373400
394.118000	-0.023437
394.294000	0.203472
394.470000	-0.074463
394.645000	-0.019648
394.821000	0.185180
394.997000	-0.165114
395.172000	-0.185949
395.348000	-0.226188
395.524000	-0.544396
395.700000	-0.380986
395.875000	-0.134309
396.051000	-0.227381
396.227000	-0.232689
396.402000	-0.313836
396.578000	-0.236950
396.754000	-0.423043
396.929000	-0.399629
397.105000	-0.065908
397.281000	-0.126762
397.457000	-0.297772
397.632000	-0.245175
397.808000	-0.484941
397.984000	-0.611152
398.159000	-0.519356
398.335000	-0.357829
398.511000	0.048381
398.686000	-0.097372
398.862000	-0.354385
399.038000	-0.462611
399.213000	-0.218653
399.389000	-0.541450
399.565000	-0.275948
399.741000	0.051331
399.916000	0.030528
400.092000	0.217597
400.268000	-0.159053
400.443000	-0.380747
400.619000	0.062278
400.795000	0.002131
400.970000	-0.267746
401.146000	-0.321568
401.322000	-0.072257
401.497000	0.366684
401.673000	0.066172
401.849000	-0.235446
402.025000	-0.072030
402.200000	-0.170429
402.376000	-0.219630
402.552000	0.122285
402.727000	-0.068244
402.903000	-0.352436
403.079000	-0.324572
403.254000	-0.057658
403.430000	-0.099179
403.606000	-0.169303
403.782000	-0.266913
403.957000	-0.491898
404.133000	-0.503707
404.309000	-0.310419
404.484000	-0.155355
404.660000	-0.173333
404.841000	-0.247168
405.023000	-0.029330
405.204000	-0.134478
405.385000	-0.405986
405.566000	-0.439183
405.748000	-0.319906
405.929000	-0.026318
406.110000	-0.106867
406.292000	-0.272851
406.473000	-0.179327
406.654000	-0.405812
406.835000	-0.211675
407.017000	-0.224841
407.198000	-0.301737
407.379000	-0.256148
407.560000	-0.236228
407.742000	-0.286786
407.923000	-0.267379
408.104000	-0.367119
408.286000	-0.244714
408.467000	-0.223304
408.648000	-0.394423
408.829000	-0.354911
409.011000	-0.258187
409.192000	-0.454285
409.373000	-0.182304
409.555000	-0.112742
409.736000	-0.150006
409.917000	-0.282394
410.098000	-0.211600
410.280000	-0.175855
410.461000	-0.206280
410.642000	-0.203239
410.823000	0.022574
411.005000	-0.035616
411.186000	-0.278952
411.367000	-0.303202
411.549000	-0.302983
411.730000	-0.080179
411.911000	0.029418
412.092000	-0.100268
412.274000	-0.231518
412.455000	-0.242173
412.636000	-0.130363
412.818000	-0.349635
412.999000	-0.454743
413.180000	-0.339231
413.361000	-0.293015
413.543000	-0.291450
413.724000	-0.351267
413.905000	-0.472408
414.087000	-0.446422
414.268000	-0.344819
414.449000	-0.338782
414.630000	-0.450782
414.812000	-0.567021
414.993000	-0.233622
415.174000	-0.120850
415.355000	-0.241857
415.537000	-0.466941
415.718000	-0.227718
415.899000	-0.376407
416.081000	-0.513696
416.262000	-0.255330
416.443000	-0.359989
416.624000	-0.342741
416.806000	-0.205251
416.987000	-0.186405
417.168000	-0.208285
417.350000	-0.326478
417.531000	-0.468164
417.712000	-0.445275
417.893000	-0.161206
418.075000	-0.053317
418.256000	-0.304529
418.437000	-0.178085
418.618000	-0.112207
418.800000	-0.063180
418.981000	-0.254058
419.162000	-0.200907
419.344000	-0.023982
419.525000	-0.151186
419.706000	-0.278568
419.887000	-0.098963
420.069000	0.106014
420.250000	-0.014305
420.431000	-0.072648
420.613000	-0.193558
420.794000	-0.380014
420.975000	-0.065912
421.156000	-0.257035
421.338000	-0.289172
421.519000	-0.221200
421.700000	-0.348353
421.882000	-0.383964
422.063000	-0.137163
422.244000	0.362418
422.425000	0.140868
422.607000	-0.304926
422.788000	-0.339258
422.969000	-0.346593
423.150000	-0.385765
423.332000	-0.529623
423.513000	-0.337402
423.694000	-0.215720
423.876000	-0.260412
424.057000	-0.192424
424.238000	-0.079340
424.419000	-0.040437
424.601000	-0.187163
424.782000	-0.115312
424.963000	0.014860
425.145000	-0.117906
425.326000	-0.078697
425.507000	-0.056037
425.688000	-0.176087
425.870000	-0.371776
426.051000	-0.420874
426.232000	-0.359520
426.413000	-0.332419
426.595000	-0.343595
426.776000	-0.343437
426.957000	-0.302776
427.139000	-0.224024
427.320000	-0.208803
427.501000	-0.079420
427.682000	-0.085510
427.864000	-0.130782
428.045000	0.060387
428.226000	-0.043660
428.408000	-0.372387
428.589000	-0.186051
428.770000	-0.182394
428.951000	-0.307995
429.133000	-0.455143
429.314000	-0.309860
429.495000	-0.263980
429.677000	-0.203830
429.858000	-0.239454
430.039000	-0.204291
430.220000	-0.136647
430.402000	-0.059114
430.583000	-0.300772
430.764000	-0.289952
430.945000	-0.216602
431.127000	-0.087426
431.308000	-0.220422
431.489000	-0.036408
431.671000	0.059646
431.852000	-0.096834
432.033000	-0.214715
432.214000	-0.157065
432.396000	-0.058347
432.577000	-0.233269
432.758000	-0.491993
432.940000	-0.367327
433.121000	-0.223851
433.302000	-0.235787
433.483000	-0.105641
433.665000	0.008228
433.846000	-0.089857
434.027000	-0.199340
434.208000	-0.286999
434.390000	-0.341636
434.571000	-0.070626
434.752000	0.324236
434.934000	0.101469
435.115000	-0.035572
435.296000	0.067377
435.477000	-0.141202
435.659000	-0.392067
435.840000	-0.288313
436.026000	-0.198205
436.211000	-0.271772
436.397000	-0.558637
436.582000	-0.399394
436.768000	-0.160361
436.953000	-0.264053
437.139000	-0.275676
437.325000	0.044327
437.510000	-0.046750
437.696000	0.104756
437.881000	0.104591
438.067000	-0.262685
438.252000	-0.223780
438.438000	-0.232639
438.624000	-0.256696
438.809000	-0.114952
438.995000	-0.058007
439.180000	-0.135329
439.366000	-0.209631
439.551000	-0.242062
439.737000	-0.176282
439.923000	-0.102223
440.108000	-0.232666
440.294000	-0.166865
440.479000	-0.024764
440.665000	-0.033390
440.850000	-0.082720
441.036000	-0.077070
441.222000	-0.103782
441.407000	-0.211530
441.593000	-0.126255
441.778000	-0.035990
441.964000	0.007578
442.149000	-0.291532
442.335000	-0.342071
442.521000	-0.229142
442.706000	-0.050012
442.892000	-0.115868
443.077000	-0.208341
443.263000	-0.150161
443.448000	-0.252185
443.634000	-0.286621
443.820000	0.049925
444.005000	-0.089012
444.191000	-0.288044
444.376000	-0.272553
444.562000	0.074746
444.747000	0.111858
444.933000	-0.037743
445.119000	-0.141617
445.304000	-0.211470
445.490000	-0.074072
445.675000	-0.023558
445.861000	-0.217644
446.046000	-0.270479
446.232000	-0.160831
446.418000	-0.141060
446.603000	-0.160634
446.789000	-0.129710
446.974000	-0.152534
447.160000	-0.378286
447.345000	-0.279030
447.531000	-0.295446
447.717000	-0.101692
447.902000	-0.001122
448.088000	0.068609
448.273000	-0.109320
448.459000	-0.189251
448.644000	-0.247487
448.830000	-0.331772
449.016000	-0.425891
449.201000	-0.355978
449.387000	-0.187281
449.572000	-0.067596
449.758000	-0.203209
449.943000	-0.270039
450.129000	-0.268962
450.315000	-0.326337
450.500000	-0.354207
450.686000	-0.183509
450.871000	-0.272208
451.057000	-0.164039
451.243000	-0.191434
451.428000	-0.199978
451.614000	-0.158171
451.799000	-0.240695
451.985000	-0.039639
452.170000	0.020901
452.356000	-0.223699
452.542000	-0.226718
452.727000	-0.091609
452.913000	-0.187916
453.098000	-0.034063
453.284000	0.144439
453.469000	-0.039589
453.655000	0.108681
453.841000	0.053707
454.026000	-0.140227
454.212000	-0.156148
454.397000	-0.175426
454.583000	-0.314343
454.768000	-0.356355
454.954000	-0.147768
455.140000	-0.058030
455.325000	-0.258105
455.511000	-0.357230
455.696000	-0.338232
455.882000	-0.161141
456.067000	0.099337
456.253000	-0.098800
456.439000	-0.272475
456.624000	-0.304038
456.810000	-0.278924
456.995000	-0.265794
457.181000	-0.321668
457.366000	-0.116326
457.552000	-0.099833
457.738000	-0.091722
457.923000	-0.078529
458.109000	0.162356
458.294000	0.036400
458.480000	-0.038589
458.665000	-0.086566
458.851000	-0.214434
459.037000	-0.361371
459.222000	-0.133537
459.408000	-0.175934
459.593000	-0.146079
459.779000	-0.048362
459.964000	0.104267
460.150000	0.223147
460.336000	0.143870
460.521000	-0.040298
460.707000	-0.194235
460.892000	-0.324138
461.078000	-0.055891
461.263000	0.040560
461.449000	-0.162821
461.635000	-0.191318
461.820000	-0.125903
462.006000	0.024866
462.191000	0.001548
462.377000	-0.237756
462.562000	0.048013
462.748000	0.248724
462.934000	-0.168590
463.119000	-0.365390
463.305000	-0.156877
463.490000	-0.186628
463.676000	-0.171808
463.861000	-0.172560
464.047000	-0.179670
464.233000	-0.155672
464.418000	-0.130177
464.604000	-0.205704
464.789000	-0.008598
464.975000	0.036805
465.160000	-0.157569
465.346000	-0.132243
465.532000	-0.225949
465.717000	-0.301281
465.903000	-0.051393
466.088000	-0.066427
466.274000	-0.236315
466.459000	-0.284207
466.645000	0.084326
466.831000	0.031424
467.016000	0.008964
467.202000	-0.083534
467.387000	-0.178070
467.573000	-0.356195
467.758000	-0.008410
467.944000	-0.065269
468.130000	-0.197315
468.315000	-0.095479
468.501000	0.026262
468.686000	-0.057834
468.872000	-0.075160
469.057000	0.008898
469.243000	-0.060395
469.429000	-0.109817
469.614000	-0.237859
469.800000	-0.339034
469.985000	-0.126434
470.171000	-0.025487
470.356000	-0.173165
470.542000	-0.097285
470.728000	-0.138781
470.913000	-0.142987
471.099000	0.062637
471.284000	-0.129122
471.470000	-0.178664
471.655000	-0.114520
471.841000	-0.119078
472.027000	-0.257927
472.212000	-0.035269
472.398000	0.070277
472.583000	-0.094459
472.769000	-0.065062
472.954000	-0.089567
473.140000	-0.250891
473.326000	-0.354250
473.511000	-0.052393
473.697000	-0.003432
473.882000	-0.175734
474.068000	-0.195797
474.253000	-0.221967
474.439000	-0.148541
474.625000	-0.079535
474.810000	-0.099244
474.996000	-0.136092
475.181000	-0.306912
475.367000	-0.172479
475.552000	0.058149
475.738000	-0.179836
475.924000	-0.131129
476.109000	-0.072165
476.295000	-0.219558
476.480000	-0.177991
476.666000	-0.180175
476.851000	-0.140825
477.037000	-0.074974
477.223000	-0.199963
477.408000	-0.322879
477.594000	-0.401131
477.779000	-0.237138
477.965000	-0.170780
478.151000	-0.288839
478.336000	-0.195528
478.522000	-0.251564
478.707000	-0.273646
478.893000	-0.131445
479.078000	-0.302034
479.264000	-0.334199
479.450000	-0.252848
479.635000	-0.139075
479.821000	-0.186253
480.006000	-0.094784
480.192000	-0.146480
480.377000	-0.139384
480.563000	-0.141717
480.749000	-0.302393
480.934000	-0.311941
481.120000	-0.175561
481.305000	-0.084467
481.491000	-0.092208
481.676000	-0.052879
481.862000	-0.023281
482.048000	-0.161102
482.233000	-0.185516
482.419000	-0.121820
482.604000	-0.252776
482.790000	-0.284873
482.975000	-0.183831
483.161000	-0.077353
483.347000	-0.077229
483.532000	-0.096924
483.718000	-0.336654
483.903000	-0.262979
484.089000	-0.200703
484.274000	-0.350554
484.460000	-0.240257
484.646000	-0.230409
484.831000	-0.279949
485.017000	-0.222469
485.202000	-0.231872
485.388000	-0.005891
485.573000	0.055366
485.759000	-0.074663
485.945000	-0.005896
486.130000	-0.162989
486.316000	-0.121307
486.501000	-0.072004
486.687000	-0.284675
486.872000	-0.353473
487.058000	-0.194491
487.244000	-0.165199
487.429000	-0.348013
487.615000	-0.208748
487.800000	-0.064520
487.986000	-0.122706
488.171000	-0.069304
488.357000	-0.117710
488.543000	-0.071241
488.728000	-0.049449
488.914000	-0.153779
489.099000	-0.240953
489.285000	-0.216557
489.470000	-0.066206
489.656000	-0.029984
489.842000	-0.051549
490.027000	0.068683
490.213000	-0.130861
490.398000	-0.422979
490.584000	-0.147551
490.769000	-0.101891
490.955000	-0.046540
491.141000	-0.060799
491.326000	-0.072513
491.512000	0.051498
491.697000	-0.062814
491.883000	-0.186613
492.068000	-0.229487
492.254000	-0.191739
492.440000	-0.139190
492.625000	-0.210065
492.811000	-0.257071
492.996000	-0.140674
493.182000	-0.116618
493.367000	-0.280303
493.553000	-0.379839
493.739000	-0.275230
493.924000	-0.138246
494.110000	-0.161405
494.295000	-0.269132
494.481000	-0.130492
494.666000	-0.132942
494.852000	0.020239
495.038000	-0.108972
495.223000	-0.259665
495.409000	-0.200393
495.594000	-0.250083
495.780000	-0.223645
495.965000	-0.284884
496.151000	-0.064221
496.337000	0.015455
496.522000	-0.220195
496.708000	-0.136717
496.893000	-0.022005
497.079000	-0.176059
497.264000	-0.213012
497.450000	-0.147814
497.636000	-0.070941
497.821000	-0.254629
498.007000	-0.021879
498.192000	0.057471
498.378000	-0.126868
498.563000	-0.224889
498.749000	-0.166737
498.935000	-0.082543
499.120000	0.050243
499.306000	-0.182625
499.491000	-0.212331
499.677000	-0.107759
499.862000	-0.080193
500.048000	-0.033628
500.234000	-0.163989
500.419000	-0.168955
500.605000	-0.021956
500.790000	-0.098924
500.976000	-0.222938
501.161000	-0.304646
501.347000	-0.124750
501.533000	-0.007948
501.718000	-0.143447
501.904000	-0.223399
502.089000	-0.113508
502.275000	-0.019649
502.460000	-0.150195
502.646000	-0.108340
502.832000	-0.047658
503.017000	-0.068822
503.203000	-0.216601
503.388000	-0.250018
503.574000	-0.082965
503.759000	-0.064198
503.945000	-0.052573
504.131000	-0.085431
504.316000	-0.129944
504.502000	-0.122954
504.687000	-0.118577
504.873000	-0.236346
505.058000	-0.285745
505.244000	-0.311560
505.430000	-0.274426
505.615000	-0.142580
505.801000	-0.067162
505.986000	-0.198632
506.172000	-0.154010
506.358000	-0.140199
506.543000	-0.135405
506.729000	0.020299
506.914000	-0.055355
507.100000	0.072634
507.285000	-0.074659
507.471000	-0.219452
507.657000	-0.003325
507.842000	-0.121894
508.028000	-0.307075
508.213000	-0.253125
508.399000	-0.163060
508.584000	-0.074930
508.770000	-0.212958
508.956000	-0.217893
509.141000	-0.146244
509.327000	-0.091651
509.512000	-0.134080
509.698000	-0.117617
509.883000	-0.043931
510.069000	-0.180507
510.255000	-0.139871
510.440000	-0.128054
510.626000	-0.168732
510.811000	-0.233781
510.997000	-0.145004
511.182000	0.094956
511.368000	0.018244
511.554000	-0.327618
511.739000	-0.228992
511.925000	-0.022577
512.110000	-0.034554
512.296000	0.059178
512.481000	0.099951
512.667000	0.025496
512.853000	-0.219879
513.038000	-0.131053
513.224000	-0.138313
513.409000	-0.239494
513.595000	-0.138522
513.780000	-0.324179
513.966000	-0.243991
514.152000	-0.236802
514.337000	-0.273010
514.523000	-0.208026
514.708000	-0.133524
514.894000	-0.102473
515.079000	-0.222443
515.265000	-0.199051
515.451000	-0.158050
515.636000	-0.247285
515.822000	-0.121862
516.007000	-0.235541
516.193000	-0.102434
516.378000	-0.020328
516.564000	-0.131459
516.750000	-0.112166
516.935000	-0.015479
517.121000	-0.020312
517.306000	-0.010649
517.492000	-0.107624
517.677000	-0.252776
517.863000	-0.192281
518.049000	-0.093021
518.234000	-0.199458
518.420000	-0.073678
518.605000	0.088674
518.791000	0.042620
518.976000	-0.035009
519.162000	-0.161134
519.348000	-0.105342
519.533000	-0.114884
519.719000	0.110633
519.904000	0.030604
520.090000	-0.047025
520.275000	0.132438
520.461000	0.069510
520.647000	-0.144339
520.832000	-0.310414
521.018000	-0.185668
521.203000	-0.155993
521.389000	-0.325314
521.574000	-0.291726
521.760000	-0.136836
521.946000	-0.037477
522.131000	-0.171470
522.317000	-0.205252
522.502000	-0.256212
522.688000	-0.100682
522.873000	-0.132422
523.059000	-0.181235
523.245000	-0.151861
523.430000	-0.254398
523.616000	-0.176372
523.801000	-0.271739
523.987000	-0.240459
524.172000	-0.101158
524.358000	-0.062089
524.544000	-0.110797
524.729000	0.001460
524.915000	0.028302
525.100000	-0.098530
525.286000	-0.066924
525.471000	-0.076910
525.657000	-0.042663
525.843000	-0.224367
526.028000	-0.052569
526.214000	-0.155684
526.399000	-0.262030
526.585000	-0.313810
526.770000	-0.350716
526.956000	-0.223202
527.142000	-0.257722
527.327000	-0.099847
527.513000	-0.191527
527.698000	-0.211559
527.884000	-0.184981
528.069000	-0.187090
528.255000	-0.068077
528.441000	-0.187559
528.626000	-0.188135
528.812000	0.061332
528.997000	-0.070949
529.183000	-0.175798
529.368000	-0.113896
529.554000	-0.116713
529.740000	-0.119564
529.925000	-0.200326
530.111000	-0.210650
530.296000	-0.117370
530.482000	0.004057
530.667000	-0.079654
530.853000	0.014251
531.039000	-0.100487
531.224000	-0.090771
531.410000	0.039988
531.595000	-0.054907
531.781000	-0.016423
531.967000	-0.186826
532.152000	-0.065749
532.338000	-0.115159
532.523000	-0.281688
532.709000	-0.287946
532.894000	-0.195005
533.080000	-0.129618
533.266000	-0.226871
533.451000	-0.240893
533.637000	-0.231099
533.822000	-0.078048
534.008000	-0.199988
534.193000	-0.214041
534.379000	-0.107939
534.565000	-0.153978
534.750000	-0.248785
534.936000	0.034054
535.121000	-0.063407
535.307000	-0.039087
535.492000	-0.093525
535.678000	-0.329294
535.864000	-0.198994
536.049000	0.081826
536.235000	-0.122875
536.420000	-0.159579
536.606000	-0.221374
536.791000	-0.301218
536.977000	-0.287914
537.163000	-0.012419
537.348000	-0.032366
537.534000	0.016005
537.719000	-0.150139
537.905000	-0.308927
538.090000	-0.082013
538.276000	-0.015649
538.462000	-0.053496
538.647000	-0.059552
538.833000	-0.191960
539.018000	-0.077851
539.204000	-0.101512
539.389000	-0.271562
539.575000	-0.013084
539.761000	-0.028092
539.946000	-0.304460
540.132000	-0.230289
540.317000	-0.330708
540.503000	-0.198125
540.688000	-0.138402
540.874000	0.066048
541.060000	0.142446
541.245000	-0.053438
541.431000	-0.226276
541.616000	-0.158889
541.802000	-0.270404
541.987000	-0.119144
542.173000	-0.075995
542.359000	-0.213287
542.544000	-0.138248
542.730000	-0.257591
542.915000	-0.251946
543.101000	-0.101589
543.286000	-0.318598
543.472000	-0.434404
543.658000	-0.301836
543.843000	-0.302579
544.029000	-0.093547
544.214000	-0.151015
544.400000	-0.517981
544.585000	-0.381668
544.771000	-0.338020
544.957000	-0.171625
545.142000	-0.049536
545.328000	-0.049666
545.513000	-0.004523
545.699000	0.008437
545.884000	-0.108457
546.070000	-0.131248
546.261000	-0.174113
546.451000	-0.289127
546.642000	-0.433784
546.833000	-0.224486
547.023000	-0.313028
547.214000	-0.307706
547.405000	-0.146248
547.595000	0.114115
547.786000	0.048338
547.977000	-0.173961
548.167000	-0.323627
548.358000	-0.285007
548.549000	0.105847
548.740000	-0.024787
548.930000	-0.420186
549.121000	-0.300419
549.312000	-0.284702
549.502000	-0.417265
549.693000	-0.288538
549.884000	-0.180475
550.074000	-0.035273
550.265000	-0.293730
550.456000	-0.199022
550.646000	-0.083350
550.837000	-0.103882
551.028000	-0.223783
551.218000	-0.093732
551.409000	-0.221267
551.600000	-0.231771
551.790000	-0.070427
551.981000	-0.325882
552.172000	-0.284987
552.362000	0.005531
552.553000	0.088951
552.744000	-0.095142
552.934000	-0.216861
553.125000	-0.269471
553.316000	-0.238289
553.506000	0.180133
553.697000	-0.099512
553.888000	-0.134315
554.079000	0.103615
554.269000	0.082695
554.460000	-0.261359
554.651000	-0.356573
554.841000	-0.452025
555.032000	-0.350468
555.223000	-0.259159
555.413000	-0.117406
555.604000	-0.079073
555.795000	-0.189000
555.985000	-0.122003
556.176000	-0.210285
556.367000	-0.450917
556.557000	-0.313924
556.748000	-0.286072
556.939000	-0.317604
557.129000	-0.352832
557.320000	-0.228738
557.511000	-0.270854
557.701000	-0.259807
557.892000	-0.193327
558.083000	0.108628
558.273000	-0.008521
558.464000	-0.274833
558.655000	-0.221380
558.845000	-0.160594
559.036000	-0.086372
559.227000	-0.153742
559.418000	-0.004969
559.608000	-0.001419
559.799000	-0.391164
559.990000	-0.346793
560.180000	-0.283726
560.371000	-0.492682
560.562000	-0.364889
560.752000	-0.234534
560.943000	-0.365391
561.134000	-0.530051
561.324000	-0.293569
561.515000	-0.050594
561.706000	-0.145621
561.896000	-0.373439
562.087000	-0.373018
562.278000	-0.369369
562.468000	-0.467958
562.659000	-0.358231
562.850000	-0.015403
563.040000	0.026604
563.231000	-0.428807
563.422000	-0.298201
563.612000	-0.333486
563.803000	-0.224711
563.994000	-0.313920
564.185000	-0.361928
564.375000	-0.174926
564.566000	-0.250978
564.757000	-0.199533
564.947000	-0.306930
565.138000	-0.188240
565.329000	-0.205128
565.519000	-0.432823
565.710000	-0.295059
565.901000	-0.112020
566.091000	-0.056660
566.282000	-0.149597
566.473000	-0.145698
566.663000	-0.169554
566.854000	-0.298791
567.045000	-0.216180
567.235000	-0.182049
567.426000	-0.212654
567.617000	-0.174536
567.807000	-0.164420
567.998000	-0.225109
568.189000	-0.299619
568.379000	-0.190675
568.570000	-0.129641
568.761000	-0.190009
568.951000	-0.169525
569.142000	-0.240483
569.333000	-0.297736
569.524000	-0.410705
569.714000	-0.444220
569.905000	-0.520494
570.096000	-0.175474
570.286000	-0.058190
570.477000	0.118732
570.668000	-0.134614
570.858000	-0.147935
571.049000	-0.273582
571.240000	-0.393305
571.430000	-0.153932
571.621000	-0.232723
571.812000	-0.109961
572.002000	-0.100262
572.193000	-0.274613
572.384000	-0.198795
572.574000	-0.139664
572.765000	-0.139409
572.956000	-0.240581
573.146000	-0.073530
573.337000	-0.233911
573.528000	-0.190989
573.718000	-0.037185
573.909000	0.018240
574.100000	-0.053227
574.290000	-0.166288
574.481000	-0.191740
574.672000	-0.246898
574.863000	-0.075319
575.053000	-0.210108
575.244000	-0.091023
575.435000	-0.215811
575.625000	-0.284991
575.816000	-0.275086
576.007000	-0.195491
576.197000	-0.179854
576.388000	-0.207743
576.579000	-0.001270
576.769000	-0.013956
576.960000	-0.311865
577.155000	-0.469033
577.350000	-0.212763
577.545000	-0.124144
577.740000	-0.258860
577.935000	0.095932
578.130000	0.014432
578.326000	-0.360958
578.521000	-0.101296
578.716000	-0.035477
578.911000	-0.302778
579.106000	-0.180860
579.301000	-0.106209
579.496000	-0.309007
579.691000	-0.527078
579.886000	-0.350877
580.081000	-0.240092
580.276000	-0.212009
580.471000	-0.294441
580.666000	-0.428089
580.861000	-0.403554
581.057000	-0.373317
581.252000	-0.211718
581.447000	-0.326910
581.642000	-0.339655
581.837000	-0.357467
582.032000	-0.304835
582.227000	-0.079690
582.422000	-0.091593
582.617000	-0.292129
582.812000	-0.405057
583.007000	-0.362978
583.202000	-0.377232
583.397000	-0.099332
583.592000	0.055219
583.788000	-0.211295
583.983000	-0.234747
584.178000	-0.131061
584.373000	-0.321959
584.568000	-0.297791
584.763000	-0.303960
584.958000	-0.395061
585.153000	-0.292202
585.348000	-0.233281
585.543000	-0.148230
585.738000	-0.221655
585.933000	-0.412842
586.128000	-0.145208
586.324000	-0.163270
586.519000	-0.219106
586.714000	-0.122019
586.909000	-0.030707
587.104000	-0.001185
587.299000	-0.163647
587.494000	-0.154575
587.689000	-0.216949
587.884000	-0.187956
588.079000	-0.244301
588.274000	-0.286334
588.469000	-0.294654
588.664000	-0.164440
588.859000	-0.075502
589.055000	-0.102372
589.250000	-0.170901
589.445000	-0.320155
589.640000	-0.263729
589.835000	0.010766
590.030000	0.067565
590.225000	0.073558
590.420000	-0.195828
590.615000	-0.288910
590.810000	-0.207759
591.005000	-0.205603
591.200000	-0.383109
591.395000	-0.389065
591.591000	-0.232317
591.786000	-0.097167
591.981000	-0.235817
592.176000	-0.212185
592.371000	-0.151964
592.566000	-0.221152
592.761000	-0.091581
592.956000	-0.100789
593.151000	-0.016303
593.346000	-0.122311
593.541000	-0.110088
593.736000	-0.128629
593.931000	-0.289540
594.126000	-0.168389
594.322000	-0.092398
594.517000	-0.238240
594.712000	-0.423791
594.907000	-0.419214
595.102000	-0.260902
595.297000	-0.108079
595.492000	0.026312
595.687000	-0.133052
595.882000	-0.277279
596.077000	-0.182548
596.272000	-0.041173
596.467000	-0.041186
596.662000	-0.271970
596.857000	-0.211278
597.053000	-0.100248
597.248000	-0.094019
597.443000	-0.115821
597.638000	-0.184395
597.833000	-0.364792
598.028000	-0.085031
598.223000	-0.026119
598.418000	-0.181912
598.613000	-0.247293
598.808000	-0.113456
599.003000	-0.135420
599.198000	-0.332417
599.393000	-0.307331
599.589000	-0.176633
599.784000	-0.377329
599.979000	-0.264897
600.174000	-0.051508
600.369000	-0.290509
600.564000	-0.231072
600.759000	0.001891
600.954000	0.108869
601.149000	-0.054917
601.344000	-0.408819
601.539000	-0.260634
601.734000	-0.219228
601.929000	-0.501631
602.124000	-0.406965
602.320000	-0.163195
602.515000	0.046362
602.710000	0.017820
602.905000	-0.309890
603.100000	-0.357039
603.295000	-0.284501
603.490000	-0.167232
603.685000	-0.132149
603.880000	-0.145093
604.075000	-0.321679
604.270000	-0.290253
604.465000	-0.187366
604.660000	-0.425125
604.856000	-0.309304
605.051000	-0.120230
605.246000	-0.181161
605.441000	-0.409518
605.636000	-0.412851
605.831000	-0.278316
606.026000	-0.423097
606.221000	-0.433349
606.416000	-0.214369
606.611000	-0.088548
606.806000	-0.036808
607.001000	0.131255
607.196000	-0.121022
607.391000	-0.344779
607.587000	-0.121437
607.782000	-0.150859
607.977000	-0.374310
608.172000	0.031236
608.367000	0.034489
608.562000	-0.219735
608.757000	-0.209887
608.952000	-0.334511
609.147000	0.060685
609.342000	-0.040519
609.537000	-0.312311
609.732000	-0.240670
609.927000	-0.348182
610.122000	-0.342222
610.318000	-0.099748
610.513000	-0.086669
610.708000	-0.316816
610.903000	-0.228337
611.098000	-0.205744
611.293000	-0.308041
611.488000	-0.278396
611.683000	-0.265667
611.878000	-0.183115
612.073000	-0.133573
612.268000	-0.186676
612.463000	-0.077624
612.658000	-0.117433
612.854000	-0.144274
613.049000	-0.244113
613.244000	-0.127783
613.439000	-0.011319
613.634000	-0.311701
613.829000	-0.184938
614.024000	-0.218838
614.219000	-0.258954
614.414000	-0.014731
614.609000	-0.199159
614.804000	-0.366898
614.999000	-0.386667
615.194000	-0.293610
615.389000	-0.236779
615.585000	-0.392210
615.780000	-0.193571
615.975000	-0.295329
616.170000	-0.309068
616.365000	-0.028433
616.560000	0.086738
616.755000	0.012235
616.950000	-0.133959
617.145000	-0.066020
617.340000	-0.239806
617.535000	-0.515711
617.730000	-0.206020
617.925000	-0.319098
618.120000	-0.438812
618.316000	-0.086995
618.511000	-0.217346
618.706000	-0.407328
618.901000	-0.231755
619.096000	-0.042800
619.291000	-0.201397
619.486000	-0.157062
619.681000	-0.499944
619.876000	-0.617394
620.071000	-0.444748
620.266000	-0.178470
620.461000	-0.053568
620.656000	-0.112911
620.852000	-0.171937
621.047000	-0.308429
621.242000	-0.445086
621.437000	-0.071440
621.632000	0.033691
621.827000	-0.155960
622.022000	-0.465425
622.217000	-0.248145
622.412000	-0.110798
622.607000	-0.139162
622.802000	-0.269988
622.997000	-0.302844
623.192000	-0.196442
623.387000	-0.189390
623.583000	-0.445628
623.778000	-0.029933
623.973000	-0.029953
624.168000	-0.101510
624.363000	-0.054959
624.558000	-0.030029
624.753000	-0.291929
624.948000	-0.116416
625.143000	-0.094926
625.338000	-0.167121
625.533000	-0.264449
625.728000	-0.250308
625.923000	-0.095279
626.119000	-0.156997
626.314000	-0.359920
626.509000	-0.317441
626.704000	-0.263655
626.899000	-0.245658
627.094000	-0.381044
627.289000	-0.359970
627.484000	-0.302148
627.679000	-0.298749
627.874000	-0.240337
628.069000	0.027970
628.264000	-0.111778
628.459000	-0.229978
628.654000	-0.178542
628.850000	-0.308732
629.045000	-0.242368
629.240000	-0.283416
629.435000	-0.298643
629.630000	-0.250828
629.825000	-0.291755
630.020000	-0.277961
630.215000	-0.475711
630.410000	-0.372629
630.605000	-0.395445
630.800000	-0.312857
630.995000	-0.133093
631.190000	0.115294
631.385000	-0.084449
631.581000	-0.148794
631.776000	-0.118658
631.971000	-0.410958
632.166000	-0.335393
632.361000	-0.339506
632.556000	-0.206879
632.751000	-0.047309
632.946000	-0.173267
633.141000	-0.246528
633.336000	-0.319761
633.531000	-0.224600
633.726000	-0.208958
633.921000	-0.432918
634.117000	-0.545820
634.312000	-0.631377
634.507000	-0.597247
634.702000	-0.416187
634.897000	-0.339167
635.092000	-0.305044
635.287000	-0.177003
635.482000	-0.247828
635.677000	-0.220536
635.872000	-0.122794
636.067000	-0.056443
636.262000	-0.178647
636.457000	-0.491444
636.652000	-0.452929
636.848000	-0.406719
637.043000	-0.372857
637.238000	-0.377793
637.433000	-0.520751
637.628000	-0.389954
637.823000	-0.136526
638.018000	-0.104977
638.213000	-0.256653
638.408000	-0.348639
638.603000	-0.401071
638.798000	-0.429657
638.993000	-0.398417
639.188000	-0.394545
639.383000	-0.386854
639.579000	-0.029665
639.774000	-0.174467
639.969000	-0.339427
640.164000	-0.424851
640.359000	-0.352676
640.554000	-0.122829
640.749000	-0.123167
640.944000	-0.115314
641.139000	-0.232588
641.334000	-0.387261
641.529000	-0.721562
641.724000	-0.506610
641.919000	-0.315871
642.115000	-0.030272
642.310000	-0.087419
642.505000	-0.185393
642.700000	-0.247093
642.895000	-0.370948
643.090000	-0.255972
643.285000	-0.120618
643.480000	-0.162013
643.675000	-0.034570
643.870000	0.258128
644.065000	0.031399
644.260000	-0.365126
644.455000	-0.249941
644.650000	-0.250561
644.846000	-0.126113
645.041000	-0.366568
645.236000	-0.525418
645.431000	-0.513685
645.626000	-0.671466
645.821000	-0.463272
646.016000	-0.364528
646.211000	-0.005850
646.406000	-0.144017
646.601000	-0.135510
646.796000	-0.235838
646.991000	-0.549539
647.186000	-0.370523
647.381000	-0.131696
647.577000	-0.136020
647.772000	-0.064655
647.967000	-0.102641
648.162000	-0.119563
648.357000	-0.229331
648.552000	-0.073323
648.747000	-0.132396
648.942000	-0.043879
649.137000	-0.069405
649.332000	-0.298323
649.527000	-0.332083
649.722000	-0.022865
649.917000	0.045015
650.113000	-0.302851
650.308000	-0.392481
650.503000	-0.392271
650.698000	-0.235872
650.893000	-0.223258
651.088000	-0.142399
651.283000	-0.164073
651.478000	-0.458896
651.673000	-0.159640
651.868000	-0.305378
652.063000	-0.027427
652.258000	0.084060
652.453000	0.126611
652.648000	-0.207311
652.844000	-0.147452
653.039000	-0.087590
653.234000	-0.517116
653.429000	-0.707355
653.624000	-0.440265
653.819000	-0.169771
654.014000	-0.277548
654.209000	-0.373340
654.404000	-0.277988
654.599000	-0.352265
654.794000	-0.334377
654.989000	0.019931
655.184000	-0.075481
655.380000	-0.443851
655.575000	-0.378876
655.770000	-0.244898
655.965000	-0.192840
656.160000	-0.336345
656.355000	-0.205937
656.550000	-0.285014
656.745000	-0.171822
656.940000	-0.311628
657.135000	-0.267917
657.330000	-0.180721
657.525000	-0.495372
657.720000	-0.233679
657.915000	-0.058584
658.111000	-0.194189
658.306000	0.042020
658.501000	-0.150919
658.696000	-0.409599
658.891000	-0.164091
659.086000	-0.269281
659.281000	-0.212614
659.476000	-0.300897
659.671000	-0.767127
659.866000	-0.543034
660.061000	-0.169097
660.256000	-0.120713
660.451000	-0.160505
660.646000	-0.390312
660.842000	-0.262572
661.037000	-0.408599
661.232000	-0.356044
661.427000	-0.196465
661.622000	-0.365282
661.817000	-0.582344
662.012000	-0.397201
662.207000	-0.459718
662.402000	-0.514361
662.597000	-0.394287
662.792000	-0.634557
662.987000	-0.571702
663.182000	-0.367662
663.378000	-0.314371
663.573000	-0.588206
663.768000	-0.551249
663.963000	-0.377442
664.158000	-0.363693
664.353000	0.137279
664.548000	0.312134
664.743000	-0.051183
664.938000	-0.428279
665.133000	-0.424454
665.328000	-0.046831
665.523000	-0.083018
665.718000	-0.326694
665.913000	-0.358819
666.109000	-0.346033
666.304000	-0.078783
666.499000	-0.291404
666.694000	-0.160637
666.889000	0.147915
667.084000	-0.197579
667.279000	-0.256608
667.474000	-0.229438
667.669000	-0.161114
667.864000	-0.179531
668.059000	-0.175241
668.254000	-0.161756
668.449000	-0.303749
668.644000	-0.253661
668.840000	-0.020120
669.035000	-0.308641
669.230000	-0.589972
669.425000	-0.250126
669.620000	-0.392632
669.815000	-0.361754
670.010000	-0.301490
670.205000	-0.195624
670.400000	-0.213698
670.595000	-0.172772
670.790000	-0.293275
670.985000	-0.247276
671.180000	-0.048212
671.376000	-0.414808
671.571000	-0.531981
671.766000	-0.500587
671.961000	-0.519428
672.156000	-0.426704
672.351000	-0.277376
672.546000	-0.348152
672.741000	-0.254007
672.936000	-0.202910
673.131000	0.330976
673.326000	0.035728
673.521000	-0.533565
673.716000	-0.627655
673.911000	-0.764647
674.107000	-0.195295
674.302000	0.068920
674.497000	-0.195653
674.692000	-0.489009
674.887000	-0.547622
675.082000	-0.448645
675.277000	-0.130404
675.472000	-0.178230
675.667000	-0.378961
675.862000	-0.379154
676.057000	-0.221720
676.252000	-0.193457
676.447000	-0.462747
676.643000	-0.265718
676.838000	0.084576
677.033000	-0.078921
677.228000	0.137974
677.423000	0.051168
677.618000	-0.335914
677.813000	-0.509865
678.008000	-0.293120
678.203000	-0.244850
678.398000	-0.493511
678.593000	-0.328146
678.788000	-0.158255
678.983000	-0.455648
679.178000	-0.324092
679.374000	-0.402772
679.569000	-0.330162
679.764000	-0.488359
679.959000	-0.661899
680.154000	-0.568442
680.349000	-0.718699
680.544000	-0.619010
680.739000	-0.367453
680.934000	-0.491420
681.129000	-0.586992
681.324000	-0.627427
681.519000	-0.300760
681.714000	-0.310829
681.909000	-0.464681
682.105000	-0.650588
682.300000	-0.242414
682.495000	0.008010
682.690000	-0.102354
682.885000	-0.263120
683.080000	-0.485404
683.275000	-0.349626
683.470000	0.028246
683.665000	0.174905
683.860000	0.408140
684.055000	0.053707
684.250000	-0.357042
684.445000	-0.326092
684.641000	0.063993
684.836000	-0.225873
685.031000	-0.226688
685.226000	-0.257670
685.421000	-0.017431
685.616000	-0.196872
685.811000	-0.346381
686.006000	-0.053443
686.201000	-0.182153
686.396000	-0.528925
686.591000	-0.535163
686.786000	-0.064280
686.981000	-0.188711
687.176000	-0.142397
687.372000	-0.340264
687.567000	-0.158237
687.762000	-0.038624
687.957000	-0.179544
688.152000	-0.425757
688.347000	-0.332207
688.542000	-0.548400
688.737000	-0.957701
688.932000	-0.896215
689.127000	-0.439251
689.322000	-0.102467
689.517000	-0.435129
689.712000	-0.595650
689.908000	-0.553815
690.103000	-0.512369
690.298000	-0.347661
690.493000	-0.412529
690.688000	-0.594477
690.883000	-0.382331
691.078000	-0.039639
691.273000	-0.071786
691.468000	-0.297364
691.663000	-0.239228
691.858000	-0.082990
692.053000	-0.115319
692.248000	-0.066888
692.443000	-0.023734
692.639000	-0.153508
692.834000	-0.072610
693.029000	0.420643
693.224000	0.471657
693.419000	-0.133015
693.614000	-0.406355
693.809000	-0.554228
694.004000	-0.582654
694.199000	-0.566078
694.394000	-0.271365
694.589000	-0.546605
694.784000	-0.508627
694.979000	-0.233404
695.174000	-0.289183
695.370000	0.096966
695.565000	-0.024300
695.760000	-0.278987
695.955000	-0.013317
696.150000	-0.029973
696.345000	-0.408994
696.540000	-0.203181
696.740000	-0.431736
696.940000	-0.158535
697.140000	0.025811
697.340000	-0.255181
697.539000	-0.131595
697.739000	-0.261044
697.939000	-0.283745
698.139000	-0.655996
698.339000	-0.969585
698.539000	-0.782460
698.739000	-0.733544
698.939000	-0.526087
699.138000	-0.612502
699.338000	0.128448
699.538000	0.197400
699.738000	-0.219722
699.938000	-0.351622
700.138000	-0.535784
700.338000	-0.658144
700.538000	-0.411786
700.737000	-0.365527
700.937000	-0.761078
701.137000	-0.750733
701.337000	-0.106482
701.537000	0.026679
701.737000	-0.442546
701.937000	-0.530632
702.137000	-0.327453
702.337000	-0.432684
702.536000	-0.602564
702.736000	-0.585786
702.936000	-0.773631
703.136000	-0.166435
703.336000	-0.148821
703.536000	-0.472378
703.736000	-0.785897
703.936000	-0.613776
704.135000	-0.584088
704.335000	-0.285201
704.535000	-0.581414
704.735000	-0.670730
704.935000	-0.161720
705.135000	-0.227747
705.335000	-0.442735
705.535000	-0.222704
705.735000	-0.228619
705.934000	-0.264205
706.134000	-0.502397
706.334000	-0.443922
706.534000	-0.719423
706.734000	-0.719994
706.934000	-0.690056
707.134000	-0.666310
707.334000	-0.433963
707.533000	-0.278634
707.733000	-0.362442
707.933000	-0.567032
708.133000	-0.272373
708.333000	-0.219515
708.533000	-0.564302
708.733000	-0.195724
708.933000	-0.389375
709.132000	-0.432538
709.332000	-0.421133
709.532000	-0.561941
709.732000	-0.403230
709.932000	-0.854653
710.132000	-0.896702
710.332000	-0.999662
710.532000	-0.428475
710.732000	-0.216046
710.931000	-0.521581
711.131000	-0.578802
711.331000	-0.456525
711.531000	-0.604816
711.731000	-0.630987
711.931000	-0.465384
712.131000	-0.452497
712.331000	-0.366306
712.530000	-0.433614
712.730000	-0.675600
712.930000	-0.533385
713.130000	-0.429937
713.330000	-0.554524
713.530000	-0.369798
713.730000	0.196818
713.930000	-0.089661
714.129000	-0.493862
714.329000	-0.707603
714.529000	-0.389073
714.729000	0.166196
714.929000	-0.171200
715.129000	-0.597064
715.329000	-0.415952
715.529000	-0.373626
715.729000	0.286285
715.928000	-0.065457
716.128000	-0.342603
716.328000	-0.242555
716.528000	-0.394602
716.728000	-0.261866
716.928000	-0.394736
717.128000	-0.332218
717.328000	-0.249757
717.527000	-0.440460
717.727000	-0.485360
717.927000	-0.378575
718.127000	-0.404299
718.327000	-0.833062
718.527000	-0.851800
718.727000	-0.360464
718.927000	-0.399535
719.127000	-0.638997
719.326000	-0.546771
719.526000	-0.188578
719.726000	-0.259679
719.926000	-0.744527
720.126000	-0.686573
720.326000	-0.383236
720.526000	-0.525273
720.726000	-0.462135
720.925000	-0.203366
721.125000	-0.607156
721.325000	-0.327233
721.525000	-0.354060
721.725000	-0.581920
721.925000	-0.603142
722.125000	-0.550967
722.325000	-0.080939
722.524000	-0.349619
722.724000	-0.723705
722.924000	-0.743325
723.124000	-0.645804
723.324000	-0.245710
723.524000	-0.127570
723.724000	-0.641057
723.924000	-0.557487
724.124000	-0.326414
724.323000	0.123060
724.523000	-0.134852
724.723000	0.063596
724.923000	-0.115302
725.123000	-0.161858
725.323000	-0.162147
725.523000	-0.495361
725.723000	-0.674420
725.922000	-0.621912
726.122000	-0.342636
726.322000	-0.550766
726.522000	-0.551305
726.722000	0.171082
726.922000	-0.182986
727.122000	-0.411477
727.322000	-0.049655
727.521000	-0.379380
727.721000	-0.494460
727.921000	-0.332799
728.121000	-0.487624
728.321000	-0.798909
728.521000	-0.611540
728.721000	-0.422842
728.921000	0.010838
729.121000	0.512953
729.320000	-0.043473
729.520000	-0.417104
729.720000	-0.615121
729.920000	-0.529171
730.120000	-0.336882
730.320000	-0.310363
730.520000	-0.638763
730.720000	-0.503564
730.919000	-0.476033
731.119000	-0.202032
731.319000	-0.663525
731.519000	-0.677199
731.719000	-0.278248
731.919000	-0.616056
732.119000	-1.196882
732.319000	-0.979068
732.519000	-0.266028
732.718000	-0.613221
732.918000	-0.683176
733.118000	-0.427354
733.318000	-0.128436
733.518000	-0.526349
733.718000	-1.107289
733.918000	-0.940067
734.118000	-0.534197
734.317000	-0.339796
734.517000	-0.640793
734.717000	-0.545255
734.917000	-0.087551
735.117000	-0.172461
735.317000	-0.250147
735.517000	0.294758
735.717000	0.437759
735.916000	-0.514586
736.116000	-0.663268
736.316000	-0.503021
736.516000	-0.495721
736.716000	-0.538852
736.916000	-1.057702
737.116000	-0.623002
737.316000	0.004326
737.516000	-0.183483
737.715000	-0.183600
737.915000	-0.682667
738.115000	-0.699343
738.315000	-0.460282
738.515000	-0.794086
738.715000	-0.623521
738.915000	0.033630
739.115000	-0.464283
739.314000	-0.515079
739.514000	-0.032308
739.714000	0.063307
739.914000	-0.231820
740.114000	-0.491136
740.314000	-0.084384
740.514000	0.323227
740.714000	-0.464167
740.913000	-0.971404
741.113000	-0.861009
741.313000	-0.555106
741.513000	-0.444436
741.713000	-0.310591
741.913000	-0.349747
742.113000	-0.439529
742.313000	-0.991052
742.513000	-0.674906
742.712000	-0.586207
742.912000	-0.859088
743.112000	-0.725168
743.312000	-0.992862
743.512000	-0.659332
743.712000	-0.561924
743.912000	-1.114928
744.112000	-1.107969
744.311000	-1.141738
744.511000	-0.796963
744.711000	-0.288982
744.911000	-0.591171
745.111000	-0.700370
745.311000	-0.220451
745.511000	-0.516132
745.711000	-0.788933
745.911000	-0.408223
746.110000	-0.891659
746.310000	-1.045886
746.510000	-0.769812
746.710000	-0.246778
746.910000	-0.223399
747.110000	-0.751642
747.310000	-1.060768
747.510000	-0.827128
747.709000	-0.542350
747.909000	-0.400652
748.109000	-0.130811
748.309000	-0.434797
748.509000	-0.899777
748.709000	-0.951320
748.909000	-0.549411
749.109000	-0.600213
749.308000	-0.027457
749.508000	-0.319345
749.708000	-0.538367
749.908000	-0.141109
750.108000	-0.060190
750.308000	-0.648080
750.508000	-0.109654
750.708000	-0.641770
750.908000	-1.250218
751.107000	-0.472334
751.307000	0.210408
751.507000	-0.449012
751.707000	-0.514389
751.907000	-0.482598
752.107000	-0.359857
752.307000	-0.760405
752.507000	-0.620594
752.706000	-0.678521
752.906000	0.247259
753.106000	-0.632027
753.306000	-1.298203
753.506000	-0.171992
753.706000	-0.544038
753.906000	-0.273751
754.106000	-0.121828
754.305000	-0.316826
754.505000	-0.300669
754.705000	-0.430409
754.905000	-0.499467
755.105000	-0.286077
755.305000	-1.041264
755.505000	-0.906633
755.705000	-0.365173
755.905000	-0.564957
756.104000	-1.136077
756.304000	-1.364527
756.504000	-1.662700
756.704000	-0.448833
756.904000	-0.143126
757.104000	-0.439230
757.304000	-0.553052
757.504000	-0.143936
757.703000	-0.582655
757.903000	-0.320177
758.103000	0.172756
758.303000	-0.242185
758.503000	-0.703659
758.703000	-0.838545
758.903000	-0.945562
759.103000	-0.395668
759.303000	-0.379659
759.502000	-0.515595
759.702000	-0.039508
759.902000	-0.427780
760.102000	-0.673060
760.302000	-0.847790
760.502000	-0.302266
760.702000	-0.329889
760.902000	-0.684790
761.101000	-0.932681
761.301000	-1.116799
761.501000	-0.843345
761.701000	-1.073676
761.901000	-0.702351
762.101000	-0.114238
762.301000	-0.436690
762.501000	-0.934952
762.700000	-1.124516
762.900000	-1.050788
763.100000	-0.643807
763.300000	-0.311110
763.500000	-0.441952
763.703000	-0.672794
763.905000	-0.945865
764.108000	-0.331388
764.311000	-0.696570
764.513000	-0.659916
764.716000	-0.370824
764.919000	-0.503261
765.121000	-1.078566
765.324000	-1.299305
765.527000	-1.135114
765.729000	-0.906923
765.932000	-0.003809
766.135000	-0.137077
766.337000	-0.432398
766.540000	-0.624927
766.743000	-0.456296
766.945000	-1.031838
767.148000	-1.351937
767.351000	-1.168819
767.553000	-0.380756
767.756000	-0.835846
767.958000	-1.067916
768.161000	-0.720307
768.364000	-1.014477
768.566000	-1.250420
768.769000	-0.736731
768.972000	-0.521697
769.174000	-0.836866
769.377000	-1.350288
769.580000	-1.431953
769.782000	-0.594324
769.985000	-1.040428
770.188000	-1.982898
770.390000	-1.197216
770.593000	0.472728
770.796000	0.005963
770.998000	-0.590701
771.201000	-0.850150
771.404000	-0.532343
771.606000	-0.874746
771.809000	-0.754397
772.012000	-0.585434
772.214000	-1.428620
772.417000	-1.378606
772.620000	-0.274069
772.822000	-0.649153
773.025000	-1.062627
773.228000	-1.165618
773.430000	-0.843800
773.633000	-0.510890
773.836000	-0.542039
774.038000	-0.401443
774.241000	-0.594871
774.444000	-0.923657
774.646000	-0.065339
774.849000	-0.382686
775.052000	-0.546309
775.254000	-0.516641
775.457000	-0.843897
775.659000	-0.702195
775.862000	-0.743436
776.065000	-0.508097
776.267000	-0.014424
776.470000	0.430521
776.673000	-0.387323
776.875000	-0.139180
777.078000	-0.263401
777.281000	-1.045112
777.483000	-0.390554
777.686000	-0.318050
777.889000	-0.485967
778.091000	-0.035732
778.294000	-1.116618
778.497000	-1.086530
778.699000	-0.950684
778.902000	-0.890618
779.105000	-0.616299
779.307000	0.291681
779.510000	-0.809210
779.713000	-0.376407
779.915000	-0.633684
780.118000	0.187942
780.321000	0.466155
780.523000	-0.304348
780.726000	-0.937010
780.929000	-1.151015
781.131000	-0.830786
781.334000	-1.437188
781.537000	-1.657282
781.739000	-0.447681
781.942000	-0.902578
782.145000	-1.538184
782.347000	-1.528269
782.550000	-1.398545
782.753000	-1.392214
782.955000	-0.870033
783.158000	-0.858569
783.361000	-0.728951
783.563000	-0.663190
783.766000	-0.631884
783.968000	0.976846
784.171000	0.637974
784.374000	-0.425354
784.576000	-0.613480
784.779000	-0.291884
784.982000	0.162351
785.184000	-0.429322
785.387000	-0.026874
785.590000	0.252924
785.792000	-0.004494
785.995000	-0.195767
786.198000	-0.286240
786.400000	-0.581687
786.603000	-0.764693
786.806000	-0.852816
787.008000	-0.490829
787.211000	-0.458550
787.414000	-1.052351
787.616000	-0.736229
787.819000	-0.783800
788.022000	-1.507755
788.224000	-0.832823
788.427000	-1.270660
788.630000	-0.790019
788.832000	-0.639176
789.035000	-1.098922
789.238000	-1.520440
789.440000	-1.517672
789.643000	-0.144019
789.846000	-0.680217
790.048000	-0.284889
790.251000	-0.179850
790.454000	-0.762251
790.656000	0.030415
790.859000	-0.473702
791.062000	-0.920883
791.264000	-0.474145
791.467000	-1.206878
791.669000	-1.598145
791.872000	-0.846954
792.075000	-1.343610
792.277000	-1.047569
792.480000	-0.767309
792.683000	-1.062268
792.885000	-1.443894
793.088000	-1.126882
793.291000	-1.225438
793.493000	-1.335573
793.696000	-0.472551
793.899000	-0.125078
794.101000	-0.619609
794.304000	-0.959302
794.507000	-0.525132
794.709000	-0.429522
794.912000	-1.028178
795.115000	-1.506177
795.317000	-0.956659
795.520000	-0.580918
795.723000	-0.915496
795.925000	-1.237233
796.128000	-1.555633
796.331000	-1.116230
796.533000	-1.576837
796.736000	-0.763769
796.939000	-0.840411
797.141000	-1.142674
797.344000	-0.505559
797.547000	-0.343028
797.749000	-0.356058
797.952000	-0.950107
798.155000	-1.287512
798.357000	-1.434405
798.560000	-1.200814
798.763000	-0.665867
798.965000	-0.766799
799.168000	-0.730839
799.371000	-0.362022
799.573000	-0.810872
799.776000	-1.670285
799.978000	-1.650377
800.181000	-0.674808
800.384000	0.949287
800.586000	-0.056884
800.789000	-1.297435
800.992000	-1.374040
801.194000	-1.571211
801.397000	-1.718007
801.600000	-1.398378
801.802000	-0.031295
802.005000	-0.319181
802.208000	-1.802493
802.410000	-0.568858
802.613000	-0.334396
802.816000	-0.690660
803.018000	-1.445791
803.221000	-1.395528
803.424000	0.193711
803.626000	-0.204642
803.829000	-0.925157
804.032000	0.061484
804.234000	0.836455
804.437000	-0.917894
804.640000	-1.145065
804.842000	-1.053612
805.045000	-1.491038
805.248000	-0.979648
805.450000	-0.897585
805.653000	-1.066518
805.856000	-1.350716
806.058000	-0.128126
806.261000	-1.098469
806.464000	-0.757663
806.666000	-0.306833
806.869000	-1.039439
807.072000	-2.183414
807.274000	-2.391746
807.477000	-1.098173
807.679000	-0.683814
807.882000	-1.462342
808.085000	-1.136975
808.287000	-0.592819
808.490000	-1.574543
808.693000	-1.070996
808.895000	-0.903791
809.098000	-0.876147
809.301000	-0.836814
809.503000	-1.335655
809.706000	-0.034143
809.909000	0.236114
810.111000	-0.190866
810.314000	-0.648141
810.517000	-1.115617
810.719000	-1.307934
810.922000	-0.853614
811.125000	-0.077434
811.327000	0.152870
811.530000	-0.715256
811.735000	-1.162344
811.940000	-1.483711
812.146000	-1.257148
812.351000	-0.529673
812.556000	-1.027712
812.761000	-1.602110
812.967000	-0.285329
813.172000	-0.387874
813.377000	-0.963847
813.582000	-0.316725
813.788000	-0.423229
813.993000	-1.462721
814.198000	-0.735053
814.403000	-1.478212
814.609000	-0.799127
814.814000	-0.712536
815.019000	0.369121
815.224000	-0.035993
815.429000	-1.002430
815.635000	-0.687549
815.840000	-0.809581
816.045000	-0.706662
816.250000	-0.143391
816.456000	-1.259107
816.661000	-2.231965
816.866000	-1.775343
817.071000	-1.804974
817.277000	-2.249879
817.482000	-1.478744
817.687000	-0.749745
817.892000	-0.785146
818.097000	-0.271902
818.303000	0.259398
818.508000	0.539619
818.713000	6.879559
818.918000	3.846297
819.124000	0.527557
819.329000	-0.794696
819.534000	-1.081730
819.739000	-1.129268
819.945000	-0.880344
820.150000	-1.109081
820.355000	-1.239334
820.560000	-0.277860
820.766000	-0.550740
820.971000	-0.650529
821.176000	-2.056405
821.381000	-2.774737
821.586000	-1.722747
821.792000	0.009749
821.997000	-0.657026
822.202000	-1.146043
822.407000	-1.688355
822.613000	-1.937340
822.818000	-1.138534
823.023000	-0.597885
823.228000	-0.601746
823.434000	0.026429
823.639000	-0.105944
823.844000	-1.400823
824.049000	-0.372057
824.255000	-0.223290
824.460000	-1.011170
824.665000	-0.962284
824.870000	0.296056
825.075000	-0.444645
825.281000	-0.344624
825.486000	0.587976
825.691000	-1.912962
825.896000	-2.939858
826.102000	-1.371876
826.307000	-0.776553
826.512000	-1.277348
826.717000	-1.195179
826.923000	-0.991343
827.128000	-0.820430
827.333000	-1.644497
827.538000	-0.741397
827.744000	-0.287463
827.949000	-1.406601
828.154000	-0.762360
828.359000	0.063206
828.564000	-0.712866
828.770000	-0.981586
828.975000	-0.024862
829.180000	-0.881709
829.385000	-2.273015
829.591000	-1.601744
829.796000	-1.231619
830.001000	-1.197890
830.206000	-1.455037
830.412000	-1.236604
830.617000	-1.293959
830.822000	-0.353334
831.027000	-0.915896
831.232000	-1.323674
831.438000	-1.277788
831.643000	-0.872651
831.848000	-1.280811
832.053000	-0.841078
832.259000	-1.064705
832.464000	-2.834785
832.669000	-2.191644
832.874000	-1.684860
833.080000	-1.898232
833.285000	-0.120004
833.490000	-0.063797
833.695000	-1.612994
833.901000	-1.449795
834.106000	-2.174209
834.311000	-1.746218
834.516000	-0.811304
834.721000	-0.950578
834.927000	-0.162305
835.132000	-0.607900
835.337000	1.136179
835.542000	-0.046810
835.748000	-2.071201
835.953000	-0.222682
836.158000	-0.321135
836.363000	-0.519024
836.569000	-0.443798
836.774000	-1.575870
836.979000	-2.094441
837.184000	-2.756872
837.390000	-2.302917
837.595000	-1.488700
837.800000	-1.191288
838.005000	-0.774842
838.210000	-0.977048
838.416000	-1.406402
838.621000	-1.206989
838.826000	-1.246865
839.031000	-0.987917
839.237000	-1.653351
839.442000	-2.500469
839.647000	-2.743529
839.852000	-1.578033
840.058000	-1.252063
840.263000	-1.445695
840.468000	-2.677435
840.673000	-1.822674
840.878000	-1.260794
841.084000	-1.877264
841.289000	-1.566217
841.494000	1.348197
841.699000	1.182513
841.905000	0.226036
842.110000	0.355894
842.315000	-1.619971
842.520000	-0.910051
842.726000	-1.493124
842.931000	-2.050843
843.136000	-0.831468
843.341000	-2.473740
843.547000	-1.314885
843.752000	-1.316391
843.957000	-2.052282
844.162000	-2.106177
844.367000	-1.823137
844.573000	-0.831054
844.778000	-0.562915
844.983000	-0.475430
845.188000	-0.723502
845.394000	-2.397405
845.599000	-1.649789
845.804000	-1.452437
846.009000	-1.099128
846.215000	-2.267760
846.420000	-1.724855
846.625000	-0.376389
846.830000	0.150929
847.036000	-1.502816
847.241000	-2.109172
847.446000	-0.355332
847.651000	-1.237310
847.856000	-2.207116
848.062000	-1.533618
848.267000	-0.408147
848.472000	-1.657083
848.677000	-2.511449
848.883000	-0.975144
849.088000	0.180825
849.293000	-1.084449
849.498000	-1.464764
849.704000	-0.727257
849.909000	-1.280796
850.114000	-2.144321
850.319000	-1.235622
850.524000	-1.145731
850.730000	-0.982070
850.935000	-0.863983
851.140000	0.210448
851.345000	-0.548065
851.551000	-0.304306
851.756000	0.113495
851.961000	-1.345774
852.166000	-2.386028
852.372000	-1.697381
852.577000	-1.359828
852.782000	-1.370141
852.987000	-0.286308
853.193000	-0.967882
853.398000	-1.548065
853.603000	-2.612825
853.808000	-2.892302
854.013000	-1.434995
854.219000	-0.214111
854.424000	1.371533
854.629000	0.810375
854.834000	-1.817446
855.040000	-0.841797
855.245000	-0.113936
855.450000	-2.901589
855.655000	-4.393906
855.861000	-3.925863
856.066000	-3.063042
856.271000	-3.120688
856.476000	-0.645329
856.682000	-1.603604
856.887000	-3.883462
857.092000	-2.775153
857.297000	-0.464387
857.502000	-0.786198
857.708000	-1.618330
857.913000	-0.413336
858.118000	-0.742196
858.323000	-1.314885
858.529000	-0.960226
858.734000	-1.126032
858.939000	-1.429420
859.144000	-2.939680
859.350000	-3.870851
859.555000	-3.223895
859.760000	-0.563255
859.965000	0.320189
860.171000	-1.702120
860.376000	-0.846262
860.581000	-2.048745
860.786000	-4.832250
860.991000	-3.614656
861.197000	-2.571480
861.402000	-1.280962
861.607000	-1.818208
861.812000	-2.591606
862.018000	-2.630010
862.223000	-2.007591
862.428000	-1.130190
862.633000	0.017219
862.839000	-0.762379
863.044000	-1.962649
863.249000	-2.276769
863.454000	-0.738359
863.659000	-1.440380
863.865000	-2.150801
864.070000	-2.097684
864.275000	-2.630906
864.480000	-2.495128
864.686000	-3.928619
864.891000	-3.219162
865.096000	-0.877101
865.301000	-0.370626
865.507000	-1.184562
865.712000	-1.184483
865.917000	-1.948504
866.122000	-1.195338
866.328000	-3.459900
866.533000	-3.426996
866.738000	-0.256437
866.943000	-0.501718
867.148000	0.356868
867.354000	-2.089802
867.559000	-4.106377
867.764000	-2.692787
867.969000	-1.014917
868.175000	-2.260245
868.380000	-3.082710
868.585000	-3.620001
868.790000	-1.617940
868.996000	-2.167287
869.201000	-3.824926
869.406000	-4.670966
869.611000	-3.335649
869.817000	-2.980875
870.022000	1.236589
870.227000	-1.425890
870.432000	-3.111093
870.637000	-1.305310
870.843000	-1.215402
871.048000	-1.996303
871.253000	-0.468459
871.458000	-1.582536
871.664000	-2.744267
871.869000	-3.157673
872.074000	-2.702399
872.279000	-1.506509
872.485000	-2.384535
872.690000	-3.401123
872.895000	-3.415180
873.100000	-3.250617
873.306000	-3.298301
873.511000	-1.786808
873.716000	0.054679
873.921000	-1.683796
874.126000	-2.642374
874.332000	-1.737568
874.537000	-0.394966
874.742000	-0.980774
874.947000	-1.366422
875.153000	-0.119021
875.358000	-1.242122
875.563000	-1.661638
875.768000	-4.344023
875.974000	-5.351602
876.179000	-1.572487
876.384000	-0.903947
876.589000	-2.564041
876.794000	-2.387201
877.000000	-3.144780
877.205000	-4.290742
877.410000	-1.495070
877.615000	-3.980112
877.821000	-6.452299
878.026000	-4.162943
878.231000	-4.052855
878.436000	-4.424081
878.642000	-3.684089
878.847000	-1.081208
879.052000	0.168927
879.257000	-2.830058
879.463000	-4.577373
879.668000	-3.836662
879.873000	-1.542263
880.078000	-3.786680
880.283000	-4.551213
880.489000	-4.888511
880.694000	-4.119071
880.899000	-3.239692
881.104000	-1.843533
881.310000	1.394042
881.515000	-0.509800
881.720000	0.747472
881.925000	2.976067
882.131000	3.781683
882.336000	0.371029
882.541000	-3.638193
882.746000	-2.990674
882.952000	-3.456391
883.157000	-3.504102
883.362000	-4.059069
883.567000	-4.746206
883.772000	-4.471983
883.978000	-3.759941
884.183000	-2.291430
884.388000	-2.485210
884.593000	-4.119782
884.799000	0.584312
885.004000	0.146112
885.209000	-2.005843
885.414000	-1.472924
885.620000	-4.621917
885.825000	-1.165835
886.030000	-1.532288
886.235000	-3.273019
886.440000	-2.261145
886.646000	-4.937664
886.851000	-4.291890
887.056000	-0.227055
887.261000	-1.195099
887.467000	-4.706898
887.672000	-2.058943
887.877000	-2.625287
888.082000	-5.172530
888.288000	-6.566203
888.493000	-8.019841
888.698000	-6.034587
888.903000	-3.229026
889.109000	-3.698760
889.314000	-0.060670
889.519000	-2.003128
889.724000	-0.319924
889.929000	-1.878502
890.135000	-2.013754
890.340000	-2.072506
890.545000	-3.338974
890.750000	-4.791757
890.956000	-4.192463
891.161000	-1.992273
891.366000	-3.362112
891.571000	-2.046704
891.777000	-1.827857
891.982000	-0.239581
892.187000	-0.463392
892.392000	0.515631
892.598000	0.205642
892.803000	-1.100438
893.008000	-3.261999
893.213000	-3.747681
893.418000	-3.457325
893.624000	-4.202351
893.829000	-6.251655
894.034000	-2.480459
894.239000	-1.347137
894.445000	-4.635485
894.650000	-4.015617
894.855000	-4.020624
895.060000	-5.116133
895.266000	-5.241263
895.471000	-6.539259
895.676000	-1.967699
895.881000	-1.750599
896.087000	-3.904497
896.292000	-4.730954
896.497000	-0.871285
896.702000	-1.763883
896.907000	-3.514315
897.113000	-0.587883
897.318000	0.075818
897.523000	0.693659
897.728000	-2.117602
897.934000	-3.632059
898.139000	-3.165363
898.344000	-1.029748
898.549000	-2.584196
898.755000	-3.654012
898.960000	-3.481532
899.165000	-5.531978
899.370000	-2.811962
899.575000	0.962633
899.781000	-3.664451
899.986000	-4.009433
900.191000	-2.250503
900.396000	-3.245678
900.602000	-2.765903
900.807000	-3.439076
901.012000	-2.095103
901.217000	-0.882736
901.423000	-4.165985
901.628000	-4.484296
901.833000	0.438428
902.038000	0.133578
902.244000	-3.709432
902.449000	-3.112831
902.654000	-3.301880
902.859000	-2.306944
903.064000	-0.960614
903.270000	-1.016463
903.475000	-3.953613
903.680000	-5.416266
903.885000	-5.776236
904.091000	-4.319973
904.296000	-5.349502
904.501000	-5.531209
904.706000	-5.656338
904.912000	-0.943860
905.117000	-1.274647
905.322000	-4.909339
905.527000	-4.558614
905.733000	-3.795871
905.938000	-3.819627
906.143000	-4.144022
906.348000	-6.154128
906.553000	-1.762915
906.759000	-1.088508
906.964000	-2.729141
907.169000	-4.332248
907.374000	-6.755428
907.580000	-4.800624
907.785000	-4.883350
907.990000	24.494059
908.195000	16.756111
908.401000	-0.432775
908.606000	-8.079737
908.811000	-9.951581
909.016000	-3.191554
909.221000	-2.024579
909.427000	-3.042321
909.632000	-6.532144
909.837000	-5.495417
910.042000	-5.933429
910.248000	-8.447425
910.453000	-4.591125
910.658000	-4.994250
910.863000	-4.621301
911.069000	-6.175986
911.274000	-2.379477
911.479000	-0.523714
911.684000	-6.877000
911.890000	-3.915191
912.095000	-4.171302
912.300000	-7.237949
912.506000	-6.482134
912.711000	-5.217000
912.917000	-3.297214
913.123000	-2.208667
913.328000	-3.191346
913.534000	-3.416205
913.740000	6.013728
913.946000	1.029296
914.151000	-5.578357
914.357000	-6.934244
914.563000	-2.998147
914.768000	-6.881999
914.974000	-8.165541
915.180000	-6.411243
915.385000	-6.300556
915.591000	-9.727373
915.797000	-4.306763
916.002000	-1.347822
916.208000	-5.560687
916.414000	-7.229971
916.620000	-6.895074
916.825000	-2.980355
917.031000	-4.811593
917.237000	-10.268442
917.442000	-6.381783
917.648000	-7.007427
917.854000	-8.009363
918.059000	-0.970050
918.265000	-0.390426
918.471000	-3.008424
918.676000	-6.418955
918.882000	-8.827018
919.088000	-8.398798
919.294000	-13.165470
919.499000	-8.597178
919.705000	-2.901478
919.911000	-3.505800
920.116000	-1.633083
920.322000	-8.613954
920.528000	-6.887969
920.733000	-8.312194
920.939000	-9.836915
921.145000	-7.779706
921.350000	-7.641653
921.556000	-6.745437
921.762000	-5.134071
921.968000	-6.907602
922.173000	-8.483098
922.379000	-9.696468
922.585000	-7.311226
922.790000	-8.061517
922.996000	-6.307895
923.202000	-7.470435
923.407000	-7.769452
923.613000	-5.927542
923.819000	-4.598458
924.024000	-5.074132
924.230000	-2.654520
924.436000	-4.287713
924.642000	7.889675
924.847000	3.272159
925.053000	-5.424711
925.259000	-11.525798
925.464000	-5.029449
925.670000	-5.375575
925.876000	-9.686075
926.081000	-10.361103
926.287000	-4.406728
926.493000	-3.576672
926.698000	-4.401007
926.904000	-2.385828
927.110000	-5.036648
927.316000	-5.331786
927.521000	1.715445
927.727000	-4.343737
927.933000	-6.243000
928.138000	-5.609293
928.344000	-11.979303
928.550000	-9.031243
928.755000	-2.457922
928.961000	-6.026381
929.167000	-8.006426
929.372000	-1.697386
929.578000	-2.992851
929.784000	-7.874071
929.990000	-10.600200
930.195000	-6.233110
930.401000	-7.587732
930.607000	-7.101644
930.812000	-4.318930
931.018000	-8.019063
931.224000	-15.278634
931.429000	-12.327968
931.635000	-13.028571
931.841000	-12.316738
932.046000	-8.460855
932.252000	-2.370113
932.458000	4.441423
932.664000	-0.583020
932.869000	-7.068408
933.075000	-10.381015
933.281000	-10.970217
933.486000	-2.952067
933.692000	-5.773493
933.898000	-12.422185
934.103000	-2.650689
934.309000	-4.903868
934.515000	-4.631811
934.720000	-3.939950
934.926000	-0.761292
935.132000	-3.619049
935.338000	-4.620960
935.543000	-10.912512
935.749000	-12.370164
935.955000	-15.026370
936.160000	-10.192070
936.366000	-2.570742
936.572000	-4.420406
936.777000	-0.839234
936.983000	0.604616
937.189000	-4.556929
937.394000	-10.123143
937.600000	-2.481838
937.806000	2.527088
938.012000	-6.541688
938.217000	1.890920
938.423000	-1.596342
938.629000	-7.618737
938.834000	-15.713326
939.040000	-16.053441
939.246000	-11.124675
939.451000	-12.574794
939.657000	-6.966877
939.863000	-10.046552
940.068000	-5.026860
940.274000	-10.364917
940.480000	-4.360814
940.686000	-2.564216
940.891000	-8.899271
941.097000	19.167068
941.303000	4.999025
941.508000	-10.088362
941.714000	-10.463207
941.920000	-19.028714
942.125000	-7.070234
942.331000	-9.721827
942.537000	-3.826912
942.742000	-2.048540
942.948000	-14.936676
943.154000	-18.879120
943.360000	-28.393012
943.565000	-11.863952
943.771000	1.292952
943.977000	4.325447
944.182000	-17.946850
944.388000	-16.500105
944.594000	-4.360443
944.799000	1.664760
945.005000	-6.377033
945.211000	1.983772
945.416000	-1.285034
945.622000	-15.389915
945.828000	-11.860541
946.034000	-0.786938
946.239000	-0.971179
946.445000	-7.153749
946.651000	-21.395648
946.856000	-17.563039
947.062000	-1.666794
947.268000	-2.214166
947.473000	-15.490422
947.679000	-16.847389
947.885000	-5.500542
948.090000	-2.075373
948.296000	13.625537
948.502000	-0.802840
948.708000	-12.589486
948.913000	-16.836365
949.119000	-5.101186
949.325000	-8.830278
949.530000	-25.613404
949.736000	-28.683359
949.942000	-14.877671
950.147000	-14.426775
950.353000	-17.261257
950.559000	-13.388954
950.764000	11.871322
950.970000	5.938546
951.176000	-10.532059
951.382000	-20.410852
951.587000	-7.896167
951.793000	-0.865663
951.999000	0.116367
952.204000	-16.137256
952.410000	-28.609659
952.616000	-9.321082
952.821000	-5.698726
953.027000	-14.252158
953.233000	-18.856850
953.438000	-17.599111
953.644000	1.910410
953.850000	-5.655405
954.056000	-13.966129
954.261000	-13.850432
954.467000	-5.967205
954.673000	2.349482
954.878000	-7.804320
955.084000	-7.000008
955.290000	-22.760028
955.495000	-22.211834
955.701000	-19.087158
955.907000	-2.580472
956.112000	-6.535092
956.318000	10.231153
956.524000	3.046284
956.730000	-16.191561
956.935000	-15.177680
957.141000	-18.663737
957.347000	-6.727037
957.552000	-10.786248
957.758000	-25.999006
957.964000	-31.887867
958.169000	3.825964
958.375000	2.311412
958.581000	-14.768879
958.786000	-24.442000
958.992000	-29.602299
959.198000	-10.842324
959.404000	-6.785879
959.609000	-11.578348
959.815000	-18.341625
960.021000	-3.045885
960.226000	-9.952366
960.432000	-35.396184
960.638000	-22.429699
960.843000	-13.342228
961.049000	-14.568708
961.255000	-8.089895
961.460000	-19.280772
961.666000	-38.293414
961.872000	-23.016817
962.078000	-19.362054
962.283000	-25.384640
962.489000	-28.144654
962.695000	-20.956801
962.900000	-13.000989
963.106000	-15.602642
963.312000	-22.785667
963.517000	-26.457452
963.723000	-27.025012
963.929000	-4.145794
964.134000	4.188139
964.340000	-18.725787
964.546000	-16.567136
964.752000	-21.839168
964.957000	-32.205955
965.163000	-6.944871
965.369000	-8.901645
965.574000	-11.147768
965.780000	-9.809600
966.000000	-21.415298
966.220000	-15.031540
966.440000	-13.474500
966.661000	-3.677131
966.881000	-21.580084
967.101000	-39.465334
967.321000	-39.538119
967.541000	-12.382050
967.761000	-17.603255
967.981000	-16.181658
968.202000	-16.274892
968.422000	-2.723375
968.642000	-8.491585
968.862000	-11.027984
969.082000	-16.158445
969.302000	-5.029891
969.522000	-12.781414
969.743000	-3.346422
969.963000	-21.421308
970.183000	-30.724777
970.403000	-22.921856
970.623000	-25.732074
970.843000	-0.743874
971.063000	0.503570
971.284000	-21.341741
971.504000	-36.502271
971.724000	-16.211450
971.944000	-28.877865
972.164000	-38.188661
972.384000	-30.232817
972.604000	-50.364854
972.825000	-58.144624
973.045000	-40.738790
973.265000	18.237958
973.485000	8.709432
973.705000	-11.426797
973.925000	-20.976630
974.145000	-53.433077
974.365000	-16.860025
974.586000	-16.243270
974.806000	-37.488470
975.026000	-6.250277
975.246000	-20.256140
975.466000	-37.547634
975.686000	-16.588674
975.906000	-23.404605
976.127000	-47.956126
976.347000	-43.055343
976.567000	-11.727328
976.787000	-12.512793
977.007000	-31.046023
977.227000	-35.482814
977.447000	-37.500375
977.668000	-56.061577
977.888000	-39.672781
978.108000	-30.681648
978.328000	-18.312946
978.548000	8.978939
978.768000	6.313382
978.988000	-7.779375
979.209000	-17.844985
979.429000	-23.027202
979.649000	-8.855390
979.869000	-33.989104
980.089000	-46.887079
980.309000	-51.102226
980.529000	-59.498629
980.750000	-40.847163
980.970000	-49.987869
981.190000	-31.413234
981.410000	-33.742788
981.630000	-41.360369
981.850000	-25.565510
982.070000	-15.907558
982.291000	-50.203005
982.511000	-50.175211
982.731000	-18.600567
982.951000	-39.149656
983.171000	-43.152065
983.391000	-29.778798
983.611000	-3.145246
983.832000	-37.358669
984.052000	-58.744171
984.272000	-38.455109
984.492000	-30.277386
984.712000	-35.057138
984.932000	-53.078948
985.152000	-68.792920
985.373000	-53.689991
985.593000	-15.077335
985.813000	-26.102190
986.033000	-55.089068
986.253000	-6.382011
986.473000	9.369143
986.693000	-30.914198
986.914000	-42.107685
987.134000	0.344184
987.354000	-36.415880
987.574000	190.611667
987.794000	115.592616
988.014000	-48.852801
988.234000	-29.695333
988.455000	-21.317304
988.675000	-15.196110
988.895000	-29.905490
989.115000	-43.322474
989.335000	-28.803604
989.555000	-16.719093
989.775000	-53.486318
989.995000	-29.563342
990.216000	-22.568419
990.436000	-20.368677
990.656000	13.447078
990.876000	-34.639187
991.096000	-36.561630
991.316000	2.441884
991.536000	-21.697116
991.757000	-42.721884
991.977000	-87.096035
992.197000	-34.351937
992.417000	-55.005177
992.637000	-97.589897
992.857000	-97.697891
993.077000	-90.792209
993.298000	-63.562013
993.518000	-43.561257
993.738000	-97.229063
993.958000	-49.191433
994.178000	-56.828984
994.398000	-42.560477
994.618000	-81.115466
994.839000	-133.863708
995.059000	-40.235539
995.279000	-0.344262
995.499000	-41.944479
995.719000	-23.713193
995.939000	-33.804861
996.159000	-43.250876
996.380000	-21.132184
996.600000	-50.689957
996.820000	-29.904812
997.040000	-1.275060
997.260000	-64.410441
997.480000	-56.314884
997.700000	-128.961278
997.921000	-84.228660
998.141000	25.366060
998.361000	9.838678
998.581000	-46.418970
998.801000	-95.009845
999.021000	-67.452382
999.241000	-34.178556
999.462000	-55.209026
999.682000	-109.140471
999.902000	-60.763174
1000.122000	-79.191764
1000.342000	-139.632398
1000.562000	-75.040139
1000.782000	-72.374164
1001.003000	-1114.424790
