Wavelength	Irradiance
(nm)	(mW/cm2/nm)

294.396000	0.000000
294.577000	0.000000
294.757000	-0.000000
294.938000	-0.000000
295.118000	0.000000
295.299000	0.000000
295.479000	-0.000000
295.660000	-0.000000
295.840000	-0.000000
296.021000	-0.000000
296.202000	-0.000000
296.382000	-0.000000
296.563000	-0.000000
296.743000	-0.000000
296.924000	0.000000
297.104000	-0.000000
297.285000	-0.000000
297.465000	-0.000000
297.646000	-0.000000
297.826000	-0.000000
298.007000	0.000000
298.187000	0.000000
298.368000	-0.000000
298.548000	0.000000
298.729000	0.000000
298.909000	-0.000000
299.090000	-0.000000
299.270000	-0.000000
299.451000	-0.000000
299.631000	-0.000000
299.812000	-0.000000
299.992000	0.000000
300.173000	0.000000
300.353000	-0.000000
300.534000	0.000000
300.714000	0.000000
300.895000	0.000000
301.075000	-0.000000
301.256000	0.000000
301.436000	0.000000
301.617000	0.000000
301.797000	-0.000000
301.978000	-0.000000
302.159000	0.000000
302.339000	0.000000
302.520000	-0.000000
302.700000	-0.000000
302.881000	0.000000
303.061000	0.000000
303.242000	0.000000
303.422000	0.000000
303.603000	-0.000000
303.783000	-0.000000
303.964000	-0.000000
304.144000	-0.000000
304.325000	-0.000000
304.505000	0.000000
304.686000	0.000000
304.866000	0.000000
305.047000	-0.000000
305.227000	-0.000000
305.408000	-0.000000
305.588000	-0.000000
305.769000	-0.000000
305.949000	-0.000000
306.130000	-0.000000
306.310000	-0.000000
306.491000	-0.000000
306.671000	0.000000
306.852000	-0.000000
307.032000	-0.000000
307.213000	-0.000000
307.393000	-0.000000
307.574000	0.000000
307.755000	0.000000
307.935000	-0.000000
308.116000	-0.000000
308.296000	-0.000000
308.477000	0.000000
308.657000	0.000000
308.838000	0.000000
309.018000	0.000000
309.199000	-0.000000
309.379000	-0.000000
309.560000	0.000000
309.740000	-0.000000
309.921000	0.000000
310.101000	0.000000
310.282000	-0.000000
310.462000	-0.000000
310.643000	-0.000000
310.823000	-0.000000
311.004000	-0.000000
311.184000	-0.000000
311.365000	0.000000
311.545000	0.000000
311.726000	0.000000
311.906000	0.000000
312.087000	0.000000
312.267000	-0.000000
312.448000	-0.000000
312.628000	-0.000000
312.809000	-0.000000
312.989000	-0.000000
313.170000	-0.000000
313.344000	-0.000000
313.518000	-0.000000
313.691000	-0.000000
313.865000	-0.000000
314.039000	-0.000000
314.213000	-0.000000
314.387000	-0.000000
314.560000	-0.000000
314.734000	-0.000000
314.908000	-0.000000
315.082000	-0.000000
315.255000	0.000000
315.429000	0.000000
315.603000	0.000000
315.777000	-0.000000
315.951000	0.000000
316.124000	-0.000000
316.298000	-0.000000
316.472000	-0.000000
316.646000	-0.000000
316.820000	-0.000000
316.993000	0.000000
317.167000	-0.000000
317.341000	-0.000000
317.515000	-0.000000
317.688000	-0.000000
317.862000	-0.000000
318.036000	-0.000000
318.210000	-0.000000
318.384000	-0.000000
318.557000	-0.000000
318.731000	-0.000000
318.905000	-0.000000
319.079000	-0.000000
319.253000	-0.000000
319.426000	0.000000
319.600000	0.000000
319.774000	-0.000000
319.948000	-0.000000
320.122000	0.000000
320.295000	0.000000
320.469000	-0.000000
320.643000	-0.000000
320.817000	-0.000000
320.990000	-0.000000
321.164000	-0.000000
321.338000	-0.000000
321.512000	-0.000000
321.686000	-0.000000
321.859000	-0.000000
322.033000	0.000000
322.207000	-0.000000
322.381000	-0.000000
322.555000	0.000000
322.728000	0.000000
322.902000	-0.000000
323.076000	-0.000000
323.250000	-0.000000
323.423000	-0.000000
323.597000	-0.000000
323.771000	-0.000000
323.945000	-0.000000
324.119000	-0.000000
324.292000	0.000000
324.466000	-0.000000
324.640000	0.000000
324.814000	0.000000
324.988000	-0.000000
325.161000	-0.000000
325.335000	-0.000000
325.509000	-0.000000
325.683000	-0.000000
325.856000	-0.000000
326.030000	-0.000000
326.204000	-0.000000
326.378000	-0.000000
326.552000	-0.000000
326.725000	-0.000000
326.899000	-0.000000
327.073000	-0.000000
327.247000	-0.000000
327.421000	0.000000
327.594000	0.000000
327.768000	-0.000000
327.942000	-0.000000
328.116000	0.000000
328.289000	0.000000
328.463000	0.000000
328.637000	0.000000
328.811000	-0.000000
328.985000	-0.000000
329.158000	-0.000000
329.332000	-0.000000
329.506000	0.000000
329.680000	-0.000000
329.854000	-0.000000
330.027000	0.000000
330.201000	0.000000
330.375000	0.000000
330.549000	0.000000
330.723000	-0.000000
330.896000	-0.000000
331.070000	-0.000000
331.244000	-0.000000
331.418000	-0.000000
331.591000	-0.000000
331.765000	-0.000000
331.939000	-0.000000
332.113000	-0.000000
332.287000	-0.000000
332.460000	0.000000
332.634000	0.000000
332.808000	-0.000000
332.982000	-0.000000
333.156000	-0.000000
333.329000	0.000000
333.503000	-0.000000
333.677000	-0.000000
333.851000	-0.000000
334.024000	-0.000000
334.198000	-0.000000
334.372000	-0.000000
334.546000	-0.000000
334.720000	-0.000000
334.893000	-0.000000
335.067000	-0.000000
335.241000	0.000000
335.415000	-0.000000
335.589000	-0.000000
335.762000	-0.000000
335.936000	-0.000000
336.110000	-0.000000
336.284000	-0.000000
336.458000	-0.000000
336.631000	-0.000000
336.805000	-0.000000
336.979000	-0.000000
337.153000	-0.000000
337.326000	-0.000000
337.500000	-0.000000
337.674000	0.000000
337.848000	0.000000
338.022000	-0.000000
338.195000	-0.000000
338.369000	-0.000000
338.543000	-0.000000
338.717000	-0.000000
338.891000	0.000000
339.064000	0.000000
339.238000	-0.000000
339.412000	-0.000000
339.586000	-0.000000
339.759000	-0.000000
339.933000	-0.000000
340.107000	0.000000
340.281000	-0.000000
340.455000	-0.000000
340.628000	-0.000000
340.802000	-0.000000
340.976000	-0.000000
341.150000	-0.000000
341.324000	-0.000000
341.497000	-0.000000
341.671000	-0.000000
341.845000	-0.000000
342.019000	-0.000000
342.192000	-0.000000
342.366000	-0.000000
342.540000	-0.000000
342.714000	-0.000000
342.888000	-0.000000
343.061000	-0.000000
343.235000	-0.000000
343.409000	-0.000000
343.583000	-0.000000
343.757000	-0.000000
343.930000	-0.000000
344.104000	-0.000000
344.278000	0.000000
344.452000	0.000000
344.626000	-0.000000
344.799000	-0.000000
344.973000	-0.000000
345.147000	-0.000000
345.321000	-0.000000
345.494000	-0.000000
345.668000	0.000000
345.842000	0.000000
346.016000	-0.000000
346.190000	0.000000
346.363000	0.000000
346.537000	-0.000000
346.711000	-0.000000
346.885000	-0.000000
347.059000	-0.000000
347.232000	-0.000000
347.406000	0.000000
347.580000	-0.000000
347.754000	-0.000000
347.927000	0.000000
348.101000	0.000000
348.275000	-0.000000
348.449000	-0.000000
348.623000	-0.000000
348.796000	0.000000
348.970000	0.000000
349.144000	-0.000000
349.318000	-0.000000
349.492000	-0.000000
349.665000	-0.000000
349.839000	-0.000000
350.013000	-0.000000
350.187000	-0.000000
350.361000	-0.000000
350.534000	-0.000000
350.708000	-0.000000
350.882000	-0.000000
351.056000	0.000000
351.229000	-0.000000
351.403000	-0.000000
351.577000	-0.000000
351.751000	-0.000000
351.925000	-0.000000
352.098000	-0.000000
352.272000	-0.000000
352.446000	-0.000000
352.620000	-0.000000
352.794000	-0.000000
352.967000	-0.000000
353.141000	0.000000
353.315000	0.000000
353.489000	-0.000000
353.662000	-0.000000
353.836000	-0.000000
354.010000	-0.000000
354.184000	0.000000
354.358000	-0.000000
354.531000	-0.000000
354.705000	-0.000000
354.879000	-0.000000
355.053000	-0.000000
355.227000	0.000000
355.400000	-0.000000
355.574000	0.000000
355.748000	0.000000
355.922000	-0.000000
356.095000	-0.000000
356.269000	0.000000
356.443000	-0.000000
356.617000	-0.000000
356.791000	-0.000000
356.964000	-0.000000
357.138000	-0.000000
357.312000	-0.000000
357.486000	-0.000000
357.660000	-0.000000
357.833000	-0.000000
358.007000	-0.000000
358.181000	-0.000000
358.355000	-0.000000
358.529000	-0.000000
358.702000	-0.000000
358.876000	-0.000000
359.050000	-0.000000
359.224000	-0.000000
359.397000	-0.000000
359.571000	-0.000000
359.745000	-0.000000
359.919000	0.000000
360.093000	-0.024255
360.266000	0.051373
360.440000	0.157672
360.614000	0.201724
360.788000	0.100676
360.962000	-0.136895
361.135000	-0.015478
361.309000	-0.215192
361.483000	-0.361861
361.657000	-0.238393
361.830000	-0.233595
362.004000	-0.071764
362.178000	-0.334192
362.352000	-0.210195
362.526000	-0.088615
362.699000	-0.097994
362.873000	-0.375440
363.047000	-0.389356
363.221000	-0.370580
363.395000	-0.197553
363.568000	-0.131553
363.742000	-0.177193
363.916000	-0.174764
364.090000	-0.321894
364.263000	-0.303226
364.437000	-0.370053
364.611000	0.016020
364.785000	0.023074
364.959000	-0.173031
365.132000	-0.214293
365.306000	-0.307477
365.480000	-0.157772
365.656000	-0.227556
365.831000	-0.180795
366.007000	-0.173296
366.183000	-0.204737
366.358000	-0.278196
366.534000	-0.159403
366.710000	-0.310031
366.886000	-0.261942
367.061000	-0.101225
367.237000	-0.004130
367.413000	-0.210956
367.588000	-0.342391
367.764000	-0.332612
367.940000	-0.289117
368.115000	-0.234662
368.291000	-0.283968
368.467000	-0.201453
368.643000	0.149488
368.818000	-0.141903
368.994000	-0.359879
369.170000	-0.232135
369.345000	-0.168358
369.521000	-0.221370
369.697000	-0.109646
369.872000	-0.273167
370.048000	-0.368036
370.224000	-0.251107
370.399000	-0.415928
370.575000	-0.330236
370.751000	-0.441436
370.927000	-0.474983
371.102000	-0.461106
371.278000	-0.331560
371.454000	-0.236787
371.629000	0.024557
371.805000	-0.080093
371.981000	-0.008031
372.156000	0.205905
372.332000	0.066710
372.508000	0.053436
372.683000	-0.004307
372.859000	-0.098317
373.035000	-0.183401
373.211000	0.266877
373.386000	0.039498
373.562000	-0.394252
373.738000	-0.484761
373.913000	-0.642382
374.089000	-0.451474
374.265000	-0.000730
374.440000	-0.067017
374.616000	0.002939
374.792000	-0.150844
374.968000	0.128152
375.143000	-0.079998
375.319000	-0.296505
375.495000	-0.414944
375.670000	-0.208980
375.846000	-0.112986
376.022000	-0.256877
376.197000	-0.193068
376.373000	-0.407548
376.549000	-0.395480
376.724000	-0.472867
376.900000	-0.302449
377.076000	-0.164557
377.252000	0.051676
377.427000	0.160928
377.603000	-0.210569
377.779000	-0.217763
377.954000	-0.386155
378.130000	-0.245406
378.306000	-0.191312
378.481000	-0.169435
378.657000	-0.221032
378.833000	-0.252084
379.009000	-0.089222
379.184000	0.009869
379.360000	-0.129964
379.536000	-0.141609
379.711000	-0.186937
379.887000	-0.226531
380.063000	-0.273002
380.238000	-0.383907
380.414000	-0.091585
380.590000	-0.293653
380.765000	-0.303300
380.941000	-0.073760
381.117000	-0.073290
381.293000	-0.121405
381.468000	-0.311044
381.644000	-0.201456
381.820000	-0.031873
381.995000	0.002799
382.171000	0.224253
382.347000	0.178343
382.522000	-0.231103
382.698000	0.047933
382.874000	0.082543
383.050000	-0.297452
383.225000	0.058558
383.401000	0.188141
383.577000	-0.120449
383.752000	-0.266645
383.928000	-0.210907
384.104000	-0.117281
384.279000	-0.173940
384.455000	-0.083139
384.631000	-0.148630
384.806000	-0.435712
384.982000	-0.179805
385.158000	-0.243895
385.334000	-0.089634
385.509000	-0.165586
385.685000	-0.492715
385.861000	-0.307803
386.036000	-0.441232
386.212000	-0.598756
386.388000	-0.345368
386.563000	-0.297025
386.739000	-0.355243
386.915000	-0.571328
387.090000	-0.218947
387.266000	-0.007595
387.442000	0.030352
387.618000	-0.058855
387.793000	-0.332008
387.969000	-0.525007
388.145000	-0.361842
388.320000	-0.325592
388.496000	-0.353395
388.672000	-0.579561
388.847000	-0.147110
389.023000	-0.086367
389.199000	-0.445113
389.375000	-0.262173
389.550000	-0.378144
389.726000	-0.220298
389.902000	-0.393671
390.077000	-0.187753
390.253000	-0.126425
390.429000	-0.175025
390.604000	-0.109313
390.780000	-0.108769
390.956000	-0.278871
391.131000	-0.358628
391.307000	-0.054234
391.483000	-0.117796
391.659000	-0.299485
391.834000	-0.087587
392.010000	-0.150900
392.186000	-0.291422
392.361000	-0.295400
392.537000	-0.465043
392.713000	-0.010536
392.888000	0.263144
393.064000	-0.063540
393.240000	-0.284546
393.416000	-0.368095
393.591000	-0.393884
393.767000	-0.424969
393.943000	-0.321436
394.118000	0.041665
394.294000	0.139226
394.470000	-0.046073
394.645000	0.096382
394.821000	0.282364
394.997000	-0.032974
395.172000	-0.148566
395.348000	-0.232632
395.524000	-0.463690
395.700000	-0.370443
395.875000	-0.134708
396.051000	-0.207854
396.227000	-0.302544
396.402000	-0.278320
396.578000	-0.152009
396.754000	-0.276103
396.929000	-0.265303
397.105000	-0.022925
397.281000	-0.248908
397.457000	-0.470342
397.632000	-0.320934
397.808000	-0.506273
397.984000	-0.628188
398.159000	-0.492766
398.335000	-0.285756
398.511000	0.198585
398.686000	-0.041697
398.862000	-0.298693
399.038000	-0.379290
399.213000	-0.221768
399.389000	-0.530861
399.565000	-0.241533
399.741000	-0.010001
399.916000	-0.044806
400.092000	0.206608
400.268000	-0.156328
400.443000	-0.265333
400.619000	0.027679
400.795000	-0.085868
400.970000	-0.243604
401.146000	-0.269576
401.322000	0.049746
401.497000	0.364324
401.673000	0.125862
401.849000	-0.177136
402.025000	-0.041429
402.200000	-0.204076
402.376000	-0.285331
402.552000	0.134459
402.727000	0.005628
402.903000	-0.400020
403.079000	-0.362821
403.254000	0.002500
403.430000	-0.013038
403.606000	-0.097011
403.782000	-0.127944
403.957000	-0.393020
404.133000	-0.528295
404.309000	-0.265940
404.484000	-0.072157
404.660000	-0.172163
404.841000	-0.328309
405.023000	-0.047177
405.204000	-0.100236
405.385000	-0.375887
405.566000	-0.383536
405.748000	-0.230257
405.929000	-0.048051
406.110000	-0.106867
406.292000	-0.220261
406.473000	-0.115364
406.654000	-0.325712
406.835000	-0.156381
407.017000	-0.158894
407.198000	-0.144846
407.379000	-0.181170
407.560000	-0.194017
407.742000	-0.241927
407.923000	-0.184163
408.104000	-0.338093
408.286000	-0.204547
408.467000	-0.090000
408.648000	-0.353072
408.829000	-0.484306
409.011000	-0.265899
409.192000	-0.434157
409.373000	-0.189263
409.555000	-0.093411
409.736000	-0.123507
409.917000	-0.210312
410.098000	-0.196666
410.280000	-0.097925
410.461000	-0.134180
410.642000	-0.073601
410.823000	0.133163
411.005000	-0.024962
411.186000	-0.235164
411.367000	-0.247562
411.549000	-0.226057
411.730000	-0.076752
411.911000	0.084528
412.092000	-0.103678
412.274000	-0.211210
412.455000	-0.112155
412.636000	-0.088116
412.818000	-0.292151
412.999000	-0.439443
413.180000	-0.361006
413.361000	-0.362350
413.543000	-0.312439
413.724000	-0.404353
413.905000	-0.434275
414.087000	-0.432186
414.268000	-0.454127
414.449000	-0.410429
414.630000	-0.462707
414.812000	-0.559954
414.993000	-0.218873
415.174000	-0.056662
415.355000	-0.223299
415.537000	-0.494286
415.718000	-0.216620
415.899000	-0.269084
416.081000	-0.385511
416.262000	-0.170660
416.443000	-0.275531
416.624000	-0.280730
416.806000	-0.184784
416.987000	-0.012339
417.168000	-0.108632
417.350000	-0.310056
417.531000	-0.401055
417.712000	-0.357497
417.893000	-0.096303
418.075000	-0.038146
418.256000	-0.290400
418.437000	-0.140256
418.618000	-0.046970
418.800000	0.008106
418.981000	-0.213731
419.162000	-0.172288
419.344000	0.045515
419.525000	-0.084571
419.706000	-0.191946
419.887000	-0.006366
420.069000	0.149734
420.250000	-0.041036
420.431000	-0.084179
420.613000	-0.154094
420.794000	-0.409759
420.975000	-0.072374
421.156000	-0.161717
421.338000	-0.230590
421.519000	-0.242041
421.700000	-0.265824
421.882000	-0.242716
422.063000	-0.086841
422.244000	0.377081
422.425000	0.154510
422.607000	-0.264661
422.788000	-0.295207
422.969000	-0.318983
423.150000	-0.322225
423.332000	-0.384295
423.513000	-0.190175
423.694000	-0.142081
423.876000	-0.115739
424.057000	-0.081202
424.238000	-0.009249
424.419000	0.051598
424.601000	-0.125210
424.782000	-0.116397
424.963000	0.071211
425.145000	-0.055282
425.326000	0.010894
425.507000	0.010878
425.688000	-0.124297
425.870000	-0.301003
426.051000	-0.407963
426.232000	-0.324737
426.413000	-0.329533
426.595000	-0.330678
426.776000	-0.333395
426.957000	-0.323307
427.139000	-0.212905
427.320000	-0.170616
427.501000	-0.064230
427.682000	-0.061037
427.864000	-0.049493
428.045000	0.100429
428.226000	-0.009268
428.408000	-0.333326
428.589000	-0.161921
428.770000	-0.184550
428.951000	-0.321985
429.133000	-0.469806
429.314000	-0.300574
429.495000	-0.268252
429.677000	-0.206331
429.858000	-0.155059
430.039000	-0.115142
430.220000	-0.020626
430.402000	-0.029129
430.583000	-0.295404
430.764000	-0.245760
430.945000	-0.120549
431.127000	-0.037438
431.308000	-0.189719
431.489000	-0.006245
431.671000	0.093496
431.852000	-0.031712
432.033000	-0.150648
432.214000	-0.020348
432.396000	-0.011839
432.577000	-0.266109
432.758000	-0.391441
432.940000	-0.325947
433.121000	-0.150365
433.302000	-0.149867
433.483000	-0.028677
433.665000	0.111957
433.846000	0.027562
434.027000	-0.151478
434.208000	-0.282464
434.390000	-0.339535
434.571000	0.024663
434.752000	0.475156
434.934000	0.301018
435.115000	0.143674
435.296000	0.235128
435.477000	0.038151
435.659000	-0.222123
435.840000	-0.154206
436.026000	-0.170164
436.211000	-0.276555
436.397000	-0.501467
436.582000	-0.381698
436.768000	-0.128397
436.953000	-0.190705
437.139000	-0.182157
437.325000	0.104712
437.510000	0.007555
437.696000	0.090964
437.881000	0.093507
438.067000	-0.265023
438.252000	-0.163624
438.438000	-0.184882
438.624000	-0.198250
438.809000	-0.109630
438.995000	-0.032425
439.180000	-0.101215
439.366000	-0.185809
439.551000	-0.190848
439.737000	-0.190461
439.923000	-0.140523
440.108000	-0.214201
440.294000	-0.095201
440.479000	0.044025
440.665000	0.054153
440.850000	0.015017
441.036000	0.020241
441.222000	-0.099547
441.407000	-0.268016
441.593000	-0.145326
441.778000	0.017543
441.964000	0.084983
442.149000	-0.237975
442.335000	-0.257323
442.521000	-0.139037
442.706000	0.022483
442.892000	-0.135626
443.077000	-0.200028
443.263000	-0.066738
443.448000	-0.139976
443.634000	-0.175602
443.820000	0.130611
444.005000	0.002016
444.191000	-0.245434
444.376000	-0.226688
444.562000	0.144372
444.747000	0.137594
444.933000	-0.028041
445.119000	-0.152857
445.304000	-0.229856
445.490000	-0.012969
445.675000	-0.037891
445.861000	-0.230454
446.046000	-0.237433
446.232000	-0.139972
446.418000	-0.022888
446.603000	-0.012935
446.789000	-0.052679
446.974000	-0.005483
447.160000	-0.189236
447.345000	-0.180832
447.531000	-0.202888
447.717000	-0.082447
447.902000	-0.027929
448.088000	0.103626
448.273000	-0.035022
448.459000	-0.111165
448.644000	-0.138293
448.830000	-0.168449
449.016000	-0.281830
449.201000	-0.244466
449.387000	-0.131399
449.572000	-0.047280
449.758000	-0.140764
449.943000	-0.214898
450.129000	-0.174767
450.315000	-0.206288
450.500000	-0.292292
450.686000	-0.226499
450.871000	-0.293109
451.057000	-0.110955
451.243000	-0.142702
451.428000	-0.155170
451.614000	-0.122960
451.799000	-0.162054
451.985000	-0.005383
452.170000	0.033735
452.356000	-0.142171
452.542000	-0.174135
452.727000	-0.032182
452.913000	-0.110381
453.098000	-0.012697
453.284000	0.150846
453.469000	0.011730
453.655000	0.172718
453.841000	0.072584
454.026000	-0.158112
454.212000	-0.102043
454.397000	-0.046490
454.583000	-0.222751
454.768000	-0.248258
454.954000	-0.014970
455.140000	0.013980
455.325000	-0.192873
455.511000	-0.329138
455.696000	-0.300167
455.882000	-0.106584
456.067000	0.132208
456.253000	-0.082515
456.439000	-0.220006
456.624000	-0.238518
456.810000	-0.254646
456.995000	-0.187761
457.181000	-0.239949
457.366000	-0.083864
457.552000	-0.097757
457.738000	0.025597
457.923000	0.020893
458.109000	0.166226
458.294000	0.120857
458.480000	0.044782
458.665000	-0.052723
458.851000	-0.171168
459.037000	-0.332522
459.222000	-0.167686
459.408000	-0.158270
459.593000	-0.120004
459.779000	0.018223
459.964000	0.125916
460.150000	0.238680
460.336000	0.182224
460.521000	-0.007443
460.707000	-0.139701
460.892000	-0.232073
461.078000	-0.037609
461.263000	0.066561
461.449000	-0.074684
461.635000	-0.072287
461.820000	-0.023585
462.006000	0.020261
462.191000	-0.018810
462.377000	-0.210881
462.562000	0.107383
462.748000	0.317671
462.934000	-0.121903
463.119000	-0.310650
463.305000	-0.079943
463.490000	-0.124758
463.676000	-0.077492
463.861000	-0.130174
464.047000	-0.186476
464.233000	-0.059046
464.418000	-0.058982
464.604000	-0.195877
464.789000	0.006294
464.975000	0.066776
465.160000	-0.081254
465.346000	-0.085694
465.532000	-0.180175
465.717000	-0.204555
465.903000	0.021946
466.088000	-0.036233
466.274000	-0.247441
466.459000	-0.232133
466.645000	0.142328
466.831000	0.121483
467.016000	0.108005
467.202000	0.012894
467.387000	-0.100203
467.573000	-0.256562
467.758000	0.047930
467.944000	-0.075158
468.130000	-0.219129
468.315000	-0.024754
468.501000	0.118482
468.686000	-0.009227
468.872000	-0.004835
469.057000	0.041305
469.243000	-0.037843
469.429000	-0.053204
469.614000	-0.164933
469.800000	-0.241705
469.985000	-0.066032
470.171000	0.014813
470.356000	-0.131623
470.542000	-0.057504
470.728000	-0.031059
470.913000	-0.033081
471.099000	0.077861
471.284000	-0.068339
471.470000	-0.112309
471.655000	-0.086000
471.841000	-0.136026
472.027000	-0.226659
472.212000	0.001742
472.398000	0.097853
472.583000	-0.037609
472.769000	-0.037679
472.954000	-0.026684
473.140000	-0.211689
473.326000	-0.225045
473.511000	0.119258
473.697000	0.136829
473.882000	-0.046381
474.068000	-0.099076
474.253000	-0.209962
474.439000	-0.153459
474.625000	-0.068079
474.810000	-0.044109
474.996000	-0.031007
475.181000	-0.207110
475.367000	-0.057057
475.552000	0.168206
475.738000	-0.150707
475.924000	-0.157594
476.109000	0.019200
476.295000	-0.144517
476.480000	-0.120627
476.666000	-0.102989
476.851000	-0.081126
477.037000	-0.057436
477.223000	-0.138003
477.408000	-0.181725
477.594000	-0.292843
477.779000	-0.203792
477.965000	-0.131680
478.151000	-0.271617
478.336000	-0.123019
478.522000	-0.155481
478.707000	-0.288658
478.893000	-0.206111
479.078000	-0.296550
479.264000	-0.276881
479.450000	-0.182613
479.635000	-0.044276
479.821000	-0.147553
480.006000	-0.125501
480.192000	-0.105654
480.377000	-0.061949
480.563000	-0.070666
480.749000	-0.268355
480.934000	-0.243937
481.120000	-0.111905
481.305000	-0.022263
481.491000	-0.074950
481.676000	-0.037779
481.862000	0.045792
482.048000	-0.116489
482.233000	-0.107602
482.419000	-0.116614
482.604000	-0.191337
482.790000	-0.204507
482.975000	-0.145396
483.161000	0.025839
483.347000	0.012680
483.532000	-0.024491
483.718000	-0.222023
483.903000	-0.198168
484.089000	-0.134131
484.274000	-0.232390
484.460000	-0.127611
484.646000	-0.153935
484.831000	-0.252793
485.017000	-0.160125
485.202000	-0.111788
485.388000	0.119569
485.573000	0.154175
485.759000	-0.048465
485.945000	0.034500
486.130000	-0.085531
486.316000	-0.109575
486.501000	-0.022205
486.687000	-0.185218
486.872000	-0.235431
487.058000	-0.104948
487.244000	-0.100655
487.429000	-0.265463
487.615000	-0.122109
487.800000	-0.013469
487.986000	-0.091326
488.171000	-0.028633
488.357000	-0.080419
488.543000	-0.045663
488.728000	0.040507
488.914000	-0.088828
489.099000	-0.211594
489.285000	-0.168379
489.470000	0.031788
489.656000	0.027512
489.842000	0.055242
490.027000	0.114846
490.213000	-0.088096
490.398000	-0.339112
490.584000	-0.058102
490.769000	-0.051693
490.955000	0.037957
491.141000	0.057022
491.326000	-0.030108
491.512000	0.128852
491.697000	0.012267
491.883000	-0.127371
492.068000	-0.190868
492.254000	-0.150932
492.440000	-0.061862
492.625000	-0.144057
492.811000	-0.139550
492.996000	-0.055154
493.182000	-0.057076
493.367000	-0.278198
493.553000	-0.356158
493.739000	-0.250534
493.924000	-0.103527
494.110000	-0.092711
494.295000	-0.224172
494.481000	-0.098824
494.666000	-0.044419
494.852000	0.095808
495.038000	-0.054695
495.223000	-0.180219
495.409000	-0.108878
495.594000	-0.207253
495.780000	-0.181708
495.965000	-0.202751
496.151000	-0.000417
496.337000	0.070353
496.522000	-0.170433
496.708000	-0.121110
496.893000	0.028715
497.079000	-0.112495
497.264000	-0.122638
497.450000	-0.066731
497.636000	0.020328
497.821000	-0.132823
498.007000	0.067862
498.192000	0.086804
498.378000	-0.046021
498.563000	-0.128982
498.749000	-0.106280
498.935000	-0.097829
499.120000	-0.027292
499.306000	-0.184695
499.491000	-0.178001
499.677000	-0.062343
499.862000	0.022379
500.048000	0.070162
500.234000	-0.043896
500.419000	-0.077166
500.605000	0.053566
500.790000	-0.017006
500.976000	-0.143744
501.161000	-0.239232
501.347000	-0.048177
501.533000	0.055688
501.718000	-0.095943
501.904000	-0.152367
502.089000	-0.027517
502.275000	0.047406
502.460000	-0.091630
502.646000	-0.037774
502.832000	0.005814
503.017000	-0.006659
503.203000	-0.194201
503.388000	-0.236441
503.574000	-0.037915
503.759000	0.001666
503.945000	0.001669
504.131000	-0.058831
504.316000	-0.079645
504.502000	-0.094275
504.687000	-0.161449
504.873000	-0.245239
505.058000	-0.282868
505.244000	-0.301625
505.430000	-0.205793
505.615000	-0.109532
505.801000	-0.073994
505.986000	-0.232627
506.172000	-0.134386
506.358000	-0.130496
506.543000	-0.132522
506.729000	0.108683
506.914000	0.056353
507.100000	0.134614
507.285000	-0.091303
507.471000	-0.249536
507.657000	-0.006755
507.842000	-0.076309
508.028000	-0.240893
508.213000	-0.186513
508.399000	-0.131805
508.584000	0.001697
508.770000	-0.061828
508.956000	-0.148759
509.141000	-0.080876
509.327000	-0.042855
509.512000	-0.089175
509.698000	-0.093543
509.883000	-0.044992
510.069000	-0.070649
510.255000	-0.055778
510.440000	-0.030268
510.626000	-0.155950
510.811000	-0.177510
510.997000	-0.062312
511.182000	0.174352
511.368000	0.065720
511.554000	-0.271574
511.739000	-0.222325
511.925000	-0.019642
512.110000	-0.036687
512.296000	0.123594
512.481000	0.127715
512.667000	-0.004704
512.853000	-0.182190
513.038000	-0.101073
513.224000	-0.122517
513.409000	-0.257430
513.595000	-0.103395
513.780000	-0.227697
513.966000	-0.188648
514.152000	-0.175837
514.337000	-0.274347
514.523000	-0.214447
514.708000	-0.116117
514.894000	-0.049840
515.079000	-0.167340
515.265000	-0.170063
515.451000	-0.137911
515.636000	-0.202207
515.822000	-0.092848
516.007000	-0.217538
516.193000	-0.069149
516.378000	0.038291
516.564000	-0.088498
516.750000	-0.075637
516.935000	0.010319
517.121000	0.029662
517.306000	0.109291
517.492000	0.025425
517.677000	-0.217803
517.863000	-0.228606
518.049000	-0.069335
518.234000	-0.125226
518.420000	-0.006894
518.605000	0.165395
518.791000	0.102890
518.976000	-0.058781
519.162000	-0.170841
519.348000	-0.069473
519.533000	-0.090916
519.719000	0.124651
519.904000	0.012522
520.090000	-0.041369
520.275000	0.152651
520.461000	0.109746
520.647000	-0.099790
520.832000	-0.279822
521.018000	-0.149485
521.203000	-0.105933
521.389000	-0.284435
521.574000	-0.183500
521.760000	-0.034937
521.946000	-0.056675
522.131000	-0.156315
522.317000	-0.134457
522.502000	-0.199222
522.688000	-0.056637
522.873000	-0.121603
523.059000	-0.141177
523.245000	-0.086963
523.430000	-0.188876
523.616000	-0.136854
523.801000	-0.271468
523.987000	-0.243717
524.172000	-0.041701
524.358000	0.019121
524.544000	-0.091545
524.729000	-0.015578
524.915000	0.064628
525.100000	-0.080645
525.286000	-0.035172
525.471000	-0.030916
525.657000	0.023538
525.843000	-0.201183
526.028000	-0.135818
526.214000	-0.161960
526.399000	-0.230289
526.585000	-0.278504
526.770000	-0.291607
526.956000	-0.182600
527.142000	-0.226453
527.327000	-0.088313
527.513000	-0.185203
527.698000	-0.211835
527.884000	-0.146305
528.069000	-0.209973
528.255000	-0.071113
528.441000	-0.135321
528.626000	-0.137955
528.812000	0.132525
528.997000	0.008438
529.183000	-0.200214
529.368000	-0.187764
529.554000	-0.156959
529.740000	-0.141706
529.925000	-0.132765
530.111000	-0.103726
530.296000	-0.052164
530.482000	0.055899
530.667000	-0.011725
530.853000	0.031217
531.039000	-0.043527
531.224000	-0.016410
531.410000	0.058786
531.595000	-0.046069
531.781000	0.020073
531.967000	-0.119734
532.152000	-0.055682
532.338000	-0.177984
532.523000	-0.254547
532.709000	-0.241578
532.894000	-0.144914
533.080000	-0.077433
533.266000	-0.252546
533.451000	-0.265199
533.637000	-0.190849
533.822000	-0.019350
534.008000	-0.191442
534.193000	-0.149557
534.379000	-0.019474
534.565000	-0.129239
534.750000	-0.160831
534.936000	0.059580
535.121000	-0.075149
535.307000	-0.029436
535.492000	-0.014983
535.678000	-0.243598
535.864000	-0.127532
536.049000	0.156772
536.235000	-0.054611
536.420000	-0.067217
536.606000	-0.161585
536.791000	-0.249800
536.977000	-0.240428
537.163000	0.007025
537.348000	0.004543
537.534000	0.004573
537.719000	-0.148229
537.905000	-0.289431
538.090000	-0.059553
538.276000	-0.003091
538.462000	-0.013439
538.647000	0.009860
538.833000	-0.115319
539.018000	0.067628
539.204000	0.009968
539.389000	-0.180117
539.575000	0.121060
539.761000	0.060566
539.946000	-0.227394
540.132000	-0.113068
540.317000	-0.202066
540.503000	-0.049010
540.688000	-0.008671
540.874000	0.225054
541.060000	0.320079
541.245000	0.155058
541.431000	-0.006029
541.616000	0.024180
541.802000	-0.011550
541.987000	0.093219
542.173000	0.065890
542.359000	-0.067077
542.544000	0.074175
542.730000	-0.033901
542.915000	-0.084121
543.101000	0.057971
543.286000	-0.134617
543.472000	-0.205715
543.658000	-0.096182
543.843000	-0.062588
544.029000	0.112568
544.214000	0.047577
544.400000	-0.320939
544.585000	-0.168210
544.771000	-0.057584
544.957000	0.142271
545.142000	0.219586
545.328000	0.263164
545.513000	0.257911
545.699000	0.218641
545.884000	0.080242
546.070000	0.013861
546.261000	-0.020868
546.451000	-0.122686
546.642000	-0.341319
546.833000	-0.248554
547.023000	-0.315580
547.214000	-0.214362
547.405000	-0.012297
547.595000	0.251538
547.786000	0.202476
547.977000	0.002361
548.167000	-0.171892
548.358000	-0.196383
548.549000	0.112546
548.740000	-0.048234
548.930000	-0.343118
549.121000	-0.218650
549.312000	-0.234478
549.502000	-0.316198
549.693000	-0.198816
549.884000	-0.123772
550.074000	-0.015677
550.265000	-0.239336
550.456000	-0.106630
550.646000	-0.018826
550.837000	-0.097807
551.028000	-0.192227
551.218000	-0.067505
551.409000	-0.156368
551.600000	-0.168728
551.790000	-0.043576
551.981000	-0.304402
552.172000	-0.240410
552.362000	0.156106
552.553000	0.135280
552.744000	-0.050002
552.934000	-0.133453
553.125000	-0.170827
553.316000	-0.208096
553.506000	0.157636
553.697000	-0.037998
553.888000	-0.062805
554.079000	0.210965
554.269000	0.208062
554.460000	-0.184856
554.651000	-0.241310
554.841000	-0.413692
555.032000	-0.273292
555.223000	-0.110474
555.413000	0.011873
555.604000	-0.044557
555.795000	-0.139056
555.985000	-0.051071
556.176000	-0.142235
556.367000	-0.381309
556.557000	-0.278413
556.748000	-0.174584
556.939000	-0.215368
557.129000	-0.360326
557.320000	-0.209006
557.511000	-0.240129
557.701000	-0.233456
557.892000	-0.066970
558.083000	0.179233
558.273000	-0.003787
558.464000	-0.249977
558.655000	-0.265530
558.845000	-0.208152
559.036000	-0.139076
559.227000	-0.098244
559.418000	0.062462
559.608000	0.131812
559.799000	-0.239989
559.990000	-0.266908
560.180000	-0.182563
560.371000	-0.365054
560.562000	-0.323718
560.752000	-0.119936
560.943000	-0.311599
561.134000	-0.508122
561.324000	-0.244680
561.515000	0.014991
561.706000	-0.144448
561.896000	-0.409317
562.087000	-0.293553
562.278000	-0.330820
562.468000	-0.415339
562.659000	-0.292928
562.850000	-0.028627
563.040000	0.095838
563.231000	-0.308916
563.422000	-0.245824
563.612000	-0.345527
563.803000	-0.211529
563.994000	-0.272249
564.185000	-0.388891
564.375000	-0.102426
564.566000	-0.154685
564.757000	-0.189105
564.947000	-0.315417
565.138000	-0.203619
565.329000	-0.243114
565.519000	-0.381050
565.710000	-0.273945
565.901000	-0.077446
566.091000	0.011670
566.282000	-0.083339
566.473000	-0.095299
566.663000	-0.153156
566.854000	-0.340954
567.045000	-0.224894
567.235000	-0.115760
567.426000	-0.052103
567.617000	-0.112283
567.807000	-0.208960
567.998000	-0.166345
568.189000	-0.277777
568.379000	-0.207954
568.570000	-0.135642
568.761000	-0.195249
568.951000	-0.227827
569.142000	-0.288011
569.333000	-0.255074
569.524000	-0.340614
569.714000	-0.415142
569.905000	-0.465043
570.096000	-0.042269
570.286000	0.046968
570.477000	0.183211
570.668000	-0.027249
570.858000	-0.122020
571.049000	-0.236691
571.240000	-0.351967
571.430000	-0.153932
571.621000	-0.191585
571.812000	-0.056188
572.002000	-0.050424
572.193000	-0.184978
572.384000	-0.120535
572.574000	-0.120632
572.765000	-0.196401
572.956000	-0.236575
573.146000	-0.067695
573.337000	-0.154921
573.528000	-0.105233
573.718000	0.008118
573.909000	0.005211
574.100000	-0.038081
574.290000	-0.207627
574.481000	-0.244463
574.672000	-0.216018
574.863000	-0.034906
575.053000	-0.220460
575.244000	-0.168656
575.435000	-0.245341
575.625000	-0.238591
575.816000	-0.215654
576.007000	-0.187355
576.197000	-0.162138
576.388000	-0.138919
576.579000	-0.034436
576.769000	-0.082325
576.960000	-0.316091
577.155000	-0.438832
577.350000	-0.168920
577.545000	-0.039771
577.740000	-0.218369
577.935000	0.158284
578.130000	0.032908
578.326000	-0.320296
578.521000	-0.064474
578.716000	-0.000553
578.911000	-0.279636
579.106000	-0.146450
579.301000	0.024151
579.496000	-0.137336
579.691000	-0.405097
579.886000	-0.300440
580.081000	-0.136651
580.276000	-0.098300
580.471000	-0.234032
580.666000	-0.352879
580.861000	-0.341917
581.057000	-0.334006
581.252000	-0.184939
581.447000	-0.265695
581.642000	-0.293243
581.837000	-0.241424
582.032000	-0.202954
582.227000	-0.022002
582.422000	0.047671
582.617000	-0.203151
582.812000	-0.343564
583.007000	-0.234411
583.202000	-0.353357
583.397000	-0.071905
583.592000	0.141974
583.788000	-0.189922
583.983000	-0.163462
584.178000	-0.018892
584.373000	-0.225496
584.568000	-0.245908
584.763000	-0.261825
584.958000	-0.381997
585.153000	-0.246147
585.348000	-0.209450
585.543000	-0.126008
585.738000	-0.157308
585.933000	-0.322014
586.128000	-0.133777
586.324000	-0.139366
586.519000	-0.139265
586.714000	-0.050301
586.909000	-0.021521
587.104000	0.007373
587.299000	-0.079296
587.494000	-0.087055
587.689000	-0.160791
587.884000	-0.145464
588.079000	-0.195546
588.274000	-0.148382
588.469000	-0.150720
588.664000	-0.053296
588.859000	-0.074511
589.055000	-0.130148
589.250000	-0.169908
589.445000	-0.276103
589.640000	-0.217984
589.835000	0.026051
590.030000	0.057932
590.225000	0.071232
590.420000	-0.109658
590.615000	-0.242956
590.810000	-0.186803
591.005000	-0.163521
591.200000	-0.299912
591.395000	-0.310557
591.591000	-0.192630
591.786000	-0.112496
591.981000	-0.225122
592.176000	-0.145208
592.371000	-0.110422
592.566000	-0.163906
592.761000	-0.008569
592.956000	-0.040772
593.151000	0.042402
593.346000	-0.073199
593.541000	-0.032798
593.736000	-0.040989
593.931000	-0.189385
594.126000	-0.178858
594.322000	-0.124818
594.517000	-0.224734
594.712000	-0.378865
594.907000	-0.380228
595.102000	-0.223223
595.297000	-0.071103
595.492000	-0.035899
595.687000	-0.232176
595.882000	-0.226840
596.077000	-0.169914
596.272000	-0.006009
596.467000	0.040435
596.662000	-0.172836
596.857000	-0.173526
597.053000	-0.132563
597.248000	-0.069277
597.443000	-0.072122
597.638000	-0.075055
597.833000	-0.298849
598.028000	-0.152269
598.223000	0.049197
598.418000	-0.055930
598.613000	-0.224799
598.808000	-0.086443
599.003000	-0.144781
599.198000	-0.344914
599.393000	-0.236537
599.589000	-0.128612
599.784000	-0.301417
599.979000	-0.195848
600.174000	0.027359
600.369000	-0.210162
600.564000	-0.199241
600.759000	0.049868
600.954000	0.217598
601.149000	0.100435
601.344000	-0.272967
601.539000	-0.124272
601.734000	-0.163421
601.929000	-0.394661
602.124000	-0.355548
602.320000	-0.136031
602.515000	0.095406
602.710000	0.041862
602.905000	-0.306001
603.100000	-0.342215
603.295000	-0.252324
603.490000	-0.116878
603.685000	-0.080013
603.880000	-0.074429
604.075000	-0.259736
604.270000	-0.234600
604.465000	-0.168829
604.660000	-0.397297
604.856000	-0.220178
605.051000	-0.052007
605.246000	-0.100502
605.441000	-0.366302
605.636000	-0.392130
605.831000	-0.218186
606.026000	-0.292512
606.221000	-0.376028
606.416000	-0.244501
606.611000	-0.014938
606.806000	0.005166
607.001000	0.137362
607.196000	-0.112753
607.391000	-0.294373
607.587000	-0.101594
607.782000	-0.139299
607.977000	-0.303312
608.172000	0.065942
608.367000	0.129568
608.562000	-0.084619
608.757000	-0.180193
608.952000	-0.244495
609.147000	0.179228
609.342000	0.069130
609.537000	-0.119890
609.732000	-0.099678
609.927000	-0.169292
610.122000	-0.128789
610.318000	0.089832
610.513000	0.183259
610.708000	-0.041483
610.903000	0.016963
611.098000	0.087339
611.293000	0.019935
611.488000	0.017006
611.683000	0.025847
611.878000	-0.056411
612.073000	0.028801
612.268000	0.031775
612.463000	0.105563
612.658000	0.093770
612.854000	0.043733
613.049000	-0.041979
613.244000	0.135474
613.439000	0.176954
613.634000	-0.220112
613.829000	-0.083678
614.024000	-0.202851
614.219000	-0.184978
614.414000	0.130344
614.609000	-0.087025
614.804000	-0.256970
614.999000	-0.212060
615.194000	-0.155875
615.389000	-0.168017
615.585000	-0.342042
615.780000	-0.177459
615.975000	-0.153784
616.170000	-0.138867
616.365000	0.068601
616.560000	0.177089
616.755000	0.068876
616.950000	-0.021760
617.145000	0.020570
617.340000	-0.118692
617.535000	-0.348803
617.730000	-0.082469
617.925000	-0.255703
618.120000	-0.334767
618.316000	0.066369
618.511000	-0.049366
618.706000	-0.251369
618.901000	-0.168716
619.096000	0.017795
619.291000	-0.104837
619.486000	-0.108244
619.681000	-0.357609
619.876000	-0.422055
620.071000	-0.308506
620.266000	-0.031481
620.461000	0.064312
620.656000	0.048943
620.852000	-0.022275
621.047000	-0.196005
621.242000	-0.345324
621.437000	0.014942
621.632000	0.158471
621.827000	-0.078682
622.022000	-0.303722
622.217000	-0.160417
622.412000	-0.063358
622.607000	-0.072838
622.802000	-0.270773
622.997000	-0.265412
623.192000	-0.161377
623.387000	-0.148801
623.583000	-0.395482
623.778000	0.081723
623.973000	0.008875
624.168000	-0.038761
624.363000	-0.003807
624.558000	0.053385
624.753000	-0.281170
624.948000	-0.083679
625.143000	-0.054974
625.338000	-0.096687
625.533000	-0.228021
625.728000	-0.096821
625.923000	0.095600
626.119000	-0.036014
626.314000	-0.258132
626.509000	-0.226640
626.704000	-0.178683
626.899000	-0.175597
627.094000	-0.276415
627.289000	-0.244533
627.484000	-0.225552
627.679000	-0.238803
627.874000	-0.242378
628.069000	0.077857
628.264000	-0.007190
628.459000	-0.105488
628.654000	-0.131816
628.850000	-0.293513
629.045000	-0.244427
629.240000	-0.294133
629.435000	-0.307723
629.630000	-0.159445
629.825000	-0.212366
630.020000	-0.113575
630.215000	-0.315979
630.410000	-0.297237
630.605000	-0.270801
630.800000	-0.100701
630.995000	0.012699
631.190000	0.260563
631.385000	-0.007373
631.581000	-0.128233
631.776000	-0.014108
631.971000	-0.270265
632.166000	-0.179416
632.361000	-0.314611
632.556000	-0.186596
632.751000	-0.048157
632.946000	-0.234754
633.141000	-0.289912
633.336000	-0.263102
633.531000	-0.181868
633.726000	-0.198715
633.921000	-0.319082
634.117000	-0.474194
634.312000	-0.570841
634.507000	-0.454554
634.702000	-0.341698
634.897000	-0.286994
635.092000	-0.121741
635.287000	-0.045745
635.482000	-0.202224
635.677000	-0.118871
635.872000	-0.031980
636.067000	0.065502
636.262000	-0.140609
636.457000	-0.432659
636.652000	-0.422839
636.848000	-0.385303
637.043000	-0.299128
637.238000	-0.310472
637.433000	-0.434003
637.628000	-0.338876
637.823000	-0.110067
638.018000	-0.050191
638.213000	-0.188460
638.408000	-0.280826
638.603000	-0.380654
638.798000	-0.398987
638.993000	-0.267927
639.188000	-0.268020
639.383000	-0.328888
639.579000	0.045611
639.774000	-0.132927
639.969000	-0.368920
640.164000	-0.398427
640.359000	-0.362988
640.554000	-0.133603
640.749000	-0.123167
640.944000	-0.058469
641.139000	-0.065553
641.334000	-0.253303
641.529000	-0.665973
641.724000	-0.518375
641.919000	-0.298187
642.115000	-0.018909
642.310000	0.002905
642.505000	-0.164068
642.700000	-0.233457
642.895000	-0.358182
643.090000	-0.193984
643.285000	-0.018963
643.480000	0.006579
643.675000	-0.004390
643.870000	0.270498
644.065000	0.157180
644.260000	-0.217350
644.455000	-0.147868
644.650000	-0.292044
644.846000	-0.155613
645.041000	-0.365647
645.236000	-0.532808
645.431000	-0.478070
645.626000	-0.618307
645.821000	-0.374092
646.016000	-0.304746
646.211000	0.125546
646.406000	-0.015630
646.601000	-0.026767
646.796000	-0.153137
646.991000	-0.439408
647.186000	-0.343512
647.381000	-0.153599
647.577000	-0.108966
647.772000	0.017913
647.967000	-0.056836
648.162000	-0.172890
648.357000	-0.210595
648.552000	-0.060681
648.747000	-0.060716
648.942000	0.078007
649.137000	0.036865
649.332000	-0.245589
649.527000	-0.181478
649.722000	0.029358
649.917000	0.074743
650.113000	-0.245825
650.308000	-0.370771
650.503000	-0.257363
650.698000	-0.159708
650.893000	-0.224205
651.088000	-0.012127
651.283000	0.101786
651.478000	-0.350178
651.673000	-0.095613
651.868000	-0.255480
652.063000	-0.080758
652.258000	0.086919
652.453000	0.269191
652.648000	-0.076909
652.844000	-0.126496
653.039000	-0.115260
653.234000	-0.516161
653.429000	-0.643294
653.624000	-0.421156
653.819000	-0.138651
654.014000	-0.199972
654.209000	-0.327249
654.404000	-0.104365
654.599000	-0.258501
654.794000	-0.250375
654.989000	0.010784
655.184000	-0.124163
655.380000	-0.451556
655.575000	-0.443901
655.770000	-0.386742
655.965000	-0.139756
656.160000	-0.271162
656.355000	-0.190007
656.550000	-0.128610
656.745000	-0.109315
656.940000	-0.225792
657.135000	-0.136528
657.330000	-0.121063
657.525000	-0.280352
657.720000	-0.082464
657.915000	-0.074615
658.111000	-0.171835
658.306000	0.174306
658.501000	-0.047576
658.696000	-0.355512
658.891000	-0.059279
659.086000	-0.180105
659.281000	-0.168685
659.476000	-0.383990
659.671000	-0.728028
659.866000	-0.438886
660.061000	-0.082983
660.256000	0.034461
660.451000	-0.087014
660.646000	-0.287289
660.842000	-0.209036
661.037000	-0.319175
661.232000	-0.394423
661.427000	-0.280046
661.622000	-0.304205
661.817000	-0.453821
662.012000	-0.166660
662.207000	-0.305095
662.402000	-0.428684
662.597000	-0.167309
662.792000	-0.499882
662.987000	-0.527177
663.182000	-0.274458
663.378000	-0.242923
663.573000	-0.506138
663.768000	-0.501117
663.963000	-0.267131
664.158000	-0.310574
664.353000	0.158714
664.548000	0.377909
664.743000	0.023147
664.938000	-0.367923
665.133000	-0.308548
665.328000	0.095263
665.523000	-0.024865
665.718000	-0.265527
665.913000	-0.269942
666.109000	-0.242364
666.304000	-0.089348
666.499000	-0.258221
666.694000	-0.000807
666.889000	0.329910
667.084000	-0.085790
667.279000	-0.166623
667.474000	-0.166717
667.669000	-0.166677
667.864000	-0.239780
668.059000	-0.118450
668.254000	-0.082046
668.449000	-0.322047
668.644000	-0.236872
668.840000	-0.029265
669.035000	-0.281674
669.230000	-0.560361
669.425000	-0.156124
669.620000	-0.323669
669.815000	-0.312536
670.010000	-0.353224
670.205000	-0.283799
670.400000	-0.115446
670.595000	-0.119904
670.790000	-0.259866
670.985000	-0.210745
671.180000	-0.107962
671.376000	-0.483375
671.571000	-0.550582
671.766000	-0.406850
671.961000	-0.456741
672.156000	-0.523706
672.351000	-0.349495
672.546000	-0.312796
672.741000	-0.146095
672.936000	-0.063169
673.131000	0.407547
673.326000	-0.005015
673.521000	-0.469262
673.716000	-0.540350
673.911000	-0.641181
674.107000	-0.059542
674.302000	0.175394
674.497000	-0.114262
674.692000	-0.400203
674.887000	-0.502804
675.082000	-0.410624
675.277000	-0.013537
675.472000	-0.077095
675.667000	-0.251156
675.862000	-0.314954
676.057000	-0.242957
676.252000	-0.162598
676.447000	-0.286737
676.643000	-0.154336
676.838000	0.029046
677.033000	-0.180512
677.228000	0.114925
677.423000	0.033469
677.618000	-0.388082
677.813000	-0.529752
678.008000	-0.281257
678.203000	-0.182234
678.398000	-0.420506
678.593000	-0.152334
678.788000	-0.070336
678.983000	-0.408490
679.178000	-0.217797
679.374000	-0.296322
679.569000	-0.262127
679.764000	-0.411387
679.959000	-0.438639
680.154000	-0.377429
680.349000	-0.598421
680.544000	-0.628334
680.739000	-0.426720
680.934000	-0.510647
681.129000	-0.564958
681.324000	-0.583304
681.519000	-0.297441
681.714000	-0.315256
681.909000	-0.451966
682.105000	-0.652806
682.300000	-0.210136
682.495000	0.025809
682.690000	0.043707
682.885000	-0.166040
683.080000	-0.403720
683.275000	-0.359142
683.470000	0.008070
683.665000	0.232757
683.860000	0.462716
684.055000	0.102684
684.250000	-0.316469
684.445000	-0.374477
684.641000	0.039727
684.836000	-0.204393
685.031000	-0.277744
685.226000	-0.291753
685.421000	0.053775
685.616000	-0.169529
685.811000	-0.380071
686.006000	-0.023752
686.201000	-0.078670
686.396000	-0.492194
686.591000	-0.465579
686.786000	0.022118
686.981000	-0.065438
687.176000	-0.070217
687.372000	-0.158166
687.567000	0.068477
687.762000	-0.051963
687.957000	-0.079797
688.152000	-0.228744
688.347000	-0.182580
688.542000	-0.491202
688.737000	-0.887694
688.932000	-0.865827
689.127000	-0.478460
689.322000	-0.094838
689.517000	-0.329515
689.712000	-0.523814
689.908000	-0.340446
690.103000	-0.411974
690.298000	-0.298636
690.493000	-0.266255
690.688000	-0.536962
690.883000	-0.410295
691.078000	0.084753
691.273000	0.146667
691.468000	-0.201344
691.663000	-0.264372
691.858000	-0.082391
692.053000	-0.120707
692.248000	-0.053702
692.443000	0.027809
692.639000	-0.116272
692.834000	0.023119
693.029000	0.514601
693.224000	0.420219
693.419000	-0.315941
693.614000	-0.462186
693.809000	-0.486817
694.004000	-0.429324
694.199000	-0.434078
694.394000	-0.206057
694.589000	-0.509333
694.784000	-0.485386
694.979000	-0.196705
695.174000	-0.368898
695.370000	0.185117
695.565000	-0.079529
695.760000	-0.345413
695.955000	0.077931
696.150000	0.102625
696.345000	-0.446761
696.540000	-0.229230
696.740000	-0.258819
696.940000	-0.120080
697.140000	-0.010973
697.340000	-0.275790
697.539000	-0.080981
697.739000	-0.156026
697.939000	-0.176152
698.139000	-0.396754
698.339000	-0.725083
698.539000	-0.578930
698.739000	-0.575447
698.939000	-0.410950
699.138000	-0.477531
699.338000	0.120238
699.538000	0.282978
699.738000	-0.214636
699.938000	-0.403163
700.138000	-0.414044
700.338000	-0.594221
700.538000	-0.339374
700.737000	-0.231642
700.937000	-0.695931
701.137000	-0.681647
701.337000	-0.052469
701.537000	-0.047429
701.737000	-0.294516
701.937000	-0.351949
702.137000	-0.429379
702.337000	-0.445607
702.536000	-0.596737
702.736000	-0.592269
702.936000	-0.697021
703.136000	-0.126064
703.336000	-0.141659
703.536000	-0.309174
703.736000	-0.655634
703.936000	-0.633373
704.135000	-0.570377
704.335000	-0.168659
704.535000	-0.410719
704.735000	-0.626698
704.935000	-0.147948
705.135000	-0.101221
705.335000	-0.466538
705.535000	-0.260417
705.735000	-0.276248
705.934000	-0.186187
706.134000	-0.429644
706.334000	-0.441270
706.534000	-0.473773
706.734000	-0.468834
706.934000	-0.580428
707.134000	-0.532729
707.334000	-0.352712
707.533000	-0.251945
707.733000	-0.358441
707.933000	-0.551014
708.133000	-0.203713
708.333000	-0.161889
708.533000	-0.473676
708.733000	-0.140685
708.933000	-0.307416
709.132000	-0.356477
709.332000	-0.319322
709.532000	-0.520045
709.732000	-0.335755
709.932000	-0.726144
710.132000	-0.736504
710.332000	-0.882102
710.532000	-0.249944
710.732000	-0.001085
710.931000	-0.310532
711.131000	-0.415299
711.331000	-0.284715
711.531000	-0.421787
711.731000	-0.477622
711.931000	-0.302850
712.131000	-0.324406
712.331000	-0.231323
712.530000	-0.329590
712.730000	-0.451223
712.930000	-0.269985
713.130000	-0.348025
713.330000	-0.552456
713.530000	-0.299933
713.730000	0.336611
713.930000	0.048704
714.129000	-0.432354
714.329000	-0.711070
714.529000	-0.394615
714.729000	0.076642
714.929000	-0.101082
715.129000	-0.490669
715.329000	-0.463282
715.529000	-0.353358
715.729000	0.289075
715.928000	-0.006714
716.128000	-0.292220
716.328000	-0.141490
716.528000	-0.248453
716.728000	-0.197911
716.928000	-0.445343
717.128000	-0.209644
717.328000	-0.153263
717.527000	-0.384750
717.727000	-0.413361
717.927000	-0.307052
718.127000	-0.392254
718.327000	-0.784793
718.527000	-0.790076
718.727000	-0.387450
718.927000	-0.445066
719.127000	-0.726854
719.326000	-0.530409
719.526000	-0.063857
719.726000	-0.115413
719.926000	-0.672124
720.126000	-0.586197
720.326000	-0.299363
720.526000	-0.471498
720.726000	-0.444156
720.925000	-0.294758
721.125000	-0.625214
721.325000	-0.393603
721.525000	-0.435054
721.725000	-0.533463
721.925000	-0.447932
722.125000	-0.465377
722.325000	-0.047577
722.524000	-0.257231
722.724000	-0.700398
722.924000	-0.752794
723.124000	-0.572881
723.324000	-0.205562
723.524000	-0.141452
723.724000	-0.843627
723.924000	-0.635283
724.124000	-0.253731
724.323000	-0.089392
724.523000	-0.283218
724.723000	0.134259
724.923000	0.022383
725.123000	0.045993
725.323000	0.010633
725.523000	-0.356281
725.723000	-0.503709
725.922000	-0.332633
726.122000	-0.309306
726.322000	-0.553737
726.522000	-0.494807
726.722000	0.278008
726.922000	-0.149595
727.122000	-0.293082
727.322000	0.130027
727.521000	-0.132738
727.721000	-0.408382
727.921000	-0.384448
728.121000	-0.330471
728.321000	-0.684951
728.521000	-0.482256
728.721000	-0.392725
728.921000	-0.085502
729.121000	0.704444
729.320000	0.185967
729.520000	-0.309167
729.720000	-0.763306
729.920000	-0.560317
730.120000	-0.383103
730.320000	-0.371889
730.520000	-0.566573
730.720000	-0.543965
730.919000	-0.452407
731.119000	-0.160037
731.319000	-0.686469
731.519000	-0.716962
731.719000	-0.337938
731.919000	-0.521879
732.119000	-1.038126
732.319000	-1.084468
732.519000	-0.389188
732.718000	-0.580848
732.918000	-0.538148
733.118000	-0.261084
733.318000	-0.112924
733.518000	-0.516265
733.718000	-0.976801
733.918000	-0.940067
734.118000	-0.660055
734.317000	-0.319515
734.517000	-0.562115
734.717000	-0.502204
734.917000	0.005021
735.117000	-0.101781
735.317000	-0.208534
735.517000	0.282161
735.717000	0.586206
735.916000	-0.449829
736.116000	-0.777679
736.316000	-0.426806
736.516000	-0.286988
736.716000	-0.382421
736.916000	-0.907011
737.116000	-0.597364
737.316000	0.139704
737.516000	-0.059074
737.715000	-0.213317
737.915000	-0.701951
738.115000	-0.729974
738.315000	-0.382035
738.515000	-0.672304
738.715000	-0.371225
738.915000	0.141670
739.115000	-0.378847
739.314000	-0.463051
739.514000	-0.033940
739.714000	0.162275
739.914000	-0.060375
740.114000	-0.323479
740.314000	0.038162
740.514000	0.361118
740.714000	-0.583184
740.913000	-1.047554
741.113000	-0.764015
741.313000	-0.279874
741.513000	-0.360471
741.713000	-0.308090
741.913000	-0.302846
742.113000	-0.456254
742.313000	-0.926523
742.513000	-0.477786
742.712000	-0.358153
742.912000	-0.802691
743.112000	-0.595945
743.312000	-0.887958
743.512000	-0.449051
743.712000	-0.287172
743.912000	-1.030580
744.112000	-1.147186
744.311000	-1.095576
744.511000	-0.672785
744.711000	-0.214289
744.911000	-0.668550
745.111000	-0.641833
745.311000	-0.166977
745.511000	-0.602500
745.711000	-0.769050
745.911000	-0.458428
746.110000	-0.791201
746.310000	-0.865561
746.510000	-0.682887
746.710000	-0.217961
746.910000	-0.071320
747.110000	-0.708746
747.310000	-0.948517
747.510000	-0.628180
747.709000	-0.269237
747.909000	-0.305258
748.109000	-0.100679
748.309000	-0.377961
748.509000	-0.805494
748.709000	-0.922752
748.909000	-0.608314
749.109000	-0.603799
749.308000	0.005743
749.508000	-0.253603
749.708000	-0.376208
749.908000	0.034602
750.108000	0.121465
750.308000	-0.741493
750.508000	-0.176028
750.708000	-0.634493
750.908000	-1.015050
751.107000	-0.272100
751.307000	0.341914
751.507000	-0.265592
751.707000	-0.243272
751.907000	-0.295288
752.107000	-0.369991
752.307000	-0.888895
752.507000	-0.572399
752.706000	-0.653515
752.906000	0.362350
753.106000	-0.463450
753.306000	-0.980566
753.506000	0.080937
753.706000	-0.452051
753.906000	-0.279384
754.106000	0.006016
754.305000	-0.159637
754.505000	-0.107206
754.705000	-0.297567
754.905000	-0.548881
755.105000	-0.283222
755.305000	-0.878298
755.505000	-0.750845
755.705000	-0.254167
755.905000	-0.500648
756.104000	-1.261924
756.304000	-1.419432
756.504000	-1.368306
756.704000	-0.389649
756.904000	-0.164459
757.104000	-0.357891
757.304000	-0.435773
757.504000	-0.001560
757.703000	-0.422757
757.903000	0.037530
758.103000	0.350997
758.303000	-0.142993
758.503000	-0.560879
758.703000	-0.506917
758.903000	-0.657233
759.103000	-0.358042
759.303000	-0.304045
759.502000	-0.392834
759.702000	-0.001596
759.902000	-0.346556
760.102000	-0.484089
760.302000	-0.324351
760.502000	0.094923
760.702000	-0.017723
760.902000	-0.389117
761.101000	-0.827430
761.301000	-1.080302
761.501000	-0.756130
761.701000	-0.798296
761.901000	-0.524618
762.101000	-0.091718
762.301000	-0.345585
762.501000	-0.772058
762.700000	-0.899119
762.900000	-0.990043
763.100000	-0.512902
763.300000	-0.208649
763.500000	-0.440916
763.703000	-0.530305
763.905000	-0.648404
764.108000	0.014978
764.311000	-0.234687
764.513000	-0.301628
764.716000	-0.461804
764.919000	-0.521063
765.121000	-0.789440
765.324000	-1.010360
765.527000	-0.863642
765.729000	-0.804463
765.932000	-0.069405
766.135000	-0.221693
766.337000	-0.568911
766.540000	-0.715173
766.743000	-0.215633
766.945000	-0.821542
767.148000	-1.311281
767.351000	-1.045797
767.553000	-0.018898
767.756000	-0.491877
767.958000	-0.904547
768.161000	-0.612735
768.364000	-0.796379
768.566000	-1.161692
768.769000	-0.583653
768.972000	-0.270944
769.174000	-0.776981
769.377000	-1.268393
769.580000	-1.209817
769.782000	-0.404088
769.985000	-0.809002
770.188000	-1.848770
770.390000	-1.053585
770.593000	0.466107
770.796000	0.130748
770.998000	-0.505620
771.201000	-0.904349
771.404000	-0.311918
771.606000	-0.722394
771.809000	-0.473138
772.012000	-0.491871
772.214000	-1.517797
772.417000	-1.517960
772.620000	-0.330750
772.822000	-0.611073
773.025000	-1.077189
773.228000	-0.998396
773.430000	-0.703279
773.633000	-0.569457
773.836000	-0.759711
774.038000	-0.499935
774.241000	-0.526963
774.444000	-0.755636
774.646000	0.252281
774.849000	-0.192821
775.052000	-0.492883
775.254000	-0.284289
775.457000	-0.739207
775.659000	-0.713602
775.862000	-0.878066
776.065000	-0.742374
776.267000	-0.184996
776.470000	0.412123
776.673000	-0.103102
776.875000	0.312059
777.078000	0.164078
777.281000	-0.834609
777.483000	-0.001856
777.686000	0.035339
777.889000	-0.150817
778.091000	0.026157
778.294000	-1.046655
778.497000	-1.001298
778.699000	-0.759052
778.902000	-0.733505
779.105000	-0.536564
779.307000	0.317514
779.510000	-0.632681
779.713000	-0.172018
779.915000	-0.352758
780.118000	0.320830
780.321000	0.387750
780.523000	-0.640131
780.726000	-0.859581
780.929000	-0.906903
781.131000	-1.041881
781.334000	-1.639491
781.537000	-1.596062
781.739000	-0.367180
781.942000	-0.915805
782.145000	-1.336332
782.347000	-1.346851
782.550000	-1.018532
782.753000	-1.002452
782.955000	-0.761675
783.158000	-0.702820
783.361000	-0.665521
783.563000	-0.626591
783.766000	-0.432509
783.968000	1.566090
784.171000	1.218845
784.374000	-0.277662
784.576000	-0.641779
784.779000	-0.326281
784.982000	0.175942
785.184000	-0.687710
785.387000	-0.230914
785.590000	0.376029
785.792000	0.367469
785.995000	0.158014
786.198000	-0.012021
786.400000	-0.424508
786.603000	-0.425586
786.806000	-0.725887
787.008000	-0.142750
787.211000	-0.163444
787.414000	-1.054882
787.616000	-0.591422
787.819000	-0.653931
788.022000	-1.348386
788.224000	-0.697343
788.427000	-1.280890
788.630000	-0.792586
788.832000	-0.504572
789.035000	-1.179556
789.238000	-1.565439
789.440000	-1.129719
789.643000	0.121823
789.846000	-0.602567
790.048000	-0.448350
790.251000	-0.282362
790.454000	-0.634043
790.656000	0.424255
790.859000	-0.346027
791.062000	-0.973087
791.264000	-0.315054
791.467000	-1.144020
791.669000	-1.628308
791.872000	-0.318432
792.075000	-0.834128
792.277000	-0.728927
792.480000	-0.404571
792.683000	-1.068869
792.885000	-1.323636
793.088000	-1.190547
793.291000	-1.299900
793.493000	-1.238329
793.696000	-0.247336
793.899000	0.029933
794.101000	-0.334315
794.304000	-0.603558
794.507000	-0.529165
794.709000	-0.325714
794.912000	-0.890113
795.115000	-1.401751
795.317000	-0.793962
795.520000	-0.459723
795.723000	-0.844400
795.925000	-1.305695
796.128000	-1.489994
796.331000	-1.000985
796.533000	-1.289414
796.736000	-0.599295
796.939000	-0.534228
797.141000	-0.591201
797.344000	-0.013348
797.547000	0.131313
797.749000	-0.180536
797.952000	-0.842299
798.155000	-1.466333
798.357000	-1.475163
798.560000	-1.065128
798.763000	-0.465373
798.965000	-0.543925
799.168000	-0.636054
799.371000	-0.500825
799.573000	-0.820819
799.776000	-1.573506
799.978000	-1.327614
800.181000	-0.505963
800.384000	1.041006
800.586000	0.388421
800.789000	-1.438148
800.992000	-1.506048
801.194000	-1.635923
801.397000	-1.455605
801.600000	-1.205967
801.802000	-0.025500
802.005000	-0.165114
802.208000	-1.436631
802.410000	-0.398463
802.613000	-0.365115
802.816000	-0.635009
803.018000	-1.341534
803.221000	-1.202808
803.424000	0.186340
803.626000	-0.191353
803.829000	-0.594850
804.032000	0.662955
804.234000	1.197227
804.437000	-0.419881
804.640000	-0.657898
804.842000	-0.551892
805.045000	-0.974817
805.248000	-0.675951
805.450000	-0.639244
805.653000	-0.667480
805.856000	-0.992880
806.058000	0.094504
806.261000	-1.071144
806.464000	-0.902023
806.666000	-0.367712
806.869000	-0.896987
807.072000	-1.864847
807.274000	-2.258412
807.477000	-0.985989
807.679000	-0.654592
807.882000	-1.445385
808.085000	-1.070240
808.287000	-0.350471
808.490000	-1.409555
808.693000	-1.236100
808.895000	-0.676128
809.098000	-0.576610
809.301000	-0.465836
809.503000	-0.908044
809.706000	0.123925
809.909000	0.364128
810.111000	-0.027854
810.314000	-0.446687
810.517000	-0.849994
810.719000	-0.981984
810.922000	-0.654022
811.125000	0.290618
811.327000	0.382015
811.530000	-0.298586
811.735000	-0.992073
811.940000	-1.496590
812.146000	-1.024343
812.351000	-0.002587
812.556000	-0.456761
812.761000	-1.161147
812.967000	-0.054909
813.172000	-0.250747
813.377000	-0.487327
813.582000	0.273640
813.788000	-0.095376
813.993000	-1.152207
814.198000	-0.478793
814.403000	-1.165913
814.609000	-0.095776
814.814000	-0.029397
815.019000	0.770919
815.224000	0.397259
815.429000	-1.009140
815.635000	-0.500770
815.840000	-0.339599
816.045000	-0.476523
816.250000	-0.206103
816.456000	-1.523968
816.661000	-2.240493
816.866000	-1.493298
817.071000	-1.629021
817.277000	-2.409774
817.482000	-1.242792
817.687000	-0.443375
817.892000	-0.667443
818.097000	0.038893
818.303000	0.288915
818.508000	0.621064
818.713000	1.791704
818.918000	0.721094
819.124000	0.360079
819.329000	-1.025956
819.534000	-1.183647
819.739000	-1.225921
819.945000	-1.118704
820.150000	-0.571054
820.355000	-0.543699
820.560000	-0.386094
820.766000	-0.700165
820.971000	-0.632638
821.176000	-2.054612
821.381000	-2.578023
821.586000	-1.442099
821.792000	-0.089544
821.997000	-0.566676
822.202000	-0.784287
822.407000	-1.628484
822.613000	-1.748260
822.818000	-0.717463
823.023000	-0.513933
823.228000	-0.781755
823.434000	-0.149766
823.639000	0.291347
823.844000	-0.696354
824.049000	-0.224415
824.255000	0.189593
824.460000	-0.672625
824.665000	-1.105713
824.870000	0.086723
825.075000	-0.047908
825.281000	-0.018020
825.486000	0.797563
825.691000	-1.652000
825.896000	-2.822385
826.102000	-0.958569
826.307000	-0.641616
826.512000	-1.239195
826.717000	-1.013396
826.923000	-1.154456
827.128000	-0.803121
827.333000	-1.551588
827.538000	-0.407224
827.744000	0.121529
827.949000	-0.936179
828.154000	-0.331020
828.359000	0.168548
828.564000	-0.834422
828.770000	-0.948118
828.975000	-0.082083
829.180000	-0.669511
829.385000	-1.842835
829.591000	-1.197625
829.796000	-0.595402
830.001000	-0.756900
830.206000	-1.177542
830.412000	-1.063849
830.617000	-1.195291
830.822000	-0.343216
831.027000	-0.875513
831.232000	-1.254606
831.438000	-1.198003
831.643000	-1.001523
831.848000	-0.954764
832.053000	-0.727864
832.259000	-0.959595
832.464000	-2.814118
832.669000	-2.359657
832.874000	-1.726278
833.080000	-1.617428
833.285000	0.030001
833.490000	-0.153447
833.695000	-1.883715
833.901000	-1.403409
834.106000	-1.540698
834.311000	-0.716658
834.516000	-0.037419
834.721000	-1.200730
834.927000	-0.329762
835.132000	-0.502496
835.337000	1.340837
835.542000	0.083217
835.748000	-1.889517
835.953000	-0.125014
836.158000	-0.090510
836.363000	-0.318055
836.569000	-0.479020
836.774000	-1.414887
836.979000	-1.540251
837.184000	-1.862703
837.390000	-1.351683
837.595000	-0.910650
837.800000	-0.930568
838.005000	-0.577545
838.210000	-0.900786
838.416000	-1.570775
838.621000	-1.249886
838.826000	-1.411580
839.031000	-0.856376
839.237000	-1.283198
839.442000	-2.109127
839.647000	-2.581285
839.852000	-1.582623
840.058000	-1.625194
840.263000	-1.670210
840.468000	-1.727497
840.673000	-0.856421
840.878000	-0.968557
841.084000	-1.851599
841.289000	-0.845795
841.494000	1.767448
841.699000	1.603151
841.905000	0.678583
842.110000	0.358276
842.315000	-1.588937
842.520000	-0.709725
842.726000	-0.768794
842.931000	-1.417867
843.136000	-0.638998
843.341000	-2.253173
843.547000	-1.339074
843.752000	-1.069386
843.957000	-2.210976
844.162000	-1.966354
844.367000	-0.849617
844.573000	-0.300226
844.778000	-0.279734
844.983000	-0.181681
845.188000	-0.003970
845.394000	-1.686395
845.599000	-1.762173
845.804000	-1.728089
846.009000	-0.791291
846.215000	-1.808936
846.420000	-1.651143
846.625000	-0.452891
846.830000	0.321169
847.036000	-1.004941
847.241000	-1.419448
847.446000	0.590681
847.651000	-0.560213
847.856000	-2.269464
848.062000	-1.963532
848.267000	-0.400328
848.472000	-0.987555
848.677000	-2.333109
848.883000	-0.841670
849.088000	0.884032
849.293000	-0.917243
849.498000	-1.531031
849.704000	-0.238166
849.909000	-0.430663
850.114000	-1.688593
850.319000	-0.517113
850.524000	-0.605900
850.730000	-0.436476
850.935000	-0.850424
851.140000	-0.569894
851.345000	-0.026098
851.551000	-0.157061
851.756000	-0.245632
851.961000	-1.125876
852.166000	-1.060457
852.372000	-0.754391
852.577000	-0.337735
852.782000	-0.877607
852.987000	-0.227707
853.193000	-0.990286
853.398000	-0.295830
853.603000	-1.823868
853.808000	-2.611387
854.013000	-1.271028
854.219000	-0.027189
854.424000	1.542122
854.629000	1.271982
854.834000	-1.151967
855.040000	-1.020779
855.245000	-0.603055
855.450000	-2.804066
855.655000	-3.878027
855.861000	-3.531421
856.066000	-2.273598
856.271000	-2.722402
856.476000	-0.427869
856.682000	-1.184708
856.887000	-3.800935
857.092000	-2.154908
857.297000	0.137596
857.502000	-0.670319
857.708000	-1.171771
857.913000	0.138375
858.118000	-0.390059
858.323000	-0.922472
858.529000	-0.390600
858.734000	-1.020258
858.939000	-1.386986
859.144000	-1.732301
859.350000	-2.778885
859.555000	-2.885212
859.760000	-0.422134
859.965000	0.166842
860.171000	-1.828409
860.376000	-0.895751
860.581000	-2.610088
860.786000	-4.713904
860.991000	-3.658447
861.197000	-2.255750
861.402000	-0.005016
861.607000	-0.958669
861.812000	-3.004322
862.018000	-3.066448
862.223000	-1.754107
862.428000	-0.464060
862.633000	-0.005102
862.839000	-1.057577
863.044000	-1.480561
863.249000	-2.070259
863.454000	-0.418597
863.659000	-0.782717
863.865000	-1.776380
864.070000	-2.094420
864.275000	-2.778048
864.480000	-2.028687
864.686000	-3.460455
864.891000	-2.407442
865.096000	0.153808
865.301000	0.366641
865.507000	-0.192416
865.712000	-0.539798
865.917000	-1.323208
866.122000	-0.544745
866.328000	-3.124284
866.533000	-2.580072
866.738000	0.890066
866.943000	0.429655
867.148000	1.334496
867.354000	-1.907211
867.559000	-3.534324
867.764000	-1.612348
867.969000	-0.673827
868.175000	-1.892556
868.380000	-2.539685
868.585000	-3.491039
868.790000	-0.733074
868.996000	-1.216722
869.201000	-2.688320
869.406000	-3.635810
869.611000	-2.249326
869.817000	-2.161719
870.022000	1.674414
870.227000	-0.348265
870.432000	-1.985133
870.637000	-0.091903
870.843000	-0.814601
871.048000	-1.132900
871.253000	0.630396
871.458000	-0.935861
871.664000	-3.340211
871.869000	-3.477632
872.074000	-2.750353
872.279000	-1.362716
872.485000	-1.965219
872.690000	-2.361332
872.895000	-2.790224
873.100000	-3.093256
873.306000	-2.805399
873.511000	-1.339727
873.716000	0.449580
873.921000	-2.338984
874.126000	-2.585475
874.332000	-1.538376
874.537000	-0.283328
874.742000	0.055255
874.947000	-0.869331
875.153000	0.180476
875.358000	-0.754786
875.563000	-1.844707
875.768000	-4.574797
875.974000	-5.002055
876.179000	-1.202582
876.384000	-0.480840
876.589000	-2.177001
876.794000	-1.827950
877.000000	-2.724997
877.205000	-3.775662
877.410000	-0.937328
877.615000	-2.762364
877.821000	-4.855995
878.026000	-3.047002
878.231000	-3.240344
878.436000	-3.699287
878.642000	-3.268223
878.847000	-1.412191
879.052000	-0.235030
879.257000	-2.706582
879.463000	-3.633543
879.668000	-2.480266
879.873000	-0.105963
880.078000	-2.728601
880.283000	-5.171871
880.489000	-5.338374
880.694000	-3.855511
880.899000	-1.659046
881.104000	-0.209916
881.310000	2.092332
881.515000	0.737224
881.720000	0.840694
881.925000	1.902229
882.131000	4.425175
882.336000	1.367311
882.541000	-3.677146
882.746000	-4.182421
882.952000	-3.725743
883.157000	-2.515497
883.362000	-2.205314
883.567000	-3.405915
883.772000	-4.038754
883.978000	-3.370493
884.183000	-2.029730
884.388000	-2.166593
884.593000	-4.327852
884.799000	0.704376
885.004000	0.281401
885.209000	-1.811846
885.414000	-1.338041
885.620000	-3.521461
885.825000	-0.554638
886.030000	-1.536840
886.235000	-3.121872
886.440000	-2.963134
886.646000	-4.863525
886.851000	-4.291890
887.056000	0.029900
887.261000	-0.755587
887.467000	-3.650592
887.672000	-0.763832
887.877000	-2.782063
888.082000	-5.468485
888.288000	-5.905112
888.493000	-8.038963
888.698000	-5.779659
888.903000	-2.168115
889.109000	-2.933599
889.314000	-0.315869
889.519000	-2.003128
889.724000	-0.238262
889.929000	-1.892929
890.135000	-1.512245
890.340000	-1.445799
890.545000	-3.154446
890.750000	-5.380628
890.956000	-3.992264
891.161000	-0.046808
891.366000	-2.237496
891.571000	-2.321166
891.777000	-2.127104
891.982000	0.149861
892.187000	-0.443589
892.392000	0.703313
892.598000	0.786803
892.803000	-0.408906
893.008000	-2.891545
893.213000	-2.524417
893.418000	-3.266257
893.624000	-3.727338
893.829000	-5.791603
894.034000	-2.845232
894.239000	-0.822741
894.445000	-3.787221
894.650000	-3.847151
894.855000	-3.892840
895.060000	-3.273999
895.266000	-3.048416
895.471000	-4.735644
895.676000	-0.874533
895.881000	-0.424388
896.087000	-2.671662
896.292000	-3.191666
896.497000	1.675224
896.702000	-0.846831
896.907000	-3.073451
897.113000	1.592973
897.318000	1.507926
897.523000	-0.135142
897.728000	-2.806512
897.934000	-2.459405
898.139000	-2.296689
898.344000	0.034218
898.549000	-0.911943
898.755000	-3.368626
898.960000	-3.866202
899.165000	-5.125454
899.370000	-1.010260
899.575000	1.737541
899.781000	-2.591822
899.986000	-2.986004
900.191000	-1.991635
900.396000	-2.699769
900.602000	-2.005917
900.807000	-2.154171
901.012000	-1.493450
901.217000	0.487027
901.423000	-2.031311
901.628000	-4.518114
901.833000	-0.643481
902.038000	-0.739818
902.244000	-4.107928
902.449000	-3.765632
902.654000	-3.527560
902.859000	-2.041380
903.064000	-0.705378
903.270000	0.037259
903.475000	-4.530400
903.680000	-6.201991
903.885000	-5.218911
904.091000	-4.490979
904.296000	-6.355937
904.501000	-4.812021
904.706000	-3.205616
904.912000	0.810056
905.117000	-1.801211
905.322000	-4.451720
905.527000	-4.090970
905.733000	-3.461620
905.938000	-3.630052
906.143000	-3.228080
906.348000	-5.807277
906.553000	-1.706771
906.759000	0.239397
906.964000	-1.463561
907.169000	-3.185551
907.374000	-5.894183
907.580000	-4.257109
907.785000	-3.816162
907.990000	25.914229
908.195000	17.639913
908.401000	-0.322307
908.606000	-8.060136
908.811000	-10.610843
909.016000	-3.139404
909.221000	-1.893792
909.427000	-2.798988
909.632000	-5.052692
909.837000	-3.858683
910.042000	-6.281824
910.248000	-8.790816
910.453000	-3.853676
910.658000	-4.101202
910.863000	-4.369329
911.069000	-6.572409
911.274000	-1.498189
911.479000	0.321433
911.684000	-6.434037
911.890000	-3.803647
912.095000	-3.920018
912.300000	-6.197529
912.506000	-5.525569
912.711000	-6.221091
912.917000	-2.805411
913.123000	-1.609416
913.328000	-1.159967
913.534000	-2.503478
913.740000	5.240493
913.946000	2.627489
914.151000	-4.292645
914.357000	-4.959631
914.563000	-0.246544
914.768000	-4.271484
914.974000	-6.887573
915.180000	-6.773460
915.385000	-5.224704
915.591000	-8.022828
915.797000	-3.570564
916.002000	0.852231
916.208000	-2.348461
916.414000	-4.673921
916.620000	-5.742781
916.825000	-3.074077
917.031000	-3.889293
917.237000	-9.428825
917.442000	-5.215835
917.648000	-6.535789
917.854000	-7.937466
918.059000	-1.492879
918.265000	0.051414
918.471000	-3.113388
918.676000	-6.476078
918.882000	-7.833096
919.088000	-6.464918
919.294000	-10.561566
919.499000	-8.162977
919.705000	-2.297003
919.911000	-3.707282
920.116000	-1.845062
920.322000	-8.528802
920.528000	-6.451371
920.733000	-7.374729
920.939000	-8.799707
921.145000	-8.779780
921.350000	-7.835424
921.556000	-4.489854
921.762000	-4.832901
921.968000	-5.273087
922.173000	-6.596176
922.379000	-9.976191
922.585000	-5.393915
922.790000	-5.767589
922.996000	-6.399633
923.202000	-8.705295
923.407000	-9.133497
923.613000	-6.601127
923.819000	-2.644865
924.024000	-0.985703
924.230000	-1.217359
924.436000	-5.232976
924.642000	4.884632
924.847000	1.763717
925.053000	-6.197461
925.259000	-9.765396
925.464000	-3.286763
925.670000	-6.163526
925.876000	-7.807099
926.081000	-6.187386
926.287000	-2.315366
926.493000	-2.921050
926.698000	-4.542453
926.904000	-2.185000
927.110000	-5.592234
927.316000	-5.534670
927.521000	2.525004
927.727000	-3.844457
927.933000	-5.198321
928.138000	-5.221070
928.344000	-10.970944
928.550000	-5.884765
928.755000	0.068813
928.961000	-7.743298
929.167000	-8.222349
929.372000	-0.017342
929.578000	-0.105012
929.784000	-5.659282
929.990000	-9.227576
930.195000	-5.345203
930.401000	-4.758825
930.607000	-3.783957
930.812000	-4.092571
931.018000	-7.564468
931.224000	-13.654718
931.429000	-9.273741
931.635000	-13.871284
931.841000	-13.820485
932.046000	-7.221426
932.252000	-1.711748
932.458000	6.244564
932.664000	2.667978
932.869000	-4.822753
933.075000	-9.401674
933.281000	-7.573448
933.486000	0.178913
933.692000	-3.314829
933.898000	-7.652046
934.103000	0.181244
934.309000	-5.058078
934.515000	-4.514252
934.720000	-3.271495
934.926000	0.930468
935.132000	-0.126984
935.338000	-3.444327
935.543000	-11.305829
935.749000	-12.397544
935.955000	-13.334769
936.160000	-11.374606
936.366000	-2.710760
936.572000	-2.764182
936.777000	-1.655155
936.983000	-0.841204
937.189000	-6.735305
937.394000	-11.122628
937.600000	-0.143875
937.806000	6.738902
938.012000	-3.459458
938.217000	9.615267
938.423000	3.833710
938.629000	-5.751399
938.834000	-12.688519
939.040000	-14.244106
939.246000	-8.585451
939.451000	-13.092275
939.657000	-6.558597
939.863000	-7.313811
940.068000	-1.498359
940.274000	-9.321017
940.480000	-5.896312
940.686000	-1.695579
940.891000	-5.953519
941.097000	21.829161
941.303000	9.815244
941.508000	-6.251743
941.714000	-3.868151
941.920000	-16.597448
942.125000	-5.097230
942.331000	-3.375180
942.537000	1.860759
942.742000	5.257185
942.948000	-5.610433
943.154000	-12.791447
943.360000	-25.650526
943.565000	-10.365978
943.771000	4.052763
943.977000	6.578285
944.182000	-12.474335
944.388000	-15.540140
944.594000	0.274674
944.799000	10.296846
945.005000	0.121251
945.211000	4.834019
945.416000	-0.957023
945.622000	-16.279729
945.828000	-9.729320
946.034000	-2.416456
946.239000	-3.229271
946.445000	-11.993744
946.651000	-23.530121
946.856000	-14.951946
947.062000	2.490341
947.268000	2.507801
947.473000	-14.693590
947.679000	-20.875851
947.885000	-4.213866
948.090000	1.100392
948.296000	9.017867
948.502000	0.940702
948.708000	-8.867448
948.913000	-14.932548
949.119000	-4.666778
949.325000	-10.299922
949.530000	-24.391351
949.736000	-27.444872
949.942000	-15.165520
950.147000	-15.772942
950.353000	-15.146209
950.559000	-8.416384
950.764000	13.903799
950.970000	9.822406
951.176000	-11.017894
951.382000	-18.279393
951.587000	-5.073005
951.793000	1.014313
951.999000	1.344682
952.204000	-8.216596
952.410000	-21.773188
952.616000	-11.161333
952.821000	-7.787828
953.027000	-16.603786
953.233000	-18.307792
953.438000	-15.962190
953.644000	5.801987
953.850000	-1.274458
954.056000	-8.979823
954.261000	-9.395615
954.467000	0.505160
954.673000	9.145875
954.878000	-5.275142
955.084000	-6.186053
955.290000	-21.466070
955.495000	-22.985924
955.701000	-20.381434
955.907000	-1.886797
956.112000	-2.626987
956.318000	7.664197
956.524000	8.679822
956.730000	-9.645235
956.935000	-13.642434
957.141000	-14.488089
957.347000	-4.418040
957.552000	-8.408327
957.758000	-27.260169
957.964000	-33.306067
958.169000	6.144731
958.375000	6.939081
958.581000	-12.504610
958.786000	-23.275258
958.992000	-31.241902
959.198000	-11.190792
959.404000	-3.611199
959.609000	-14.966414
959.815000	-21.471168
960.021000	-1.050653
960.226000	-3.098330
960.432000	-23.729059
960.638000	-17.262966
960.843000	-10.372123
961.049000	-11.853223
961.255000	1.003398
961.460000	-13.727615
961.666000	-33.571727
961.872000	-18.271911
962.078000	-12.832170
962.283000	-24.019874
962.489000	-27.400086
962.695000	-19.239030
962.900000	-11.513152
963.106000	-7.481393
963.312000	-14.004903
963.517000	-22.580596
963.723000	-26.009034
963.929000	0.179763
964.134000	5.113230
964.340000	-16.826562
964.546000	-21.415913
964.752000	-26.036797
964.957000	-29.277086
965.163000	-4.957282
965.369000	-5.733062
965.574000	0.909533
965.780000	-9.150836
966.000000	-22.823804
966.220000	-13.795493
966.440000	-13.141123
966.661000	4.097897
966.881000	-16.197296
967.101000	-38.233582
967.321000	-38.282065
967.541000	-10.460911
967.761000	-17.101738
967.981000	-11.577121
968.202000	-14.415271
968.422000	-3.914448
968.642000	3.799711
968.862000	3.879125
969.082000	-11.405961
969.302000	-5.779604
969.522000	-11.307666
969.743000	-0.313116
969.963000	-14.987582
970.183000	-25.352361
970.403000	-28.809788
970.623000	-26.569053
970.843000	0.220407
971.063000	3.580939
971.284000	-18.351223
971.504000	-30.368042
971.724000	-7.776921
971.944000	-22.488957
972.164000	-33.028031
972.384000	-26.816070
972.604000	-44.710390
972.825000	-50.169131
973.045000	-32.951991
973.265000	17.755472
973.485000	2.056394
973.705000	-6.142949
973.925000	-13.644842
974.145000	-52.108548
974.365000	-11.761705
974.586000	-9.922468
974.806000	-36.079129
975.026000	-3.576148
975.246000	-9.490241
975.466000	-28.146604
975.686000	-13.728558
975.906000	-15.650786
976.127000	-42.238374
976.347000	-37.541805
976.567000	-2.390283
976.787000	0.932424
977.007000	-15.046135
977.227000	-20.281049
977.447000	-23.375940
977.668000	-41.075335
977.888000	-30.277058
978.108000	-27.923646
978.328000	-14.055164
978.548000	6.992448
978.768000	16.116211
978.988000	3.307174
979.209000	-14.665061
979.429000	-13.996927
979.649000	-4.487466
979.869000	-26.055529
980.089000	-41.976702
980.309000	-48.055245
980.529000	-59.059200
980.750000	-38.587700
980.970000	-46.331184
981.190000	-31.364350
981.410000	-31.982114
981.630000	-42.990386
981.850000	-18.809747
982.070000	-15.748800
982.291000	-52.775935
982.511000	-48.786795
982.731000	-9.128056
982.951000	-23.892327
983.171000	-25.837965
983.391000	-14.312792
983.611000	10.833626
983.832000	-32.672098
984.052000	-53.031518
984.272000	-29.955473
984.492000	-29.541123
984.712000	-34.715450
984.932000	-56.485964
985.152000	-58.149853
985.373000	-40.023880
985.593000	-10.004366
985.813000	-15.272167
986.033000	-34.934531
986.253000	0.895721
986.473000	4.164063
986.693000	-32.741278
986.914000	-38.856865
987.134000	8.056444
987.354000	-33.303411
987.574000	182.025556
987.794000	118.729892
988.014000	-40.157318
988.234000	-25.741409
988.455000	-1.211836
988.675000	-12.289750
988.895000	-29.332587
989.115000	-41.872592
989.335000	-14.211470
989.555000	-8.556573
989.775000	-46.833791
989.995000	-31.001395
990.216000	-23.914307
990.436000	-22.026425
990.656000	19.393065
990.876000	-10.507831
991.096000	-15.336714
991.316000	4.099953
991.536000	-14.718512
991.757000	-26.978878
991.977000	-72.145996
992.197000	-13.657029
992.417000	-33.606378
992.637000	-79.099839
992.857000	-96.623925
993.077000	-86.602831
993.298000	-34.420853
993.518000	-33.500293
993.738000	-84.933394
993.958000	-33.563166
994.178000	-29.730695
994.398000	-32.824420
994.618000	-63.895833
994.839000	-128.083755
995.059000	-45.422962
995.279000	12.087432
995.499000	-30.196943
995.719000	-9.797000
995.939000	-35.850260
996.159000	-30.343131
996.380000	-17.860352
996.600000	-55.704946
996.820000	-37.565060
997.040000	1.457211
997.260000	-61.331142
997.480000	-36.405581
997.700000	-90.932619
997.921000	-73.886945
998.141000	9.639920
998.361000	-2.640149
998.581000	-59.108459
998.801000	-86.931906
999.021000	-59.784884
999.241000	-34.747061
999.462000	-62.250385
999.682000	-111.419929
999.902000	-51.285567
1000.122000	-56.917003
1000.342000	-125.805087
1000.562000	-65.596782
1000.782000	-69.906533
1001.003000	-1052.818151
