Wavelength	Irradiance
(nm)	(mW/cm2/nm)

294.396000	0.000000
294.577000	0.000000
294.757000	-0.000000
294.938000	-0.000000
295.118000	-0.000000
295.299000	0.000000
295.479000	0.000000
295.660000	-0.000000
295.840000	-0.000000
296.021000	-0.000000
296.202000	-0.000000
296.382000	-0.000000
296.563000	-0.000000
296.743000	-0.000000
296.924000	0.000000
297.104000	-0.000000
297.285000	-0.000000
297.465000	-0.000000
297.646000	-0.000000
297.826000	-0.000000
298.007000	0.000000
298.187000	-0.000000
298.368000	-0.000000
298.548000	0.000000
298.729000	0.000000
298.909000	-0.000000
299.090000	-0.000000
299.270000	-0.000000
299.451000	-0.000000
299.631000	-0.000000
299.812000	-0.000000
299.992000	0.000000
300.173000	0.000000
300.353000	-0.000000
300.534000	0.000000
300.714000	0.000000
300.895000	0.000000
301.075000	-0.000000
301.256000	0.000000
301.436000	-0.000000
301.617000	-0.000000
301.797000	-0.000000
301.978000	-0.000000
302.159000	0.000000
302.339000	0.000000
302.520000	-0.000000
302.700000	-0.000000
302.881000	0.000000
303.061000	0.000000
303.242000	0.000000
303.422000	0.000000
303.603000	-0.000000
303.783000	-0.000000
303.964000	-0.000000
304.144000	-0.000000
304.325000	-0.000000
304.505000	0.000000
304.686000	-0.000000
304.866000	0.000000
305.047000	-0.000000
305.227000	-0.000000
305.408000	-0.000000
305.588000	-0.000000
305.769000	-0.000000
305.949000	-0.000000
306.130000	-0.000000
306.310000	-0.000000
306.491000	-0.000000
306.671000	0.000000
306.852000	-0.000000
307.032000	-0.000000
307.213000	-0.000000
307.393000	-0.000000
307.574000	0.000000
307.755000	0.000000
307.935000	0.000000
308.116000	-0.000000
308.296000	-0.000000
308.477000	0.000000
308.657000	0.000000
308.838000	0.000000
309.018000	0.000000
309.199000	-0.000000
309.379000	-0.000000
309.560000	0.000000
309.740000	-0.000000
309.921000	-0.000000
310.101000	-0.000000
310.282000	-0.000000
310.462000	-0.000000
310.643000	-0.000000
310.823000	-0.000000
311.004000	-0.000000
311.184000	-0.000000
311.365000	0.000000
311.545000	0.000000
311.726000	-0.000000
311.906000	-0.000000
312.087000	0.000000
312.267000	-0.000000
312.448000	-0.000000
312.628000	-0.000000
312.809000	-0.000000
312.989000	-0.000000
313.170000	-0.000000
313.344000	-0.000000
313.518000	-0.000000
313.691000	-0.000000
313.865000	-0.000000
314.039000	-0.000000
314.213000	-0.000000
314.387000	-0.000000
314.560000	-0.000000
314.734000	-0.000000
314.908000	-0.000000
315.082000	-0.000000
315.255000	0.000000
315.429000	0.000000
315.603000	0.000000
315.777000	-0.000000
315.951000	0.000000
316.124000	-0.000000
316.298000	-0.000000
316.472000	-0.000000
316.646000	-0.000000
316.820000	-0.000000
316.993000	-0.000000
317.167000	-0.000000
317.341000	-0.000000
317.515000	-0.000000
317.688000	-0.000000
317.862000	-0.000000
318.036000	-0.000000
318.210000	-0.000000
318.384000	-0.000000
318.557000	-0.000000
318.731000	-0.000000
318.905000	-0.000000
319.079000	-0.000000
319.253000	-0.000000
319.426000	0.000000
319.600000	0.000000
319.774000	-0.000000
319.948000	-0.000000
320.122000	0.000000
320.295000	0.000000
320.469000	-0.000000
320.643000	-0.000000
320.817000	-0.000000
320.990000	-0.000000
321.164000	-0.000000
321.338000	-0.000000
321.512000	-0.000000
321.686000	-0.000000
321.859000	-0.000000
322.033000	-0.000000
322.207000	0.000000
322.381000	-0.000000
322.555000	0.000000
322.728000	0.000000
322.902000	-0.000000
323.076000	-0.000000
323.250000	-0.000000
323.423000	-0.000000
323.597000	-0.000000
323.771000	-0.000000
323.945000	-0.000000
324.119000	-0.000000
324.292000	0.000000
324.466000	-0.000000
324.640000	0.000000
324.814000	0.000000
324.988000	-0.000000
325.161000	-0.000000
325.335000	-0.000000
325.509000	-0.000000
325.683000	-0.000000
325.856000	-0.000000
326.030000	-0.000000
326.204000	-0.000000
326.378000	-0.000000
326.552000	-0.000000
326.725000	-0.000000
326.899000	-0.000000
327.073000	-0.000000
327.247000	-0.000000
327.421000	0.000000
327.594000	0.000000
327.768000	-0.000000
327.942000	-0.000000
328.116000	0.000000
328.289000	0.000000
328.463000	-0.000000
328.637000	0.000000
328.811000	-0.000000
328.985000	-0.000000
329.158000	-0.000000
329.332000	-0.000000
329.506000	0.000000
329.680000	-0.000000
329.854000	-0.000000
330.027000	-0.000000
330.201000	-0.000000
330.375000	0.000000
330.549000	0.000000
330.723000	-0.000000
330.896000	-0.000000
331.070000	-0.000000
331.244000	-0.000000
331.418000	-0.000000
331.591000	-0.000000
331.765000	-0.000000
331.939000	-0.000000
332.113000	-0.000000
332.287000	-0.000000
332.460000	0.000000
332.634000	0.000000
332.808000	-0.000000
332.982000	-0.000000
333.156000	-0.000000
333.329000	-0.000000
333.503000	-0.000000
333.677000	-0.000000
333.851000	-0.000000
334.024000	-0.000000
334.198000	-0.000000
334.372000	-0.000000
334.546000	-0.000000
334.720000	-0.000000
334.893000	-0.000000
335.067000	-0.000000
335.241000	-0.000000
335.415000	-0.000000
335.589000	-0.000000
335.762000	-0.000000
335.936000	-0.000000
336.110000	-0.000000
336.284000	-0.000000
336.458000	-0.000000
336.631000	-0.000000
336.805000	-0.000000
336.979000	-0.000000
337.153000	-0.000000
337.326000	-0.000000
337.500000	-0.000000
337.674000	-0.000000
337.848000	-0.000000
338.022000	-0.000000
338.195000	-0.000000
338.369000	-0.000000
338.543000	-0.000000
338.717000	-0.000000
338.891000	-0.000000
339.064000	0.000000
339.238000	-0.000000
339.412000	-0.000000
339.586000	-0.000000
339.759000	-0.000000
339.933000	-0.000000
340.107000	0.000000
340.281000	-0.000000
340.455000	-0.000000
340.628000	-0.000000
340.802000	-0.000000
340.976000	-0.000000
341.150000	-0.000000
341.324000	-0.000000
341.497000	-0.000000
341.671000	-0.000000
341.845000	-0.000000
342.019000	-0.000000
342.192000	-0.000000
342.366000	-0.000000
342.540000	-0.000000
342.714000	-0.000000
342.888000	-0.000000
343.061000	-0.000000
343.235000	0.000000
343.409000	-0.000000
343.583000	-0.000000
343.757000	-0.000000
343.930000	-0.000000
344.104000	-0.000000
344.278000	0.000000
344.452000	0.000000
344.626000	-0.000000
344.799000	-0.000000
344.973000	-0.000000
345.147000	-0.000000
345.321000	-0.000000
345.494000	-0.000000
345.668000	0.000000
345.842000	0.000000
346.016000	-0.000000
346.190000	0.000000
346.363000	0.000000
346.537000	-0.000000
346.711000	-0.000000
346.885000	-0.000000
347.059000	-0.000000
347.232000	-0.000000
347.406000	0.000000
347.580000	-0.000000
347.754000	-0.000000
347.927000	-0.000000
348.101000	0.000000
348.275000	-0.000000
348.449000	-0.000000
348.623000	-0.000000
348.796000	0.000000
348.970000	0.000000
349.144000	-0.000000
349.318000	-0.000000
349.492000	-0.000000
349.665000	-0.000000
349.839000	-0.000000
350.013000	-0.000000
350.187000	-0.000000
350.361000	-0.000000
350.534000	-0.000000
350.708000	-0.000000
350.882000	-0.000000
351.056000	0.000000
351.229000	-0.000000
351.403000	-0.000000
351.577000	-0.000000
351.751000	-0.000000
351.925000	-0.000000
352.098000	-0.000000
352.272000	-0.000000
352.446000	-0.000000
352.620000	-0.000000
352.794000	-0.000000
352.967000	-0.000000
353.141000	0.000000
353.315000	0.000000
353.489000	-0.000000
353.662000	-0.000000
353.836000	-0.000000
354.010000	-0.000000
354.184000	-0.000000
354.358000	-0.000000
354.531000	-0.000000
354.705000	-0.000000
354.879000	-0.000000
355.053000	-0.000000
355.227000	0.000000
355.400000	-0.000000
355.574000	0.000000
355.748000	0.000000
355.922000	-0.000000
356.095000	-0.000000
356.269000	-0.000000
356.443000	-0.000000
356.617000	-0.000000
356.791000	-0.000000
356.964000	-0.000000
357.138000	-0.000000
357.312000	-0.000000
357.486000	-0.000000
357.660000	-0.000000
357.833000	-0.000000
358.007000	-0.000000
358.181000	-0.000000
358.355000	-0.000000
358.529000	-0.000000
358.702000	-0.000000
358.876000	-0.000000
359.050000	-0.000000
359.224000	-0.000000
359.397000	-0.000000
359.571000	-0.000000
359.745000	-0.000000
359.919000	-0.000000
360.093000	-0.045257
360.266000	0.004906
360.440000	0.069794
360.614000	0.152305
360.788000	0.034850
360.962000	-0.249789
361.135000	-0.069355
361.309000	-0.146938
361.483000	-0.307521
361.657000	-0.235684
361.830000	-0.221794
362.004000	-0.059700
362.178000	-0.337558
362.352000	-0.262898
362.526000	-0.041794
362.699000	-0.079463
362.873000	-0.425728
363.047000	-0.386488
363.221000	-0.364468
363.395000	-0.223279
363.568000	-0.192540
363.742000	-0.142204
363.916000	-0.217798
364.090000	-0.358654
364.263000	-0.319819
364.437000	-0.390353
364.611000	-0.087775
364.785000	-0.017984
364.959000	-0.193251
365.132000	-0.214622
365.306000	-0.213413
365.480000	-0.057827
365.656000	-0.161158
365.831000	-0.143042
366.007000	-0.187738
366.183000	-0.146290
366.358000	-0.355823
366.534000	-0.280509
366.710000	-0.389429
366.886000	-0.279707
367.061000	-0.105038
367.237000	-0.035447
367.413000	-0.159595
367.588000	-0.385013
367.764000	-0.367899
367.940000	-0.365914
368.115000	-0.273423
368.291000	-0.270329
368.467000	-0.177569
368.643000	0.187559
368.818000	-0.205795
368.994000	-0.299181
369.170000	-0.268095
369.345000	-0.228087
369.521000	-0.243435
369.697000	-0.182622
369.872000	-0.244847
370.048000	-0.350390
370.224000	-0.226425
370.399000	-0.449071
370.575000	-0.451420
370.751000	-0.518286
370.927000	-0.401253
371.102000	-0.428587
371.278000	-0.404634
371.454000	-0.194222
371.629000	0.049475
371.805000	-0.047984
371.981000	0.097472
372.156000	0.249043
372.332000	-0.001065
372.508000	-0.040799
372.683000	-0.080036
372.859000	-0.196273
373.035000	-0.198380
373.211000	0.233518
373.386000	0.017189
373.562000	-0.496642
373.738000	-0.542487
373.913000	-0.653620
374.089000	-0.509999
374.265000	-0.059493
374.440000	-0.034245
374.616000	0.031966
374.792000	-0.179798
374.968000	0.181490
375.143000	-0.033513
375.319000	-0.307825
375.495000	-0.422508
375.670000	-0.327832
375.846000	-0.153183
376.022000	-0.286517
376.197000	-0.222463
376.373000	-0.343668
376.549000	-0.324706
376.724000	-0.434744
376.900000	-0.402200
377.076000	-0.164913
377.252000	0.061802
377.427000	0.132467
377.603000	-0.235823
377.779000	-0.310633
377.954000	-0.421547
378.130000	-0.245755
378.306000	-0.166957
378.481000	-0.183847
378.657000	-0.333297
378.833000	-0.371142
379.009000	-0.188712
379.184000	-0.036303
379.360000	-0.126820
379.536000	-0.226505
379.711000	-0.298311
379.887000	-0.293926
380.063000	-0.259387
380.238000	-0.349102
380.414000	-0.151359
380.590000	-0.399890
380.765000	-0.356430
380.941000	-0.094984
381.117000	-0.097835
381.293000	-0.176934
381.468000	-0.314796
381.644000	-0.253724
381.820000	-0.122296
381.995000	-0.064021
382.171000	0.150088
382.347000	0.149907
382.522000	-0.276835
382.698000	0.044112
382.874000	0.082197
383.050000	-0.311766
383.225000	0.051238
383.401000	0.226259
383.577000	-0.127845
383.752000	-0.291168
383.928000	-0.183682
384.104000	-0.170622
384.279000	-0.195506
384.455000	-0.049128
384.631000	-0.173058
384.806000	-0.367547
384.982000	-0.190483
385.158000	-0.320676
385.334000	-0.219980
385.509000	-0.244944
385.685000	-0.437232
385.861000	-0.217417
386.036000	-0.321115
386.212000	-0.561505
386.388000	-0.318408
386.563000	-0.242866
386.739000	-0.362472
386.915000	-0.603186
387.090000	-0.215829
387.266000	-0.066630
387.442000	-0.063118
387.618000	-0.103681
387.793000	-0.332353
387.969000	-0.473610
388.145000	-0.358747
388.320000	-0.359776
388.496000	-0.367301
388.672000	-0.627574
388.847000	-0.167883
389.023000	-0.120982
389.199000	-0.445457
389.375000	-0.221761
389.550000	-0.307706
389.726000	-0.180091
389.902000	-0.370494
390.077000	-0.204791
390.253000	-0.167547
390.429000	-0.267666
390.604000	-0.201312
390.780000	-0.166532
390.956000	-0.336187
391.131000	-0.345581
391.307000	0.045864
391.483000	-0.144903
391.659000	-0.356897
391.834000	-0.148096
392.010000	-0.284774
392.186000	-0.348570
392.361000	-0.292386
392.537000	-0.375815
392.713000	0.120840
392.888000	0.249624
393.064000	-0.113511
393.240000	-0.255167
393.416000	-0.424195
393.591000	-0.519782
393.767000	-0.531377
393.943000	-0.377410
394.118000	-0.075844
394.294000	0.122636
394.470000	0.041206
394.645000	0.011967
394.821000	0.246256
394.997000	-0.033298
395.172000	-0.161751
395.348000	-0.274841
395.524000	-0.558581
395.700000	-0.374012
395.875000	-0.160564
396.051000	-0.192233
396.227000	-0.235419
396.402000	-0.239898
396.578000	-0.129787
396.754000	-0.337281
396.929000	-0.271999
397.105000	0.005413
397.281000	-0.074163
397.457000	-0.210416
397.632000	-0.227041
397.808000	-0.519230
397.984000	-0.565115
398.159000	-0.477208
398.335000	-0.368442
398.511000	0.071782
398.686000	-0.117826
398.862000	-0.339795
399.038000	-0.401509
399.213000	-0.162900
399.389000	-0.468426
399.565000	-0.157372
399.741000	0.039690
399.916000	-0.076675
400.092000	0.130935
400.268000	-0.181552
400.443000	-0.316068
400.619000	0.039946
400.795000	-0.070399
400.970000	-0.287527
401.146000	-0.285525
401.322000	0.008501
401.497000	0.357717
401.673000	0.037000
401.849000	-0.246793
402.025000	-0.082544
402.200000	-0.226299
402.376000	-0.313802
402.552000	0.115295
402.727000	-0.079110
402.903000	-0.403453
403.079000	-0.303808
403.254000	0.017813
403.430000	-0.022661
403.606000	-0.115978
403.782000	-0.162415
403.957000	-0.334160
404.133000	-0.431816
404.309000	-0.322436
404.484000	-0.162664
404.660000	-0.181832
404.841000	-0.300534
405.023000	-0.066110
405.204000	-0.128564
405.385000	-0.410598
405.566000	-0.377621
405.748000	-0.205406
405.929000	-0.019916
406.110000	-0.082181
406.292000	-0.232944
406.473000	-0.205609
406.654000	-0.429178
406.835000	-0.181613
407.017000	-0.221272
407.198000	-0.218803
407.379000	-0.187597
407.560000	-0.160555
407.742000	-0.239143
407.923000	-0.200029
408.104000	-0.347691
408.286000	-0.217215
408.467000	-0.164280
408.648000	-0.368840
408.829000	-0.450725
409.011000	-0.278546
409.192000	-0.400403
409.373000	-0.223590
409.555000	-0.155581
409.736000	-0.163755
409.917000	-0.272295
410.098000	-0.252113
410.280000	-0.095188
410.461000	-0.101091
410.642000	-0.140815
410.823000	0.035571
411.005000	-0.037443
411.186000	-0.241561
411.367000	-0.345428
411.549000	-0.369551
411.730000	-0.125789
411.911000	0.038616
412.092000	-0.185832
412.274000	-0.259649
412.455000	-0.142605
412.636000	-0.064276
412.818000	-0.307480
412.999000	-0.406902
413.180000	-0.310249
413.361000	-0.290302
413.543000	-0.288751
413.724000	-0.374744
413.905000	-0.386720
414.087000	-0.366548
414.268000	-0.398102
414.449000	-0.398846
414.630000	-0.483875
414.812000	-0.616783
414.993000	-0.222117
415.174000	-0.098274
415.355000	-0.280014
415.537000	-0.500494
415.718000	-0.187323
415.899000	-0.222171
416.081000	-0.388743
416.262000	-0.191480
416.443000	-0.325547
416.624000	-0.324795
416.806000	-0.170458
416.987000	-0.056700
417.168000	-0.123526
417.350000	-0.286991
417.531000	-0.395542
417.712000	-0.407117
417.893000	-0.201018
418.075000	-0.064443
418.256000	-0.305181
418.437000	-0.227844
418.618000	-0.067556
418.800000	0.016501
418.981000	-0.196736
419.162000	-0.201194
419.344000	-0.072882
419.525000	-0.131201
419.706000	-0.282120
419.887000	-0.113721
420.069000	0.077180
420.250000	-0.090453
420.431000	-0.093116
420.613000	-0.168866
420.794000	-0.450677
420.975000	-0.075533
421.156000	-0.231065
421.338000	-0.294131
421.519000	-0.273949
421.700000	-0.332424
421.882000	-0.306421
422.063000	-0.104382
422.244000	0.328158
422.425000	0.091040
422.607000	-0.250441
422.788000	-0.286831
422.969000	-0.408195
423.150000	-0.405796
423.332000	-0.476217
423.513000	-0.253662
423.694000	-0.240556
423.876000	-0.234068
424.057000	-0.136201
424.238000	-0.096248
424.419000	-0.064642
424.601000	-0.267521
424.782000	-0.203551
424.963000	-0.012347
425.145000	-0.104518
425.326000	-0.026662
425.507000	0.010592
425.688000	-0.115953
425.870000	-0.327290
426.051000	-0.408250
426.232000	-0.382398
426.413000	-0.364448
426.595000	-0.308001
426.776000	-0.376719
426.957000	-0.303424
427.139000	-0.204584
427.320000	-0.144966
427.501000	-0.058733
427.682000	-0.072842
427.864000	-0.098698
428.045000	0.068395
428.226000	0.019405
428.408000	-0.348082
428.589000	-0.193902
428.770000	-0.202086
428.951000	-0.391146
429.133000	-0.538761
429.314000	-0.278002
429.495000	-0.251450
429.677000	-0.283776
429.858000	-0.295527
430.039000	-0.235726
430.220000	-0.075342
430.402000	0.001999
430.583000	-0.315728
430.764000	-0.228939
430.945000	-0.100838
431.127000	-0.049067
431.308000	-0.192825
431.489000	-0.034918
431.671000	0.010547
431.852000	-0.111274
432.033000	-0.193407
432.214000	-0.122373
432.396000	0.013248
432.577000	-0.173168
432.758000	-0.403054
432.940000	-0.306424
433.121000	-0.198696
433.302000	-0.200855
433.483000	-0.028958
433.665000	0.046977
433.846000	-0.068342
434.027000	-0.210449
434.208000	-0.310654
434.390000	-0.379035
434.571000	-0.070906
434.752000	0.316307
434.934000	0.126439
435.115000	0.010262
435.296000	0.043532
435.477000	-0.064415
435.659000	-0.257959
435.840000	-0.170943
436.026000	-0.154023
436.211000	-0.260432
436.397000	-0.471793
436.582000	-0.373803
436.768000	-0.150432
436.953000	-0.237159
437.139000	-0.231221
437.325000	0.066660
437.510000	0.023476
437.696000	0.133754
437.881000	0.090551
438.067000	-0.270633
438.252000	-0.220037
438.438000	-0.254614
438.624000	-0.238594
438.809000	-0.131184
438.995000	-0.061927
439.180000	-0.146524
439.366000	-0.194015
439.551000	-0.241335
439.737000	-0.137966
439.923000	-0.087959
440.108000	-0.203913
440.294000	-0.111243
440.479000	-0.006027
440.665000	0.040875
440.850000	-0.037024
441.036000	-0.063058
441.222000	-0.131079
441.407000	-0.330605
441.593000	-0.130069
441.778000	-0.036893
441.964000	-0.000777
442.149000	-0.323408
442.335000	-0.306374
442.521000	-0.129033
442.706000	-0.008431
442.892000	-0.102739
443.077000	-0.202841
443.263000	-0.097560
443.448000	-0.213768
443.634000	-0.295122
443.820000	0.064801
444.005000	0.009323
444.191000	-0.228011
444.376000	-0.267150
444.562000	0.089171
444.747000	0.112234
444.933000	-0.020780
445.119000	-0.155604
445.304000	-0.202683
445.490000	-0.025688
445.675000	-0.043126
445.861000	-0.208208
446.046000	-0.205259
446.232000	-0.087918
446.418000	-0.025625
446.603000	-0.070398
446.789000	-0.164747
446.974000	-0.142813
447.160000	-0.283854
447.345000	-0.200842
447.531000	-0.227817
447.717000	-0.105045
447.902000	-0.070571
448.088000	0.006694
448.273000	-0.082129
448.459000	-0.153221
448.644000	-0.266496
448.830000	-0.304541
449.016000	-0.375856
449.201000	-0.323572
449.387000	-0.176105
449.572000	-0.000739
449.758000	-0.128705
449.943000	-0.284148
450.129000	-0.337016
450.315000	-0.265333
450.500000	-0.285180
450.686000	-0.239028
450.871000	-0.310567
451.057000	-0.125929
451.243000	-0.162563
451.428000	-0.187334
451.614000	-0.177092
451.799000	-0.265113
451.985000	-0.064353
452.170000	0.011489
452.356000	-0.179057
452.542000	-0.169488
452.727000	-0.064120
452.913000	-0.174118
453.098000	0.023685
453.284000	0.189656
453.469000	0.001711
453.655000	0.121244
453.841000	0.052854
454.026000	-0.136529
454.212000	-0.099867
454.397000	-0.165378
454.583000	-0.318251
454.768000	-0.367529
454.954000	-0.133522
455.140000	-0.109191
455.325000	-0.265260
455.511000	-0.305214
455.696000	-0.268990
455.882000	-0.123704
456.067000	0.076478
456.253000	-0.126184
456.439000	-0.254020
456.624000	-0.282037
456.810000	-0.281262
456.995000	-0.214412
457.181000	-0.295266
457.366000	-0.112693
457.552000	-0.086130
457.738000	-0.010191
457.923000	-0.041075
458.109000	0.199329
458.294000	0.101587
458.480000	-0.041209
458.665000	-0.060086
458.851000	-0.171405
459.037000	-0.358662
459.222000	-0.212669
459.408000	-0.203254
459.593000	-0.115551
459.779000	0.015653
459.964000	0.099937
460.150000	0.233756
460.336000	0.149199
460.521000	-0.035588
460.707000	-0.144574
460.892000	-0.246202
461.078000	-0.028555
461.263000	0.040907
461.449000	-0.132901
461.635000	-0.111906
461.820000	-0.111683
462.006000	-0.030622
462.191000	-0.053449
462.377000	-0.233982
462.562000	0.019962
462.748000	0.225894
462.934000	-0.126715
463.119000	-0.267542
463.305000	-0.086984
463.490000	-0.179226
463.676000	-0.157024
463.861000	-0.162262
464.047000	-0.216194
464.233000	-0.115613
464.418000	-0.149256
464.604000	-0.263490
464.789000	-0.011914
464.975000	0.003809
465.160000	-0.130859
465.346000	-0.133028
465.532000	-0.209605
465.717000	-0.251881
465.903000	0.021722
466.088000	-0.031983
466.274000	-0.225412
466.459000	-0.247950
466.645000	0.124258
466.831000	0.090226
467.016000	0.072372
467.202000	-0.022898
467.387000	-0.084906
467.573000	-0.270030
467.758000	-0.027043
467.944000	-0.090761
468.130000	-0.177379
468.315000	-0.115591
468.501000	0.047789
468.686000	-0.073158
468.872000	-0.086369
469.057000	-0.042404
469.243000	-0.104068
469.429000	-0.110586
469.614000	-0.193665
469.800000	-0.248504
469.985000	-0.096862
470.171000	-0.028972
470.356000	-0.144960
470.542000	-0.086256
470.728000	-0.101270
470.913000	-0.102942
471.099000	-0.020226
471.284000	-0.099223
471.470000	-0.119109
471.655000	-0.114740
471.841000	-0.149367
472.027000	-0.189897
472.212000	0.053774
472.398000	0.071424
472.583000	-0.090305
472.769000	-0.064186
472.954000	-0.090333
473.140000	-0.248931
473.326000	-0.275419
473.511000	0.012405
473.697000	0.047280
473.882000	-0.099107
474.068000	-0.182590
474.253000	-0.266927
474.439000	-0.131818
474.625000	-0.072662
474.810000	-0.109835
474.996000	-0.029042
475.181000	-0.209503
475.367000	-0.079053
475.552000	0.108852
475.738000	-0.207549
475.924000	-0.159995
476.109000	-0.068293
476.295000	-0.210226
476.480000	-0.157996
476.666000	-0.120662
476.851000	-0.081344
477.037000	-0.066424
477.223000	-0.186261
477.408000	-0.251838
477.594000	-0.332340
477.779000	-0.221504
477.965000	-0.215019
478.151000	-0.313387
478.336000	-0.160450
478.522000	-0.170985
478.707000	-0.184069
478.893000	-0.147253
479.078000	-0.338445
479.264000	-0.345114
479.450000	-0.237704
479.635000	-0.110252
479.821000	-0.156556
480.006000	-0.130108
480.192000	-0.125601
480.377000	-0.092923
480.563000	-0.079664
480.749000	-0.277359
480.934000	-0.274868
481.120000	-0.131794
481.305000	-0.020298
481.491000	-0.059828
481.676000	-0.016034
481.862000	-0.011668
482.048000	-0.175828
482.233000	-0.129692
482.419000	-0.165057
482.604000	-0.215693
482.790000	-0.222281
482.975000	-0.154401
483.161000	0.032189
483.347000	-0.007215
483.532000	-0.015963
483.718000	-0.263926
483.903000	-0.295055
484.089000	-0.265851
484.274000	-0.346397
484.460000	-0.204572
484.646000	-0.151961
484.831000	-0.248624
485.017000	-0.180031
485.202000	-0.131656
485.388000	0.073530
485.573000	0.042899
485.759000	-0.162206
485.945000	0.003712
486.130000	-0.168662
486.316000	-0.175276
486.501000	-0.109503
486.687000	-0.274566
486.872000	-0.285694
487.058000	-0.083392
487.244000	-0.116124
487.429000	-0.296093
487.615000	-0.122326
487.800000	-0.022376
487.986000	-0.128333
488.171000	-0.091755
488.357000	-0.106577
488.543000	-0.099727
488.728000	-0.041584
488.914000	-0.125696
489.099000	-0.250595
489.285000	-0.237497
489.470000	-0.019975
489.656000	-0.028587
489.842000	-0.092712
490.027000	0.046323
490.213000	-0.075480
490.398000	-0.362906
490.584000	-0.128806
490.769000	-0.120262
490.955000	-0.066744
491.141000	-0.047448
491.326000	-0.083326
491.512000	0.058704
491.697000	-0.049278
491.883000	-0.197404
492.068000	-0.241865
492.254000	-0.187181
492.440000	-0.136224
492.625000	-0.207636
492.811000	-0.173488
492.996000	-0.101677
493.182000	-0.122337
493.367000	-0.263678
493.553000	-0.358474
493.739000	-0.252846
493.924000	-0.097424
494.110000	-0.086628
494.295000	-0.211835
494.481000	-0.076003
494.666000	-0.069771
494.852000	0.053761
495.038000	-0.111268
495.223000	-0.232695
495.409000	-0.163318
495.594000	-0.203284
495.780000	-0.150659
495.965000	-0.246764
496.151000	-0.083961
496.337000	0.028516
496.522000	-0.214182
496.708000	-0.096347
496.893000	0.057638
497.079000	-0.127232
497.264000	-0.168421
497.450000	-0.153979
497.636000	-0.083594
497.821000	-0.193027
498.007000	0.005586
498.192000	0.061676
498.378000	-0.058666
498.563000	-0.110526
498.749000	-0.067048
498.935000	-0.079382
499.120000	-0.006823
499.306000	-0.170408
499.491000	-0.275261
499.677000	-0.143059
499.862000	-0.029632
500.048000	0.024287
500.234000	-0.122785
500.419000	-0.147901
500.605000	-0.002699
500.790000	-0.083578
500.976000	-0.214577
501.161000	-0.258129
501.347000	-0.094069
501.533000	-0.000623
501.718000	-0.062923
501.904000	-0.135923
502.089000	-0.033979
502.275000	0.047198
502.460000	-0.085618
502.646000	-0.060811
502.832000	-0.011006
503.017000	-0.048482
503.203000	-0.254837
503.388000	-0.299311
503.574000	-0.104787
503.759000	-0.038113
503.945000	0.013978
504.131000	-0.081988
504.316000	-0.100703
504.502000	-0.077798
504.687000	-0.130289
504.873000	-0.220338
505.058000	-0.251694
505.244000	-0.278825
505.430000	-0.214385
505.615000	-0.118135
505.801000	-0.057387
505.986000	-0.209824
506.172000	-0.155527
506.358000	-0.118118
506.543000	-0.124344
506.729000	0.024548
506.914000	-0.017453
507.100000	0.106973
507.285000	-0.072493
507.471000	-0.177969
507.657000	-0.006966
507.842000	-0.129219
508.028000	-0.253760
508.213000	-0.197298
508.399000	-0.140493
508.584000	-0.007000
508.770000	-0.134032
508.956000	-0.176518
509.141000	-0.095908
509.327000	-0.019730
509.512000	-0.125310
509.698000	-0.129733
509.883000	-0.047327
510.069000	-0.092142
510.255000	-0.094312
510.440000	-0.077376
510.626000	-0.141249
510.811000	-0.169189
510.997000	-0.107339
511.182000	0.201848
511.368000	0.071908
511.554000	-0.269652
511.739000	-0.194801
511.925000	-0.013450
512.110000	-0.026235
512.296000	0.065646
512.481000	0.082652
512.667000	-0.039126
512.853000	-0.246555
513.038000	-0.146256
513.224000	-0.171995
513.409000	-0.223377
513.595000	-0.118626
513.780000	-0.266504
513.966000	-0.225223
514.152000	-0.199581
514.337000	-0.268141
514.523000	-0.210381
514.708000	-0.131328
514.894000	-0.108059
515.079000	-0.180394
515.265000	-0.112302
515.451000	-0.093015
515.636000	-0.223887
515.822000	-0.095212
516.007000	-0.213454
516.193000	-0.077953
516.378000	0.023017
516.564000	-0.090861
516.750000	-0.103785
516.935000	0.001505
517.121000	0.005803
517.306000	0.078956
517.492000	0.007972
517.677000	-0.220170
517.863000	-0.228822
518.049000	-0.127689
518.234000	-0.194294
518.420000	-0.048041
518.605000	0.079036
518.791000	0.025184
518.976000	-0.035225
519.162000	-0.177528
519.348000	-0.121470
519.533000	-0.093286
519.719000	0.111495
519.904000	-0.024397
520.090000	-0.037275
520.275000	0.148123
520.461000	0.090087
520.647000	-0.087046
520.832000	-0.286536
521.018000	-0.166982
521.203000	-0.116914
521.389000	-0.314772
521.574000	-0.239713
521.760000	-0.082598
521.946000	-0.072033
522.131000	-0.186842
522.317000	-0.147643
522.502000	-0.173509
522.688000	-0.089279
522.873000	-0.130475
523.059000	-0.139228
523.245000	-0.115302
523.430000	-0.247575
523.616000	-0.206363
523.801000	-0.295536
523.987000	-0.224385
524.172000	-0.074497
524.358000	-0.009343
524.544000	-0.044037
524.729000	0.031804
524.915000	0.023205
525.100000	-0.113380
525.286000	-0.080982
525.471000	-0.061615
525.657000	0.001526
525.843000	-0.214493
526.028000	-0.096732
526.214000	-0.140351
526.399000	-0.234886
526.585000	-0.307187
526.770000	-0.304961
526.956000	-0.191598
527.142000	-0.228867
527.327000	-0.075352
527.513000	-0.172226
527.698000	-0.220863
527.884000	-0.199567
528.069000	-0.216810
528.255000	-0.084585
528.441000	-0.155443
528.626000	-0.167010
528.812000	0.087981
528.997000	-0.020652
529.183000	-0.167141
529.368000	-0.123318
529.554000	-0.121408
529.740000	-0.110539
529.925000	-0.173358
530.111000	-0.189265
530.296000	-0.131085
530.482000	0.012848
530.667000	-0.063814
530.853000	-0.036872
531.039000	-0.077760
531.224000	-0.071340
531.410000	0.040330
531.595000	-0.023491
531.781000	0.008440
531.967000	-0.156663
532.152000	-0.046709
532.338000	-0.088300
532.523000	-0.236299
532.709000	-0.248765
532.894000	-0.163786
533.080000	-0.107986
533.266000	-0.255114
533.451000	-0.279490
533.637000	-0.242792
533.822000	-0.029025
534.008000	-0.168101
534.193000	-0.168724
534.379000	-0.114708
534.565000	-0.186705
534.750000	-0.201756
534.936000	0.030511
535.121000	-0.142831
535.307000	-0.104473
535.492000	-0.058725
535.678000	-0.258427
535.864000	-0.122890
536.049000	0.183556
536.235000	-0.057317
536.420000	-0.087234
536.606000	-0.184138
536.791000	-0.289937
536.977000	-0.300660
537.163000	-0.058459
537.348000	-0.061324
537.534000	-0.003303
537.719000	-0.145937
537.905000	-0.282016
538.090000	-0.052109
538.276000	0.050747
538.462000	-0.011113
538.647000	-0.026727
538.833000	-0.144280
539.018000	-0.011271
539.204000	-0.032263
539.389000	-0.204150
539.575000	0.057358
539.761000	0.007172
539.946000	-0.289047
540.132000	-0.164243
540.317000	-0.234579
540.503000	-0.162378
540.688000	-0.171530
540.874000	0.037237
541.060000	0.145910
541.245000	-0.025388
541.431000	-0.159757
541.616000	-0.132716
541.802000	-0.176832
541.987000	-0.028407
542.173000	-0.086654
542.359000	-0.291867
542.544000	-0.128146
542.730000	-0.275931
542.915000	-0.307237
543.101000	-0.117894
543.286000	-0.319226
543.472000	-0.388667
543.658000	-0.282079
543.843000	-0.279955
544.029000	-0.031960
544.214000	-0.051825
544.400000	-0.465815
544.585000	-0.358866
544.771000	-0.234611
544.957000	-0.086562
545.142000	-0.029450
545.328000	-0.038127
545.513000	0.016371
545.699000	0.045286
545.884000	-0.035503
546.070000	-0.035519
546.261000	-0.061733
546.451000	-0.198566
546.642000	-0.341610
546.833000	-0.231342
547.023000	-0.359622
547.214000	-0.325935
547.405000	-0.094571
547.595000	0.148636
547.786000	0.078577
547.977000	-0.142533
548.167000	-0.263745
548.358000	-0.247110
548.549000	0.100339
548.740000	-0.060442
548.930000	-0.405964
549.121000	-0.281676
549.312000	-0.324732
549.502000	-0.427709
549.693000	-0.262185
549.884000	-0.136089
550.074000	-0.040096
550.265000	-0.272879
550.456000	-0.170547
550.646000	-0.076822
550.837000	-0.113298
551.028000	-0.186448
551.218000	-0.095176
551.409000	-0.187214
551.600000	-0.227110
551.790000	-0.071501
551.981000	-0.283229
552.172000	-0.225346
552.362000	0.032881
552.553000	0.085554
552.744000	-0.090435
552.934000	-0.152297
553.125000	-0.143285
553.316000	-0.189826
553.506000	0.058027
553.697000	-0.094373
553.888000	-0.041352
554.079000	0.120418
554.269000	0.036442
554.460000	-0.313193
554.651000	-0.363528
554.841000	-0.536047
555.032000	-0.395834
555.223000	-0.220634
555.413000	-0.116547
555.604000	-0.145282
555.795000	-0.155101
555.985000	-0.070302
556.176000	-0.167724
556.367000	-0.413085
556.557000	-0.278728
556.748000	-0.159087
556.939000	-0.187263
557.129000	-0.281761
557.320000	-0.146178
557.511000	-0.158510
557.701000	-0.249502
557.892000	-0.203120
558.083000	0.033764
558.273000	-0.095630
558.464000	-0.303950
558.655000	-0.265845
558.845000	-0.142436
559.036000	-0.067021
559.227000	-0.148940
559.418000	-0.045111
559.608000	0.024281
559.799000	-0.328489
559.990000	-0.317345
560.180000	-0.267571
560.371000	-0.431342
560.562000	-0.349127
560.752000	-0.179903
560.943000	-0.289925
561.134000	-0.477109
561.324000	-0.232477
561.515000	-0.007183
561.706000	-0.166647
561.896000	-0.322274
562.087000	-0.191028
562.278000	-0.290635
562.468000	-0.418769
562.659000	-0.349213
562.850000	-0.044496
563.040000	-0.004045
563.231000	-0.430676
563.422000	-0.230615
563.612000	-0.265049
563.803000	-0.187026
563.994000	-0.309598
564.185000	-0.401526
564.375000	-0.201458
564.566000	-0.225865
564.757000	-0.232673
564.947000	-0.275604
565.138000	-0.123955
565.329000	-0.200447
565.519000	-0.359881
565.710000	-0.212830
565.901000	-0.028581
566.091000	0.023647
566.282000	-0.141860
566.473000	-0.159748
566.663000	-0.165664
566.854000	-0.365569
567.045000	-0.258537
567.235000	-0.134245
567.426000	-0.116021
567.617000	-0.103529
567.807000	-0.115652
567.998000	-0.094323
568.189000	-0.284104
568.379000	-0.268357
568.570000	-0.144945
568.761000	-0.150629
568.951000	-0.198228
569.142000	-0.285316
569.333000	-0.288305
569.524000	-0.346877
569.714000	-0.376670
569.905000	-0.527862
570.096000	-0.111029
570.286000	-0.072236
570.477000	0.049509
570.668000	-0.104552
570.858000	-0.063083
571.049000	-0.234035
571.240000	-0.372931
571.430000	-0.145380
571.621000	-0.221263
571.812000	-0.103304
572.002000	-0.080034
572.193000	-0.252588
572.384000	-0.153009
572.574000	-0.132637
572.765000	-0.196693
572.956000	-0.231039
573.146000	-0.027136
573.337000	-0.225102
573.528000	-0.204361
573.718000	-0.067556
573.909000	-0.018240
574.100000	-0.101838
574.290000	-0.219417
574.481000	-0.259096
574.672000	-0.256521
574.863000	-0.098136
575.053000	-0.235024
575.244000	-0.148999
575.435000	-0.228548
575.625000	-0.278545
575.816000	-0.337632
576.007000	-0.266881
576.197000	-0.204940
576.388000	-0.167437
576.579000	0.010444
576.769000	-0.029039
576.960000	-0.330458
577.155000	-0.458779
577.350000	-0.157976
577.545000	-0.101668
577.740000	-0.280082
577.935000	0.107845
578.130000	-0.020359
578.326000	-0.365059
578.521000	-0.056415
578.716000	-0.020194
578.911000	-0.329650
579.106000	-0.163242
579.301000	0.004666
579.496000	-0.206004
579.691000	-0.487374
579.886000	-0.341608
580.081000	-0.194088
580.276000	-0.114864
580.471000	-0.220729
580.666000	-0.377542
580.861000	-0.371990
581.057000	-0.282766
581.252000	-0.160805
581.447000	-0.263260
581.642000	-0.266412
581.837000	-0.263347
582.032000	-0.246405
582.227000	-0.043736
582.422000	-0.040976
582.617000	-0.224745
582.812000	-0.335852
583.007000	-0.293146
583.202000	-0.377498
583.397000	-0.111822
583.592000	0.136432
583.788000	-0.177033
583.983000	-0.203145
584.178000	-0.124108
584.373000	-0.293772
584.568000	-0.303600
584.763000	-0.327412
584.958000	-0.395322
585.153000	-0.256861
585.348000	-0.227993
585.543000	-0.113198
585.738000	-0.201992
585.933000	-0.432053
586.128000	-0.215036
586.324000	-0.123910
586.519000	-0.079318
586.714000	-0.066282
586.909000	-0.034906
587.104000	0.065041
587.299000	-0.076933
587.494000	-0.158115
587.689000	-0.258263
587.884000	-0.266947
588.079000	-0.266965
588.274000	-0.219932
588.469000	-0.227397
588.664000	-0.111605
588.859000	-0.111767
589.055000	-0.164801
589.250000	-0.204578
589.445000	-0.358510
589.640000	-0.297806
589.835000	-0.035354
590.030000	0.092213
590.225000	0.086914
590.420000	-0.163157
590.615000	-0.256543
590.810000	-0.245612
591.005000	-0.235929
591.200000	-0.286814
591.395000	-0.385657
591.591000	-0.248925
591.786000	-0.136754
591.981000	-0.254800
592.176000	-0.150834
592.371000	-0.156252
592.566000	-0.241842
592.761000	-0.054360
592.956000	-0.070546
593.151000	-0.019591
593.346000	-0.113834
593.541000	-0.043820
593.736000	-0.068224
593.931000	-0.267891
594.126000	-0.211550
594.322000	-0.173718
594.517000	-0.243912
594.712000	-0.362921
594.907000	-0.353379
595.102000	-0.220779
595.297000	-0.093085
595.492000	-0.052489
595.687000	-0.207923
595.882000	-0.357982
596.077000	-0.233017
596.272000	-0.003551
596.467000	0.051090
596.662000	-0.115680
596.857000	-0.105159
597.053000	-0.130088
597.248000	-0.146526
597.443000	-0.072397
597.638000	-0.133278
597.833000	-0.365413
598.028000	-0.177372
598.223000	-0.064399
598.418000	-0.169729
598.613000	-0.263835
598.808000	-0.136590
599.003000	-0.114549
599.198000	-0.242440
599.393000	-0.231262
599.589000	-0.162296
599.784000	-0.279410
599.979000	-0.190547
600.174000	-0.073424
600.369000	-0.255156
600.564000	-0.171537
600.759000	0.094414
600.954000	0.208927
601.149000	-0.006453
601.344000	-0.354689
601.539000	-0.180785
601.734000	-0.208628
601.929000	-0.403388
602.124000	-0.389638
602.320000	-0.184291
602.515000	0.086656
602.710000	0.067036
602.905000	-0.249722
603.100000	-0.314262
603.295000	-0.213005
603.490000	-0.128509
603.685000	-0.137043
603.880000	-0.185503
604.075000	-0.334068
604.270000	-0.266279
604.465000	-0.220448
604.660000	-0.448958
604.856000	-0.288912
605.051000	-0.023717
605.246000	-0.092222
605.441000	-0.258011
605.636000	-0.292382
605.831000	-0.252833
606.026000	-0.372938
606.221000	-0.393511
606.416000	-0.216091
606.611000	-0.020970
606.806000	-0.023821
607.001000	0.111211
607.196000	-0.095782
607.391000	-0.329225
607.587000	-0.130745
607.782000	-0.171378
607.977000	-0.413161
608.172000	-0.070280
608.367000	0.025162
608.562000	-0.180541
608.757000	-0.258702
608.952000	-0.262208
609.147000	0.161537
609.342000	-0.012490
609.537000	-0.242399
609.732000	-0.204894
609.927000	-0.338292
610.122000	-0.271855
610.318000	-0.012541
610.513000	0.013715
610.708000	-0.260873
610.903000	-0.272863
611.098000	-0.252930
611.293000	-0.291111
611.488000	-0.214917
611.683000	-0.209420
611.878000	-0.185980
612.073000	-0.121377
612.268000	-0.153872
612.463000	-0.033320
612.658000	-0.030372
612.854000	-0.139768
613.049000	-0.207825
613.244000	-0.063004
613.439000	-0.006806
613.634000	-0.276771
613.829000	-0.167060
614.024000	-0.265610
614.219000	-0.271519
614.414000	0.067553
614.609000	-0.143949
614.804000	-0.325834
614.999000	-0.334471
615.194000	-0.227841
615.389000	-0.207181
615.585000	-0.387268
615.780000	-0.216728
615.975000	-0.268222
616.170000	-0.250381
616.365000	-0.058070
616.560000	0.089448
616.755000	0.035344
616.950000	-0.118772
617.145000	-0.028132
617.340000	-0.224970
617.535000	-0.424801
617.730000	-0.128251
617.925000	-0.310670
618.120000	-0.368486
618.316000	-0.040491
618.511000	-0.131947
618.706000	-0.260849
618.901000	-0.169021
619.096000	-0.080691
619.291000	-0.227759
619.486000	-0.197730
619.681000	-0.474863
619.876000	-0.533106
620.071000	-0.364235
620.266000	-0.118209
620.461000	-0.050398
620.656000	-0.065981
620.852000	-0.143242
621.047000	-0.273849
621.242000	-0.379794
621.437000	-0.000934
621.632000	0.083291
621.827000	-0.160175
622.022000	-0.422773
622.217000	-0.279790
622.412000	-0.035443
622.607000	-0.057454
622.802000	-0.305640
622.997000	-0.350836
623.192000	-0.246794
623.387000	-0.174337
623.583000	-0.402116
623.778000	-0.032626
623.973000	-0.051665
624.168000	-0.099444
624.363000	-0.032674
624.558000	0.053067
624.753000	-0.214544
624.948000	-0.020121
625.143000	-0.052098
625.338000	-0.177046
625.533000	-0.247556
625.728000	-0.151644
625.923000	-0.000962
626.119000	-0.132800
626.314000	-0.351793
626.509000	-0.349645
626.704000	-0.279354
626.899000	-0.230998
627.094000	-0.344870
627.289000	-0.339159
627.484000	-0.294326
627.679000	-0.271753
627.874000	-0.193707
628.069000	0.116786
628.264000	-0.023859
628.459000	-0.194269
628.654000	-0.266584
628.850000	-0.362943
629.045000	-0.211815
629.240000	-0.169160
629.435000	-0.268432
629.630000	-0.229243
629.825000	-0.189542
630.020000	-0.160400
630.215000	-0.386012
630.410000	-0.324228
630.605000	-0.327829
630.800000	-0.311106
630.995000	-0.107945
631.190000	0.166452
631.385000	-0.024463
631.581000	-0.155423
631.776000	-0.115215
631.971000	-0.280712
632.166000	-0.156146
632.361000	-0.284568
632.556000	-0.146370
632.751000	-0.004409
632.946000	-0.160461
633.141000	-0.276642
633.336000	-0.253219
633.531000	-0.086490
633.726000	-0.181985
633.921000	-0.377626
634.117000	-0.519143
634.312000	-0.602097
634.507000	-0.482405
634.702000	-0.342043
634.897000	-0.263193
635.092000	-0.153214
635.287000	-0.091144
635.482000	-0.181723
635.677000	-0.074034
635.872000	-0.014947
636.067000	0.047733
636.262000	-0.154950
636.457000	-0.460876
636.652000	-0.510407
636.848000	-0.469567
637.043000	-0.348632
637.238000	-0.307303
637.433000	-0.413219
637.628000	-0.335705
637.823000	-0.075142
638.018000	-0.078821
638.213000	-0.277377
638.408000	-0.398191
638.603000	-0.452026
638.798000	-0.420678
638.993000	-0.307475
639.188000	-0.371735
639.383000	-0.307842
639.579000	0.105832
639.774000	-0.215471
639.969000	-0.401450
640.164000	-0.416700
640.359000	-0.366934
640.554000	-0.112413
640.749000	-0.152338
640.944000	-0.062439
641.139000	-0.112737
641.334000	-0.325830
641.529000	-0.695259
641.724000	-0.522357
641.919000	-0.360218
642.115000	-0.033818
642.310000	0.009804
642.505000	-0.149912
642.700000	-0.193820
642.895000	-0.354899
643.090000	-0.245398
643.285000	-0.114145
643.480000	-0.063233
643.675000	-0.059629
643.870000	0.277462
644.065000	0.156812
644.260000	-0.280132
644.455000	-0.203411
644.650000	-0.340350
644.846000	-0.229732
645.041000	-0.366016
645.236000	-0.551652
645.431000	-0.496941
645.626000	-0.614978
645.821000	-0.381855
646.016000	-0.312532
646.211000	-0.015972
646.406000	-0.123922
646.601000	-0.131235
646.796000	-0.283600
646.991000	-0.495542
647.186000	-0.358787
647.381000	-0.146515
647.577000	-0.146656
647.772000	-0.064562
647.967000	-0.128255
648.162000	-0.132100
648.357000	-0.169750
648.552000	-0.012361
648.747000	-0.106066
648.942000	-0.038628
649.137000	-0.083888
649.332000	-0.302466
649.527000	-0.381406
649.722000	-0.031240
649.917000	0.074365
650.113000	-0.291446
650.308000	-0.405130
650.503000	-0.386044
650.698000	-0.160086
650.893000	-0.247307
651.088000	-0.164095
651.283000	-0.001139
651.478000	-0.327769
651.673000	-0.095993
651.868000	-0.282472
652.063000	-0.027808
652.258000	0.033167
652.453000	0.158549
652.648000	-0.134400
652.844000	-0.168788
653.039000	-0.115642
653.234000	-0.589080
653.429000	-0.658974
653.624000	-0.333638
653.819000	-0.112223
654.014000	-0.211848
654.209000	-0.350679
654.404000	-0.208347
654.599000	-0.289659
654.794000	-0.285320
654.989000	0.029656
655.184000	-0.070564
655.380000	-0.355620
655.575000	-0.398047
655.770000	-0.367830
655.965000	-0.252101
656.160000	-0.306312
656.355000	-0.097707
656.550000	-0.125123
656.745000	-0.163972
656.940000	-0.226180
657.135000	-0.063222
657.330000	-0.024445
657.525000	-0.362283
657.720000	-0.148979
657.915000	-0.055573
658.111000	-0.207213
658.306000	0.061085
658.501000	-0.118161
658.696000	-0.352003
658.891000	-0.157168
659.086000	-0.254564
659.281000	-0.157361
659.476000	-0.321817
659.671000	-0.720599
659.866000	-0.454924
660.061000	-0.126431
660.256000	-0.032503
660.451000	-0.099165
660.646000	-0.366175
660.842000	-0.166207
661.037000	-0.339222
661.232000	-0.457799
661.427000	-0.280439
661.622000	-0.375528
661.817000	-0.438457
662.012000	-0.194700
662.207000	-0.384531
662.402000	-0.460776
662.597000	-0.306470
662.792000	-0.571577
662.987000	-0.586939
663.182000	-0.298651
663.378000	-0.235381
663.573000	-0.550306
663.768000	-0.541223
663.963000	-0.386783
664.158000	-0.334800
664.353000	0.146352
664.548000	0.297783
664.743000	-0.065052
664.938000	-0.440150
665.133000	-0.372896
665.328000	0.050834
665.523000	-0.081413
665.718000	-0.257906
665.913000	-0.290429
666.109000	-0.266923
666.304000	-0.073652
666.499000	-0.166114
666.694000	-0.009277
666.889000	0.269010
667.084000	-0.025494
667.279000	-0.231736
667.474000	-0.211634
667.669000	-0.215628
667.864000	-0.199682
668.059000	-0.208099
668.254000	-0.220548
668.449000	-0.359050
668.644000	-0.310539
668.840000	-0.045930
669.035000	-0.245447
669.230000	-0.450495
669.425000	-0.230100
669.620000	-0.397638
669.815000	-0.358063
670.010000	-0.283973
670.205000	-0.177579
670.400000	-0.205920
670.595000	-0.120314
670.790000	-0.247942
670.985000	-0.289363
671.180000	-0.034202
671.376000	-0.343559
671.571000	-0.451792
671.766000	-0.398978
671.961000	-0.527614
672.156000	-0.532421
672.351000	-0.291800
672.546000	-0.358967
672.741000	-0.266873
672.936000	-0.192417
673.131000	0.369626
673.326000	0.007104
673.521000	-0.494774
673.716000	-0.565862
673.911000	-0.716935
674.107000	-0.148017
674.302000	0.166582
674.497000	-0.076875
674.692000	-0.388012
674.887000	-0.482135
675.082000	-0.385699
675.277000	0.019883
675.472000	-0.158003
675.667000	-0.400067
675.862000	-0.425739
676.057000	-0.247629
676.252000	-0.154510
676.447000	-0.342633
676.643000	-0.184606
676.838000	0.109778
677.033000	-0.210882
677.228000	0.058749
677.423000	-0.065650
677.618000	-0.500376
677.813000	-0.555982
678.008000	-0.191100
678.203000	-0.091981
678.398000	-0.356046
678.593000	-0.183060
678.788000	-0.148921
678.983000	-0.417596
679.178000	-0.309341
679.374000	-0.366274
679.569000	-0.371418
679.764000	-0.429293
679.959000	-0.452210
680.154000	-0.452302
680.349000	-0.682341
680.544000	-0.615610
680.739000	-0.431549
680.934000	-0.568215
681.129000	-0.464041
681.324000	-0.570508
681.519000	-0.258048
681.714000	-0.249283
681.909000	-0.434719
682.105000	-0.600031
682.300000	-0.170513
682.495000	0.020914
682.690000	-0.103915
682.885000	-0.273609
683.080000	-0.413120
683.275000	-0.350634
683.470000	-0.005829
683.665000	0.093013
683.860000	0.322731
684.055000	0.102234
684.250000	-0.334952
684.445000	-0.505455
684.641000	0.012189
684.836000	-0.177714
685.031000	-0.364426
685.226000	-0.228586
685.421000	0.139907
685.616000	-0.197328
685.811000	-0.330278
686.006000	-0.088158
686.201000	-0.152309
686.396000	-0.538567
686.591000	-0.502844
686.786000	-0.019814
686.981000	-0.088941
687.176000	-0.052201
687.372000	-0.218750
687.567000	-0.001388
687.762000	-0.029229
687.957000	-0.182328
688.152000	-0.424478
688.347000	-0.346064
688.542000	-0.515015
688.737000	-0.850823
688.932000	-0.847594
689.127000	-0.422749
689.322000	-0.043663
689.517000	-0.320597
689.712000	-0.576101
689.908000	-0.482377
690.103000	-0.511660
690.298000	-0.332186
690.493000	-0.314105
690.688000	-0.603845
690.883000	-0.429810
691.078000	0.012856
691.273000	0.112858
691.468000	-0.239991
691.663000	-0.317533
691.858000	-0.135562
692.053000	-0.102026
692.248000	-0.116515
692.443000	-0.159662
692.639000	-0.121557
692.834000	0.080437
693.029000	0.499664
693.224000	0.463306
693.419000	-0.297043
693.614000	-0.472381
693.809000	-0.555321
694.004000	-0.493090
694.199000	-0.517293
694.394000	-0.226077
694.589000	-0.460942
694.784000	-0.485875
694.979000	-0.128690
695.174000	-0.246749
695.370000	0.116065
695.565000	-0.129112
695.760000	-0.400030
695.955000	0.018250
696.150000	0.042925
696.345000	-0.397726
696.540000	-0.165224
696.740000	-0.289064
696.940000	-0.110652
697.140000	0.073317
697.340000	-0.236320
697.539000	-0.086480
697.739000	-0.221538
697.939000	-0.111596
698.139000	-0.582607
698.339000	-0.866379
698.539000	-0.579433
698.739000	-0.510445
698.939000	-0.411456
699.138000	-0.625048
699.338000	0.064161
699.538000	0.206402
699.738000	-0.281264
699.938000	-0.393491
700.138000	-0.419653
700.338000	-0.512912
700.538000	-0.227104
700.737000	-0.221904
700.937000	-0.630016
701.137000	-0.651454
701.337000	-0.068416
701.537000	-0.006702
701.737000	-0.228095
701.937000	-0.264736
702.137000	-0.326679
702.337000	-0.482310
702.536000	-0.633515
702.736000	-0.582415
702.936000	-0.650795
703.136000	-0.147422
703.336000	-0.220301
703.536000	-0.424592
703.736000	-0.713761
703.936000	-0.618218
704.135000	-0.597015
704.335000	-0.310605
704.535000	-0.568809
704.735000	-0.679799
704.935000	-0.195690
705.135000	-0.228274
705.335000	-0.430040
705.535000	-0.213309
705.735000	-0.266193
705.934000	-0.176137
706.134000	-0.345514
706.334000	-0.516053
706.534000	-0.623022
706.734000	-0.442787
706.934000	-0.549068
707.134000	-0.639594
707.334000	-0.310621
707.533000	-0.257816
707.733000	-0.289633
707.933000	-0.434084
708.133000	-0.278906
708.333000	-0.124901
708.533000	-0.484954
708.733000	-0.264724
708.933000	-0.377820
709.132000	-0.421634
709.332000	-0.282104
709.532000	-0.525991
709.732000	-0.390274
709.932000	-0.737507
710.132000	-0.785712
710.332000	-0.974528
710.532000	-0.201794
710.732000	0.020072
710.931000	-0.381651
711.131000	-0.426744
711.331000	-0.312532
711.531000	-0.553459
711.731000	-0.516511
711.931000	-0.435072
712.131000	-0.478389
712.331000	-0.242834
712.530000	-0.384887
712.730000	-0.583516
712.930000	-0.380283
713.130000	-0.321042
713.330000	-0.409656
713.530000	-0.400096
713.730000	0.147821
713.930000	-0.184302
714.129000	-0.571127
714.329000	-0.728264
714.529000	-0.361916
714.729000	0.026103
714.929000	-0.173838
715.129000	-0.457846
715.329000	-0.374747
715.529000	-0.404237
715.729000	0.243872
715.928000	0.076646
716.128000	-0.359957
716.328000	-0.243117
716.528000	-0.327711
716.728000	-0.232208
716.928000	-0.412167
717.128000	-0.317283
717.328000	-0.418656
717.527000	-0.605333
717.727000	-0.487337
717.927000	-0.307619
718.127000	-0.336136
718.327000	-0.836469
718.527000	-0.756588
718.727000	-0.388018
718.927000	-0.439943
719.127000	-0.721711
719.326000	-0.696019
719.526000	-0.081532
719.726000	-0.127411
719.926000	-0.712842
720.126000	-0.712957
720.326000	-0.368755
720.526000	-0.391768
720.726000	-0.318158
720.925000	-0.249277
721.125000	-0.625791
721.325000	-0.278754
721.525000	-0.215791
721.725000	-0.337320
721.925000	-0.442710
722.125000	-0.506576
722.325000	-0.024949
722.524000	-0.385846
722.724000	-0.782557
722.924000	-0.887388
723.124000	-0.690141
723.324000	-0.305422
723.524000	-0.153727
723.724000	-0.662850
723.924000	-0.447986
724.124000	-0.289559
724.323000	-0.048813
724.523000	-0.266178
724.723000	0.004122
724.923000	-0.160804
725.123000	-0.196353
725.323000	-0.090377
725.523000	-0.333199
725.723000	-0.652102
725.922000	-0.540381
726.122000	-0.173614
726.322000	-0.292910
726.522000	-0.477560
726.722000	0.140786
726.922000	-0.209551
727.122000	-0.281764
727.322000	0.033998
727.521000	-0.175191
727.721000	-0.385029
727.921000	-0.211387
728.121000	-0.289162
728.321000	-0.841494
728.521000	-0.518937
728.721000	-0.248766
728.921000	-0.230615
729.121000	0.673685
729.320000	0.306120
729.520000	-0.273541
729.720000	-0.540121
729.920000	-0.481921
730.120000	-0.347339
730.320000	-0.305654
730.520000	-0.634051
730.720000	-0.629951
730.919000	-0.392045
731.119000	-0.087349
731.319000	-0.644253
731.519000	-0.760396
731.719000	-0.467114
731.919000	-0.657249
732.119000	-1.143043
732.319000	-1.029691
732.519000	-0.346698
732.718000	-0.710954
732.918000	-0.754765
733.118000	-0.515362
733.318000	-0.181795
733.518000	-0.454835
733.718000	-0.983636
733.918000	-0.884732
734.118000	-0.685537
734.317000	-0.370063
734.517000	-0.556507
734.717000	-0.390116
734.917000	-0.001883
735.117000	-0.228064
735.317000	-0.297098
735.517000	0.287830
735.717000	0.452920
735.916000	-0.387282
736.116000	-0.544754
736.316000	-0.452846
736.516000	-0.325719
736.716000	-0.395762
736.916000	-0.952298
737.116000	-0.674918
737.316000	0.055753
737.516000	-0.130349
737.715000	-0.168983
737.915000	-0.670453
738.115000	-0.846692
738.315000	-0.473027
738.515000	-0.582620
738.715000	-0.300484
738.915000	0.160516
739.115000	-0.425063
739.314000	-0.561254
739.514000	0.030676
739.714000	0.011124
739.914000	-0.218531
740.114000	-0.357011
740.314000	-0.074350
740.514000	0.373639
740.714000	-0.504501
740.913000	-0.948891
741.113000	-0.758046
741.313000	-0.333594
741.513000	-0.593912
741.713000	-0.568833
741.913000	-0.424119
742.113000	-0.443543
742.313000	-0.873560
742.513000	-0.592535
742.712000	-0.459810
742.912000	-0.783162
743.112000	-0.718242
743.312000	-0.827723
743.512000	-0.395464
743.712000	-0.301462
743.912000	-0.888125
744.112000	-1.052383
744.311000	-1.103099
744.511000	-0.707726
744.711000	-0.372946
744.911000	-0.744896
745.111000	-0.663182
745.311000	-0.105568
745.511000	-0.437365
745.711000	-0.548432
745.911000	-0.299848
746.110000	-0.854247
746.310000	-1.061392
746.510000	-0.801801
746.710000	-0.316463
746.910000	-0.120964
747.110000	-0.562374
747.310000	-0.942203
747.510000	-0.811987
747.709000	-0.361567
747.909000	-0.397825
748.109000	-0.129748
748.309000	-0.357358
748.509000	-0.770628
748.709000	-0.866330
748.909000	-0.651867
749.109000	-0.453925
749.308000	0.148590
749.508000	-0.420030
749.708000	-0.513863
749.908000	-0.067040
750.108000	0.026751
750.308000	-0.872814
750.508000	-0.293137
750.708000	-0.627945
750.908000	-1.074116
751.107000	-0.382549
751.307000	0.078173
751.507000	-0.435072
751.707000	-0.265987
751.907000	-0.266641
752.107000	-0.267543
752.307000	-0.793498
752.507000	-0.625042
752.706000	-0.476428
752.906000	0.376458
753.106000	-0.464195
753.306000	-1.063525
753.506000	-0.107167
753.706000	-0.557930
753.906000	-0.437852
754.106000	-0.175222
754.305000	-0.258280
754.505000	-0.138160
754.705000	-0.192052
754.905000	-0.260757
755.105000	-0.116487
755.305000	-0.947678
755.505000	-0.774548
755.705000	-0.170720
755.905000	-0.301771
756.104000	-0.924540
756.304000	-1.281496
756.504000	-1.600732
756.704000	-0.506854
756.904000	-0.297113
757.104000	-0.505850
757.304000	-0.428794
757.504000	-0.103758
757.703000	-0.680934
757.903000	-0.283820
758.103000	0.138675
758.303000	-0.269488
758.503000	-0.475014
758.703000	-0.539290
758.903000	-0.792313
759.103000	-0.414283
759.303000	-0.368516
759.502000	-0.449523
759.702000	0.037512
759.902000	-0.459668
760.102000	-0.476852
760.302000	-0.486526
760.502000	-0.243743
760.702000	-0.139367
760.902000	-0.373779
761.101000	-0.617739
761.301000	-0.927016
761.501000	-0.675812
761.701000	-0.790980
761.901000	-0.517263
762.101000	0.030300
762.301000	-0.297268
762.501000	-0.846641
762.700000	-0.908176
762.900000	-0.892027
763.100000	-0.587941
763.300000	-0.424749
763.500000	-0.607503
763.703000	-0.688075
763.905000	-0.897981
764.108000	-0.168919
764.311000	-0.493508
764.513000	-0.652417
764.716000	-0.378981
764.919000	-0.446506
765.121000	-1.050072
765.324000	-1.095257
765.527000	-0.923640
765.729000	-0.687005
765.932000	0.056709
766.135000	-0.163308
766.337000	-0.510496
766.540000	-0.699035
766.743000	-0.413298
766.945000	-0.899255
767.148000	-1.337814
767.351000	-1.020978
767.553000	-0.234510
767.756000	-0.561530
767.958000	-0.974194
768.161000	-0.630807
768.364000	-0.909531
768.566000	-1.257778
768.769000	-0.706116
768.972000	-0.315233
769.174000	-0.821405
769.377000	-1.400299
769.580000	-1.385775
769.782000	-0.719836
769.985000	-1.029240
770.188000	-1.893626
770.390000	-1.045630
770.593000	0.385774
770.796000	-0.029153
770.998000	-0.294356
771.201000	-0.630921
771.404000	-0.498892
771.606000	-0.883420
771.809000	-0.589644
772.012000	-0.421477
772.214000	-1.233321
772.417000	-1.367235
772.620000	-0.180490
772.822000	-0.522369
773.025000	-0.961584
773.228000	-0.891553
773.430000	-0.839079
773.633000	-0.714525
773.836000	-0.507978
774.038000	-0.328762
774.241000	-0.482597
774.444000	-0.747462
774.646000	0.160625
774.849000	-0.302874
775.052000	-0.402854
775.254000	-0.066516
775.457000	-0.667289
775.659000	-0.641512
775.862000	-0.732939
776.065000	-0.533010
776.267000	-0.057697
776.470000	0.264016
776.673000	-0.601121
776.875000	-0.261280
777.078000	-0.242430
777.281000	-0.678236
777.483000	-0.021349
777.686000	-0.142286
777.889000	-0.524137
778.091000	-0.105562
778.294000	-1.038259
778.497000	-1.198382
778.699000	-1.040425
778.902000	-0.706303
779.105000	-0.274849
779.307000	0.335362
779.510000	-0.765431
779.713000	-0.409251
779.915000	-0.714050
780.118000	0.262929
780.321000	0.386800
780.523000	-0.460094
780.726000	-0.965361
780.929000	-1.117435
781.131000	-0.918802
781.334000	-1.305272
781.537000	-1.395354
781.739000	-0.531546
781.942000	-1.022585
782.145000	-1.443664
782.347000	-1.396196
782.550000	-1.174410
782.753000	-1.323975
782.955000	-1.113292
783.158000	-0.995823
783.361000	-0.705530
783.563000	-0.832526
783.766000	-0.854255
783.968000	1.143696
784.171000	0.912657
784.374000	-0.357416
784.576000	-0.495115
784.779000	-0.346919
784.982000	0.016803
785.184000	-0.440253
785.387000	0.136358
785.590000	0.613782
785.792000	0.206701
785.995000	-0.243021
786.198000	-0.083142
786.400000	-0.345039
786.603000	-0.547614
786.806000	-0.696730
787.008000	-0.374970
787.211000	-0.265344
787.414000	-1.177378
787.616000	-0.887134
787.819000	-0.583649
788.022000	-1.298408
788.224000	-0.483641
788.427000	-1.128452
788.630000	-0.732012
788.832000	-0.505597
789.035000	-1.088427
789.238000	-1.535611
789.440000	-1.203171
789.643000	0.007227
789.846000	-0.634662
790.048000	-0.387117
790.251000	-0.345686
790.454000	-0.738681
790.656000	-0.023916
790.859000	-0.555519
791.062000	-0.984572
791.264000	-0.336961
791.467000	-1.302213
791.669000	-1.734274
791.872000	-0.593632
792.075000	-1.109011
792.277000	-0.909052
792.480000	-0.458585
792.683000	-0.964306
792.885000	-1.398698
793.088000	-1.202219
793.291000	-1.343514
793.493000	-1.313992
793.696000	-0.621539
793.899000	-0.302539
794.101000	-0.592553
794.304000	-0.712026
794.507000	-0.325888
794.709000	-0.154229
794.912000	-0.804567
795.115000	-1.283491
795.317000	-0.805893
795.520000	-0.569751
795.723000	-0.703302
795.925000	-1.208206
796.128000	-1.523907
796.331000	-1.045985
796.533000	-1.466544
796.736000	-0.843657
796.939000	-0.690506
797.141000	-0.814569
797.344000	-0.003337
797.547000	0.174713
797.749000	-0.114785
797.952000	-0.709010
798.155000	-1.143338
798.357000	-1.442557
798.560000	-1.315015
798.763000	-0.568161
798.965000	-0.782034
799.168000	-0.693774
799.371000	-0.354657
799.573000	-0.617320
799.776000	-1.267230
799.978000	-1.477285
800.181000	-0.644473
800.384000	0.799098
800.586000	0.203404
800.789000	-1.485244
800.992000	-1.438322
801.194000	-1.429994
801.397000	-1.537498
801.600000	-1.264992
801.802000	0.054477
802.005000	-0.340693
802.208000	-1.810947
802.410000	-0.900619
802.613000	-0.822678
802.816000	-1.057958
803.018000	-1.471928
803.221000	-1.239293
803.424000	0.173367
803.626000	-0.239782
803.829000	-0.773779
804.032000	0.424149
804.234000	1.362321
804.437000	-0.289861
804.640000	-0.682927
804.842000	-0.780055
805.045000	-1.432213
805.248000	-1.122175
805.450000	-0.952858
805.653000	-1.055635
805.856000	-1.078640
806.058000	0.032713
806.261000	-0.938769
806.464000	-0.611479
806.666000	-0.308050
806.869000	-0.653134
807.072000	-1.988598
807.274000	-2.443548
807.477000	-1.245395
807.679000	-0.852692
807.882000	-1.458950
808.085000	-1.096313
808.287000	-0.289574
808.490000	-1.199118
808.693000	-1.050436
808.895000	-0.702325
809.098000	-0.677703
809.301000	-0.642403
809.503000	-0.947032
809.706000	-0.168184
809.909000	-0.092296
810.111000	-0.105087
810.314000	-0.384506
810.517000	-0.939800
810.719000	-1.377576
810.922000	-0.936324
811.125000	0.034415
811.327000	0.073070
811.530000	-0.492925
811.735000	-0.864851
811.940000	-1.356205
812.146000	-1.051504
812.351000	-0.391919
812.556000	-0.717582
812.761000	-1.266588
812.967000	-0.487642
813.172000	-0.356531
813.377000	-0.658940
813.582000	-0.135505
813.788000	-0.215920
813.993000	-1.285662
814.198000	-0.744642
814.403000	-1.616680
814.609000	-0.762214
814.814000	-0.698840
815.019000	0.236077
815.224000	0.369264
815.429000	-0.876288
815.635000	-0.555963
815.840000	-0.313995
816.045000	-0.410189
816.250000	-0.085424
816.456000	-1.430248
816.661000	-2.351017
816.866000	-1.699789
817.071000	-1.685053
817.277000	-2.479921
817.482000	-1.244170
817.687000	-0.472291
817.892000	-0.571896
818.097000	-0.059728
818.303000	0.245855
818.508000	0.827623
818.713000	7.215504
818.918000	4.032835
819.124000	0.372639
819.329000	-1.055390
819.534000	-1.522434
819.739000	-1.480384
819.945000	-1.134242
820.150000	-0.757144
820.355000	-0.587821
820.560000	-0.302346
820.766000	-0.673126
820.971000	-0.777200
821.176000	-2.170829
821.381000	-2.822664
821.586000	-1.846520
821.792000	-0.365396
821.997000	-0.842786
822.202000	-0.843615
822.407000	-1.179998
822.613000	-1.444278
822.818000	-1.098068
823.023000	-0.675996
823.228000	-0.606889
823.434000	-0.298065
823.639000	0.598880
823.844000	-0.550297
824.049000	-0.388298
824.255000	-0.345119
824.460000	-0.688994
824.665000	-0.958186
824.870000	0.025419
825.075000	-0.558426
825.281000	-0.470010
825.486000	0.901790
825.691000	-1.229923
825.896000	-2.596533
826.102000	-0.687076
826.307000	-0.491095
826.512000	-0.935501
826.717000	-1.183316
826.923000	-1.386268
827.128000	-0.727732
827.333000	-1.351832
827.538000	-0.315521
827.744000	0.338101
827.949000	-0.657813
828.154000	-0.473108
828.359000	-0.098320
828.564000	-0.945783
828.770000	-0.965443
828.975000	0.232042
829.180000	-0.226872
829.385000	-1.860280
829.591000	-1.310699
829.796000	-0.693036
830.001000	-0.774540
830.206000	-1.500884
830.412000	-1.290439
830.617000	-1.229120
830.822000	-0.571486
831.027000	-1.248656
831.232000	-1.337488
831.438000	-0.790486
831.643000	-0.561311
831.848000	-1.202478
832.053000	-0.762445
832.259000	-1.093147
832.464000	-2.964579
832.669000	-2.676602
832.874000	-1.843903
833.080000	-1.768854
833.285000	-0.371679
833.490000	-0.588771
833.695000	-1.868605
833.901000	-1.506303
834.106000	-1.711324
834.311000	-1.210847
834.516000	-0.396297
834.721000	-1.082710
834.927000	-0.297129
835.132000	-0.504217
835.337000	1.390817
835.542000	0.081483
835.748000	-1.683608
835.953000	-0.196203
836.158000	-0.562204
836.363000	-0.651838
836.569000	-0.357504
836.774000	-1.152021
836.979000	-1.718652
837.184000	-2.254013
837.390000	-1.903354
837.595000	-1.179221
837.800000	-1.074967
838.005000	-0.902189
838.210000	-1.405011
838.416000	-1.680657
838.621000	-1.089135
838.826000	-1.485588
839.031000	-1.638364
839.237000	-1.522655
839.442000	-2.312350
839.647000	-2.656237
839.852000	-1.896577
840.058000	-1.479627
840.263000	-1.672062
840.468000	-2.359553
840.673000	-1.266094
840.878000	-1.322952
841.084000	-1.834800
841.289000	-0.959940
841.494000	1.501766
841.699000	1.298779
841.905000	0.487139
842.110000	0.661286
842.315000	-1.438065
842.520000	-0.959655
842.726000	-1.478303
842.931000	-1.782844
843.136000	-0.891133
843.341000	-2.565360
843.547000	-1.669972
843.752000	-1.555647
843.957000	-2.330119
844.162000	-2.400050
844.367000	-1.244925
844.573000	-0.223195
844.778000	-0.025609
844.983000	-0.144160
845.188000	0.033744
845.394000	-1.988825
845.599000	-1.904026
845.804000	-1.669951
846.009000	-1.015356
846.215000	-1.851523
846.420000	-1.937856
846.625000	-0.556934
846.830000	0.359790
847.036000	-1.068260
847.241000	-1.626622
847.446000	0.075886
847.651000	-0.912406
847.856000	-2.541717
848.062000	-1.569575
848.267000	-0.152208
848.472000	-1.345334
848.677000	-2.628944
848.883000	-1.095009
849.088000	0.712725
849.293000	-0.813204
849.498000	-1.448330
849.704000	-0.899502
849.909000	-1.178993
850.114000	-1.669404
850.319000	-0.412408
850.524000	-0.693992
850.730000	-0.892398
850.935000	-0.809205
851.140000	-0.311049
851.345000	-0.571989
851.551000	-0.268313
851.756000	-0.028511
851.961000	-1.128075
852.166000	-1.392675
852.372000	-1.043354
852.577000	-1.362050
852.782000	-1.349992
852.987000	0.060275
853.193000	-0.432410
853.398000	-0.454951
853.603000	-2.005805
853.808000	-2.501268
854.013000	-1.318522
854.219000	0.265090
854.424000	1.881025
854.629000	1.178521
854.834000	-1.085419
855.040000	-1.230940
855.245000	-0.467253
855.450000	-2.553949
855.655000	-3.788109
855.861000	-3.301716
856.066000	-2.369501
856.271000	-2.537316
856.476000	-0.383201
856.682000	-1.139869
856.887000	-3.803293
857.092000	-2.157271
857.297000	0.253841
857.502000	-0.720236
857.708000	-0.840722
857.913000	0.302994
858.118000	-1.042566
858.323000	-1.456153
858.529000	-1.164568
858.734000	-1.796332
858.939000	-1.389411
859.144000	-2.221335
859.350000	-3.097654
859.555000	-2.960882
859.760000	-0.939985
859.965000	-0.326323
860.171000	-2.200497
860.376000	-0.898225
860.581000	-2.538137
860.786000	-4.616736
860.991000	-3.710996
861.197000	-2.508334
861.402000	-1.085965
861.607000	-0.986275
861.812000	-2.578373
862.018000	-3.170181
862.223000	-1.604552
862.428000	-0.849077
862.633000	0.119894
862.839000	-0.623765
863.044000	-1.690221
863.249000	-2.356792
863.454000	-0.550378
863.659000	-1.536924
863.865000	-2.169684
864.070000	-1.966456
864.275000	-2.466760
864.480000	-2.688274
864.686000	-4.518109
864.891000	-3.439580
865.096000	-1.201291
865.301000	-0.831583
865.507000	-0.622680
865.712000	-0.168353
865.917000	-1.594842
866.122000	-0.924988
866.328000	-3.560924
866.533000	-3.314525
866.738000	-0.062413
866.943000	-0.116931
867.148000	0.866875
867.354000	-2.433624
867.559000	-3.757632
867.764000	-1.809043
867.969000	-0.342482
868.175000	-2.172832
868.380000	-2.737402
868.585000	-3.047688
868.790000	-1.015672
868.996000	-1.698342
869.201000	-3.255917
869.406000	-4.092413
869.611000	-3.104184
869.817000	-2.760306
870.022000	1.386802
870.227000	-0.236935
870.432000	-2.188810
870.637000	-1.358442
870.843000	-2.175158
871.048000	-1.916104
871.253000	0.020242
871.458000	-1.403792
871.664000	-3.372384
871.869000	-4.304379
872.074000	-3.373018
872.279000	-1.749113
872.485000	-1.849443
872.690000	-2.125795
872.895000	-2.404023
873.100000	-3.276094
873.306000	-3.410426
873.511000	-1.736796
873.716000	-0.434391
873.921000	-2.372312
874.126000	-2.922315
874.332000	-2.338209
874.537000	-0.902339
874.742000	-1.267792
874.947000	-1.458134
875.153000	0.115131
875.358000	-1.194558
875.563000	-1.598538
875.768000	-4.452760
875.974000	-4.753837
876.179000	-0.607587
876.384000	-0.926882
876.589000	-2.882452
876.794000	-2.342461
877.000000	-2.824146
877.205000	-4.162172
877.410000	-1.775145
877.615000	-3.021937
877.821000	-4.632917
878.026000	-3.470736
878.231000	-4.019708
878.436000	-3.929277
878.642000	-3.206250
878.847000	-1.807735
879.052000	-1.021726
879.257000	-2.676948
879.463000	-4.098451
879.668000	-3.703909
879.873000	-0.804659
880.078000	-3.296229
880.283000	-5.175203
880.489000	-4.508627
880.694000	-3.390306
880.899000	-2.269386
881.104000	-1.195165
881.310000	0.971682
881.515000	-0.686497
881.720000	0.159325
881.925000	2.410171
882.131000	4.455858
882.336000	0.676785
882.541000	-3.161237
882.746000	-2.794080
882.952000	-3.416423
883.157000	-3.076432
883.362000	-3.220736
883.567000	-4.250386
883.772000	-3.830097
883.978000	-2.524329
884.183000	-1.039704
884.388000	-1.639106
884.593000	-3.729319
884.799000	0.736394
885.004000	-0.407671
885.209000	-2.501214
885.414000	-1.557451
885.620000	-3.670000
885.825000	-0.631266
886.030000	-0.848540
886.235000	-2.832403
886.440000	-2.080105
886.646000	-4.718954
886.851000	-4.966224
887.056000	-1.468851
887.261000	-1.357812
887.467000	-3.691905
887.672000	-1.334815
887.877000	-2.595832
888.082000	-5.204989
888.288000	-5.642578
888.493000	-8.157521
888.698000	-6.206784
888.903000	-2.982123
889.109000	-3.553427
889.314000	-0.358241
889.519000	-1.699973
889.724000	0.564910
889.929000	-1.050345
890.135000	-2.480544
890.340000	-1.838341
890.545000	-3.507962
890.750000	-4.489048
890.956000	-3.332095
891.161000	-1.025879
891.366000	-3.375803
891.571000	-2.325087
891.777000	-1.934801
891.982000	-0.366766
892.187000	-0.883218
892.392000	-0.130389
892.598000	-0.091396
892.803000	-0.934070
893.008000	-3.576384
893.213000	-3.526995
893.418000	-2.908256
893.624000	-3.771807
893.829000	-5.593427
894.034000	-2.889816
894.239000	-2.089436
894.445000	-4.482087
894.650000	-4.504679
894.855000	-4.264949
895.060000	-4.012894
895.266000	-3.504446
895.471000	-5.191943
895.676000	-1.332425
895.881000	-0.719795
896.087000	-2.675824
896.292000	-5.080697
896.497000	-1.275359
896.702000	-2.024850
896.907000	-3.959378
897.113000	0.956627
897.318000	0.661297
897.523000	0.620809
897.728000	-1.708496
897.934000	-2.548146
898.139000	-2.300927
898.344000	-0.226694
898.549000	-1.733551
898.755000	-3.157549
898.960000	-3.827193
899.165000	-5.563416
899.370000	-1.798437
899.575000	1.471235
899.781000	-3.340473
899.986000	-3.428213
900.191000	-2.348543
900.396000	-2.880636
900.602000	-2.276628
900.807000	-1.801102
901.012000	-1.273031
901.217000	-0.239004
901.423000	-2.934615
901.628000	-4.793169
901.833000	-0.919905
902.038000	-0.561714
902.244000	-3.383803
902.449000	-3.495350
902.654000	-3.208136
902.859000	-1.768888
903.064000	-0.106735
903.270000	-0.060545
903.475000	-4.068970
903.680000	-5.787593
903.885000	-5.270537
904.091000	-4.778742
904.296000	-6.076503
904.501000	-6.338364
904.706000	-5.070789
904.912000	-0.255553
905.117000	-1.612374
905.322000	-4.212537
905.527000	-5.018969
905.733000	-4.341611
905.938000	-3.683867
906.143000	-4.668833
906.348000	-7.199636
906.553000	-2.011195
906.759000	0.034912
906.964000	-1.518695
907.169000	-3.190591
907.374000	-5.547171
907.580000	-4.413844
907.785000	-4.438474
907.990000	25.186069
908.195000	16.189704
908.401000	0.400284
908.606000	-6.810867
908.811000	-9.519471
909.016000	-3.301068
909.221000	-2.474485
909.427000	-2.909474
909.632000	-5.164149
909.837000	-4.398472
910.042000	-6.608779
910.248000	-8.742338
910.453000	-4.346210
910.658000	-4.652028
910.863000	-5.083022
911.069000	-6.796592
911.274000	-1.228295
911.479000	0.703827
911.684000	-6.107352
911.890000	-3.920768
912.095000	-3.423036
912.300000	-7.102976
912.506000	-5.700001
912.711000	-5.657091
912.917000	-3.552381
913.123000	-1.957552
913.328000	-3.347827
913.534000	-3.320586
913.740000	6.285090
913.946000	2.035131
914.151000	-4.952594
914.357000	-6.098201
914.563000	-2.835253
914.768000	-6.703035
914.974000	-6.594612
915.180000	-5.632476
915.385000	-5.715656
915.591000	-7.967793
915.797000	-2.349701
916.002000	1.340103
916.208000	-2.477564
916.414000	-5.985353
916.620000	-7.306163
916.825000	-2.892881
917.031000	-2.770027
917.237000	-10.439504
917.442000	-6.935410
917.648000	-6.861939
917.854000	-7.879948
918.059000	-1.756707
918.265000	-0.469154
918.471000	-3.442813
918.676000	-6.352040
918.882000	-8.299664
919.088000	-7.129844
919.294000	-11.961372
919.499000	-7.835656
919.705000	-1.766409
919.911000	-2.840907
920.116000	-1.037847
920.322000	-7.173186
920.528000	-5.978819
920.733000	-9.673255
920.939000	-11.526082
921.145000	-9.760722
921.350000	-8.406170
921.556000	-5.136336
921.762000	-4.556532
921.968000	-6.417247
922.173000	-8.463424
922.379000	-9.622477
922.585000	-4.892325
922.790000	-5.556402
922.996000	-8.241729
923.202000	-9.529772
923.407000	-8.692518
923.613000	-6.084712
923.819000	-3.328622
924.024000	-3.980150
924.230000	-3.479243
924.436000	-5.467401
924.642000	5.412907
924.847000	1.601270
925.053000	-5.355163
925.259000	-10.469557
925.464000	-3.917635
925.670000	-5.470908
925.876000	-6.083556
926.081000	-7.382138
926.287000	-4.464216
926.493000	-3.413271
926.698000	-5.601281
926.904000	-3.719321
927.110000	-5.034627
927.316000	-5.137018
927.521000	1.696999
927.727000	-3.769565
927.933000	-6.209570
928.138000	-5.145524
928.344000	-11.913494
928.550000	-8.614548
928.755000	-1.144020
928.961000	-6.721732
929.167000	-7.453663
929.372000	0.580970
929.578000	0.411298
929.784000	-5.491795
929.990000	-9.590657
930.195000	-6.508361
930.401000	-5.930641
930.607000	-4.958598
930.812000	-3.105646
931.018000	-7.209883
931.224000	-13.111109
931.429000	-9.005340
931.635000	-11.017605
931.841000	-11.218653
932.046000	-6.014737
932.252000	-2.003310
932.458000	3.672715
932.664000	-0.892525
932.869000	-7.810555
933.075000	-10.378597
933.281000	-8.858579
933.486000	-3.707478
933.692000	-5.521386
933.898000	-8.157557
934.103000	-2.748863
934.309000	-8.460971
934.515000	-4.420205
934.720000	-1.080013
934.926000	0.814160
935.132000	0.074074
935.338000	-3.561990
935.543000	-11.642183
935.749000	-12.408495
935.955000	-14.666045
936.160000	-12.721306
936.366000	-1.041738
936.572000	-2.547159
936.777000	-1.899932
936.983000	1.483791
937.189000	-3.921078
937.394000	-9.821806
937.600000	-0.155864
937.806000	2.862222
938.012000	-8.869462
938.217000	-0.902204
938.423000	-2.277821
938.629000	-9.374034
938.834000	-15.584811
939.040000	-16.562616
939.246000	-10.514623
939.451000	-10.000325
939.657000	-7.355558
939.863000	-13.156909
940.068000	-5.123852
940.274000	-9.873274
940.480000	-5.500495
940.686000	-1.987441
940.891000	-9.412624
941.097000	19.153057
941.303000	7.129411
941.508000	-9.236173
941.714000	-5.446698
941.920000	-16.323705
942.125000	-6.994210
942.331000	-6.008402
942.537000	-0.334355
942.742000	2.892920
942.948000	-10.031219
943.154000	-14.273025
943.360000	-23.456537
943.565000	-8.283795
943.771000	2.222970
943.977000	4.911185
944.182000	-14.588375
944.388000	-14.199953
944.594000	-0.045779
944.799000	7.198544
945.005000	-3.228302
945.211000	1.322515
945.416000	-2.979119
945.622000	-17.378456
945.828000	-16.001759
946.034000	-3.545196
946.239000	1.870419
946.445000	-3.509980
946.651000	-17.122785
946.856000	-18.265875
947.062000	-5.248629
947.268000	-3.063327
947.473000	-18.056223
947.679000	-19.288517
947.885000	-2.943273
948.090000	1.246033
948.296000	11.634365
948.502000	-1.994936
948.708000	-8.720203
948.913000	-13.955807
949.119000	-3.855884
949.325000	-8.660545
949.530000	-24.242219
949.736000	-25.810069
949.942000	-14.852998
950.147000	-19.103154
950.353000	-17.462494
950.559000	-8.925970
950.764000	10.568878
950.970000	6.965890
951.176000	-8.668988
951.382000	-17.273345
951.587000	-5.264111
951.793000	0.472180
951.999000	1.844628
952.204000	-12.063774
952.410000	-25.241026
952.616000	-13.061498
952.821000	-5.737493
953.027000	-17.656625
953.233000	-24.474812
953.438000	-17.926495
953.644000	2.954061
953.850000	-6.602398
954.056000	-13.111973
954.261000	-11.213540
954.467000	-2.399511
954.673000	3.186653
954.878000	-11.977463
955.084000	-8.736444
955.290000	-22.210663
955.495000	-23.186277
955.701000	-16.403240
955.907000	2.904188
956.112000	-0.795496
956.318000	5.078906
956.524000	6.435680
956.730000	-9.475689
956.935000	-16.117723
957.141000	-19.198595
957.347000	-4.246650
957.552000	-8.427350
957.758000	-24.233377
957.964000	-34.094490
958.169000	1.487875
958.375000	3.430775
958.581000	-13.887518
958.786000	-27.664193
958.992000	-33.447915
959.198000	-11.608953
959.404000	-2.638953
959.609000	-8.308128
959.815000	-14.280730
960.021000	2.768068
960.226000	-3.118714
960.432000	-28.406033
960.638000	-18.093696
960.843000	-9.566321
961.049000	-11.663403
961.255000	-2.571207
961.460000	-13.748669
961.666000	-34.441791
961.872000	-21.724701
962.078000	-17.839317
962.283000	-30.891870
962.489000	-29.628274
962.695000	-15.116381
962.900000	-13.266095
963.106000	-14.940911
963.312000	-21.339749
963.517000	-11.223359
963.723000	-17.452242
963.929000	-3.213271
964.134000	7.109184
964.340000	-20.931155
964.546000	-25.155568
964.752000	-26.979825
964.957000	-31.156202
965.163000	-4.980665
965.369000	-7.178172
965.574000	-9.406490
965.780000	-11.091196
966.000000	-15.175912
966.220000	-11.890171
966.440000	-16.802211
966.661000	-5.439471
966.881000	-22.338567
967.101000	-37.765517
967.321000	-35.120486
967.541000	-8.006811
967.761000	-16.625297
967.981000	-15.360985
968.202000	-8.284933
968.422000	3.270625
968.642000	-1.617445
968.862000	-6.107000
969.082000	-14.336660
969.302000	-7.169980
969.522000	-13.746049
969.743000	-0.861068
969.963000	-15.014250
970.183000	-25.651584
970.403000	-30.754175
970.623000	-35.166499
970.843000	-8.898935
971.063000	-0.923211
971.284000	-17.534988
971.504000	-32.417596
971.724000	-11.522424
971.944000	-25.072915
972.164000	-38.504033
972.384000	-30.297556
972.604000	-40.361925
972.825000	-44.662763
973.045000	-39.094102
973.265000	12.678239
973.485000	5.957493
973.705000	-5.261040
973.925000	-16.145368
974.145000	-56.191215
974.365000	-20.330044
974.586000	-15.360743
974.806000	-37.989569
975.026000	-10.313355
975.246000	-18.947981
975.466000	-26.887753
975.686000	-14.395919
975.906000	-24.907653
976.127000	-46.488164
976.347000	-40.559742
976.567000	-10.723077
976.787000	-14.086258
977.007000	-19.716854
977.227000	-19.595391
977.447000	-21.645696
977.668000	-45.280170
977.888000	-34.175844
978.108000	-30.491753
978.328000	-20.544920
978.548000	3.778747
978.768000	6.727079
978.988000	-8.756494
979.209000	-32.285581
979.429000	-28.708750
979.649000	-2.685123
979.869000	-23.123354
980.089000	-49.122469
980.309000	-51.963119
980.529000	-57.145244
980.750000	-35.876344
980.970000	-50.323888
981.190000	-35.314224
981.410000	-30.780714
981.630000	-32.095562
981.850000	-20.128982
982.070000	-25.528297
982.291000	-54.463777
982.511000	-41.139828
982.731000	-4.004289
982.951000	-34.756411
983.171000	-38.756947
983.391000	-19.960309
983.611000	10.789942
983.832000	-12.631426
984.052000	-41.312096
984.272000	-27.704218
984.492000	-28.227178
984.712000	-43.872675
984.932000	-64.991754
985.152000	-63.519764
985.373000	-48.627588
985.593000	-12.411077
985.813000	-11.894669
986.033000	-34.486653
986.253000	9.305544
986.473000	9.795013
986.693000	-36.687771
986.914000	-41.967454
987.134000	0.356931
987.354000	-31.280307
987.574000	194.982778
987.794000	123.288546
988.014000	-31.251036
988.234000	-17.615413
988.455000	-2.919424
988.675000	-3.487632
988.895000	-31.108584
989.115000	-51.789785
989.335000	-17.087601
989.555000	2.082850
989.775000	-43.936245
989.995000	-47.410336
990.216000	-29.637873
990.436000	-14.011574
990.656000	15.063167
990.876000	-23.398251
991.096000	-25.743770
991.316000	18.510083
991.536000	-14.781953
991.757000	-32.796598
991.977000	-76.068372
992.197000	-20.163444
992.417000	-29.247656
992.637000	-73.521483
992.857000	-82.811065
993.077000	-75.274751
993.298000	-38.603466
993.518000	-53.876012
993.738000	-105.352685
993.958000	-47.001804
994.178000	-59.392568
994.398000	-50.279779
994.618000	-81.555117
994.839000	-133.555443
995.059000	-35.689470
995.279000	35.726776
995.499000	-13.326712
995.719000	-0.964856
995.939000	-24.767918
996.159000	-35.188500
996.380000	-17.937336
996.600000	-68.126686
996.820000	-43.215737
997.040000	14.329241
997.260000	-52.072009
997.480000	-33.118966
997.700000	-103.622845
997.921000	-60.043382
998.141000	22.629303
998.361000	-1.072560
998.581000	-53.459590
998.801000	-78.167895
999.021000	-50.367901
999.241000	-28.470760
999.462000	-76.667269
999.682000	-124.276075
999.902000	-76.928351
1000.122000	-77.396485
1000.342000	-148.397506
1000.562000	-79.508459
1000.782000	-82.796276
1001.003000	-1119.580523
