Wavelength	Irradiance
(nm)	(mW/cm2/nm)

294.396000	0.000000
294.577000	0.000000
294.757000	0.000000
294.938000	-0.000000
295.118000	0.000000
295.299000	0.000000
295.479000	-0.000000
295.660000	-0.000000
295.840000	-0.000000
296.021000	-0.000000
296.202000	-0.000000
296.382000	-0.000000
296.563000	-0.000000
296.743000	-0.000000
296.924000	0.000000
297.104000	-0.000000
297.285000	-0.000000
297.465000	-0.000000
297.646000	-0.000000
297.826000	-0.000000
298.007000	0.000000
298.187000	0.000000
298.368000	-0.000000
298.548000	0.000000
298.729000	0.000000
298.909000	-0.000000
299.090000	-0.000000
299.270000	-0.000000
299.451000	-0.000000
299.631000	-0.000000
299.812000	-0.000000
299.992000	0.000000
300.173000	0.000000
300.353000	-0.000000
300.534000	-0.000000
300.714000	0.000000
300.895000	0.000000
301.075000	-0.000000
301.256000	0.000000
301.436000	-0.000000
301.617000	-0.000000
301.797000	-0.000000
301.978000	-0.000000
302.159000	0.000000
302.339000	0.000000
302.520000	-0.000000
302.700000	-0.000000
302.881000	0.000000
303.061000	0.000000
303.242000	0.000000
303.422000	0.000000
303.603000	-0.000000
303.783000	-0.000000
303.964000	-0.000000
304.144000	-0.000000
304.325000	-0.000000
304.505000	0.000000
304.686000	0.000000
304.866000	0.000000
305.047000	-0.000000
305.227000	-0.000000
305.408000	-0.000000
305.588000	-0.000000
305.769000	-0.000000
305.949000	-0.000000
306.130000	-0.000000
306.310000	-0.000000
306.491000	-0.000000
306.671000	0.000000
306.852000	-0.000000
307.032000	-0.000000
307.213000	-0.000000
307.393000	-0.000000
307.574000	0.000000
307.755000	0.000000
307.935000	0.000000
308.116000	-0.000000
308.296000	-0.000000
308.477000	0.000000
308.657000	0.000000
308.838000	0.000000
309.018000	0.000000
309.199000	-0.000000
309.379000	-0.000000
309.560000	0.000000
309.740000	-0.000000
309.921000	-0.000000
310.101000	-0.000000
310.282000	-0.000000
310.462000	-0.000000
310.643000	-0.000000
310.823000	-0.000000
311.004000	-0.000000
311.184000	-0.000000
311.365000	0.000000
311.545000	0.000000
311.726000	-0.000000
311.906000	-0.000000
312.087000	0.000000
312.267000	-0.000000
312.448000	-0.000000
312.628000	-0.000000
312.809000	-0.000000
312.989000	-0.000000
313.170000	-0.000000
313.344000	-0.000000
313.518000	-0.000000
313.691000	-0.000000
313.865000	-0.000000
314.039000	-0.000000
314.213000	-0.000000
314.387000	-0.000000
314.560000	-0.000000
314.734000	-0.000000
314.908000	-0.000000
315.082000	-0.000000
315.255000	0.000000
315.429000	0.000000
315.603000	0.000000
315.777000	-0.000000
315.951000	0.000000
316.124000	-0.000000
316.298000	-0.000000
316.472000	-0.000000
316.646000	-0.000000
316.820000	-0.000000
316.993000	0.000000
317.167000	-0.000000
317.341000	-0.000000
317.515000	-0.000000
317.688000	-0.000000
317.862000	-0.000000
318.036000	-0.000000
318.210000	-0.000000
318.384000	-0.000000
318.557000	-0.000000
318.731000	-0.000000
318.905000	-0.000000
319.079000	-0.000000
319.253000	-0.000000
319.426000	0.000000
319.600000	0.000000
319.774000	-0.000000
319.948000	-0.000000
320.122000	0.000000
320.295000	0.000000
320.469000	-0.000000
320.643000	-0.000000
320.817000	-0.000000
320.990000	-0.000000
321.164000	-0.000000
321.338000	-0.000000
321.512000	-0.000000
321.686000	-0.000000
321.859000	-0.000000
322.033000	-0.000000
322.207000	-0.000000
322.381000	-0.000000
322.555000	0.000000
322.728000	-0.000000
322.902000	-0.000000
323.076000	-0.000000
323.250000	-0.000000
323.423000	-0.000000
323.597000	-0.000000
323.771000	-0.000000
323.945000	-0.000000
324.119000	-0.000000
324.292000	0.000000
324.466000	-0.000000
324.640000	0.000000
324.814000	0.000000
324.988000	-0.000000
325.161000	-0.000000
325.335000	-0.000000
325.509000	-0.000000
325.683000	-0.000000
325.856000	-0.000000
326.030000	-0.000000
326.204000	-0.000000
326.378000	-0.000000
326.552000	-0.000000
326.725000	-0.000000
326.899000	-0.000000
327.073000	-0.000000
327.247000	-0.000000
327.421000	0.000000
327.594000	-0.000000
327.768000	-0.000000
327.942000	-0.000000
328.116000	0.000000
328.289000	0.000000
328.463000	-0.000000
328.637000	0.000000
328.811000	-0.000000
328.985000	-0.000000
329.158000	-0.000000
329.332000	-0.000000
329.506000	0.000000
329.680000	-0.000000
329.854000	-0.000000
330.027000	-0.000000
330.201000	0.000000
330.375000	0.000000
330.549000	0.000000
330.723000	-0.000000
330.896000	-0.000000
331.070000	-0.000000
331.244000	-0.000000
331.418000	-0.000000
331.591000	-0.000000
331.765000	-0.000000
331.939000	-0.000000
332.113000	-0.000000
332.287000	-0.000000
332.460000	0.000000
332.634000	0.000000
332.808000	-0.000000
332.982000	-0.000000
333.156000	-0.000000
333.329000	-0.000000
333.503000	-0.000000
333.677000	-0.000000
333.851000	-0.000000
334.024000	0.000000
334.198000	-0.000000
334.372000	-0.000000
334.546000	-0.000000
334.720000	-0.000000
334.893000	-0.000000
335.067000	-0.000000
335.241000	-0.000000
335.415000	-0.000000
335.589000	-0.000000
335.762000	-0.000000
335.936000	-0.000000
336.110000	-0.000000
336.284000	-0.000000
336.458000	-0.000000
336.631000	-0.000000
336.805000	-0.000000
336.979000	-0.000000
337.153000	-0.000000
337.326000	-0.000000
337.500000	-0.000000
337.674000	-0.000000
337.848000	-0.000000
338.022000	0.000000
338.195000	-0.000000
338.369000	-0.000000
338.543000	-0.000000
338.717000	-0.000000
338.891000	0.000000
339.064000	0.000000
339.238000	-0.000000
339.412000	-0.000000
339.586000	-0.000000
339.759000	-0.000000
339.933000	-0.000000
340.107000	0.000000
340.281000	-0.000000
340.455000	-0.000000
340.628000	-0.000000
340.802000	-0.000000
340.976000	-0.000000
341.150000	-0.000000
341.324000	-0.000000
341.497000	-0.000000
341.671000	-0.000000
341.845000	-0.000000
342.019000	-0.000000
342.192000	-0.000000
342.366000	-0.000000
342.540000	-0.000000
342.714000	-0.000000
342.888000	-0.000000
343.061000	0.000000
343.235000	-0.000000
343.409000	-0.000000
343.583000	-0.000000
343.757000	-0.000000
343.930000	-0.000000
344.104000	-0.000000
344.278000	0.000000
344.452000	0.000000
344.626000	-0.000000
344.799000	-0.000000
344.973000	-0.000000
345.147000	-0.000000
345.321000	-0.000000
345.494000	-0.000000
345.668000	0.000000
345.842000	0.000000
346.016000	-0.000000
346.190000	0.000000
346.363000	0.000000
346.537000	-0.000000
346.711000	-0.000000
346.885000	-0.000000
347.059000	-0.000000
347.232000	0.000000
347.406000	0.000000
347.580000	-0.000000
347.754000	-0.000000
347.927000	0.000000
348.101000	0.000000
348.275000	-0.000000
348.449000	-0.000000
348.623000	-0.000000
348.796000	0.000000
348.970000	0.000000
349.144000	-0.000000
349.318000	-0.000000
349.492000	-0.000000
349.665000	-0.000000
349.839000	-0.000000
350.013000	-0.000000
350.187000	-0.000000
350.361000	-0.000000
350.534000	-0.000000
350.708000	-0.000000
350.882000	-0.000000
351.056000	0.000000
351.229000	-0.000000
351.403000	-0.000000
351.577000	-0.000000
351.751000	-0.000000
351.925000	-0.000000
352.098000	-0.000000
352.272000	-0.000000
352.446000	-0.000000
352.620000	-0.000000
352.794000	-0.000000
352.967000	-0.000000
353.141000	0.000000
353.315000	0.000000
353.489000	-0.000000
353.662000	-0.000000
353.836000	-0.000000
354.010000	-0.000000
354.184000	-0.000000
354.358000	-0.000000
354.531000	-0.000000
354.705000	-0.000000
354.879000	-0.000000
355.053000	-0.000000
355.227000	0.000000
355.400000	-0.000000
355.574000	0.000000
355.748000	0.000000
355.922000	-0.000000
356.095000	-0.000000
356.269000	-0.000000
356.443000	-0.000000
356.617000	-0.000000
356.791000	-0.000000
356.964000	-0.000000
357.138000	-0.000000
357.312000	-0.000000
357.486000	-0.000000
357.660000	-0.000000
357.833000	-0.000000
358.007000	-0.000000
358.181000	-0.000000
358.355000	-0.000000
358.529000	-0.000000
358.702000	-0.000000
358.876000	-0.000000
359.050000	-0.000000
359.224000	-0.000000
359.397000	-0.000000
359.571000	-0.000000
359.745000	-0.000000
359.919000	-0.000000
360.093000	-0.055373
360.266000	-0.012468
360.440000	0.076801
360.614000	0.190395
360.788000	0.046109
360.962000	-0.218143
361.135000	-0.106622
361.309000	-0.238201
361.483000	-0.381957
361.657000	-0.305576
361.830000	-0.222762
362.004000	-0.007795
362.178000	-0.371284
362.352000	-0.260186
362.526000	-0.106903
362.699000	-0.081410
362.873000	-0.353638
363.047000	-0.363611
363.221000	-0.352630
363.395000	-0.248116
363.568000	-0.235072
363.742000	-0.270990
363.916000	-0.265497
364.090000	-0.333220
364.263000	-0.265876
364.437000	-0.397741
364.611000	-0.077495
364.785000	-0.063520
364.959000	-0.250000
365.132000	-0.259715
365.306000	-0.305858
365.480000	-0.140791
365.656000	-0.164561
365.831000	-0.183288
366.007000	-0.189569
366.183000	-0.158118
366.358000	-0.343951
366.534000	-0.195010
366.710000	-0.367500
366.886000	-0.331677
367.061000	-0.121054
367.237000	0.059468
367.413000	-0.052118
367.588000	-0.306883
367.764000	-0.291804
367.940000	-0.377798
368.115000	-0.297936
368.291000	-0.361324
368.467000	-0.273519
368.643000	0.123223
368.818000	-0.285289
368.994000	-0.451896
369.170000	-0.364651
369.345000	-0.279154
369.521000	-0.305361
369.697000	-0.162726
369.872000	-0.247786
370.048000	-0.420684
370.224000	-0.363139
370.399000	-0.546752
370.575000	-0.394746
370.751000	-0.484487
370.927000	-0.439489
371.102000	-0.361066
371.278000	-0.300367
371.454000	-0.202163
371.629000	0.003900
371.805000	-0.077279
371.981000	0.089367
372.156000	0.235558
372.332000	0.003832
372.508000	-0.051341
372.683000	-0.038116
372.859000	-0.106703
373.035000	-0.137441
373.211000	0.274502
373.386000	-0.009216
373.562000	-0.455176
373.738000	-0.564072
373.913000	-0.661668
374.089000	-0.470449
374.265000	-0.045331
374.440000	0.013919
374.616000	0.050264
374.792000	-0.202031
374.968000	0.106961
375.143000	-0.051242
375.319000	-0.249108
375.495000	-0.346219
375.670000	-0.299896
375.846000	-0.149272
376.022000	-0.322085
376.197000	-0.296569
376.373000	-0.468287
376.549000	-0.450676
376.724000	-0.477833
376.900000	-0.334824
377.076000	-0.191698
377.252000	0.101188
377.427000	0.149262
377.603000	-0.252256
377.779000	-0.242742
377.954000	-0.377815
378.130000	-0.203876
378.306000	-0.183617
378.481000	-0.163881
378.657000	-0.273212
378.833000	-0.373307
379.009000	-0.161874
379.184000	-0.021570
379.360000	-0.112566
379.536000	-0.091306
379.711000	-0.170177
379.887000	-0.339162
380.063000	-0.373265
380.238000	-0.375892
380.414000	-0.049707
380.590000	-0.345607
380.765000	-0.430038
380.941000	-0.184123
381.117000	-0.098942
381.293000	-0.154584
381.468000	-0.361589
381.644000	-0.257947
381.820000	-0.089799
381.995000	-0.011965
382.171000	0.136661
382.347000	0.089101
382.522000	-0.332412
382.698000	0.056894
382.874000	0.097387
383.050000	-0.398418
383.225000	-0.005647
383.401000	0.180028
383.577000	-0.195888
383.752000	-0.266714
383.928000	-0.216490
384.104000	-0.171046
384.279000	-0.222092
384.455000	-0.129244
384.631000	-0.151108
384.806000	-0.424819
384.982000	-0.234987
385.158000	-0.262030
385.334000	-0.116387
385.509000	-0.160158
385.685000	-0.461030
385.861000	-0.266344
386.036000	-0.405162
386.212000	-0.574560
386.388000	-0.395604
386.563000	-0.336606
386.739000	-0.327773
386.915000	-0.566497
387.090000	-0.273753
387.266000	-0.120555
387.442000	-0.030421
387.618000	-0.091773
387.793000	-0.375217
387.969000	-0.564400
388.145000	-0.454436
388.320000	-0.459349
388.496000	-0.408406
388.672000	-0.590866
388.847000	-0.177145
389.023000	-0.150525
389.199000	-0.461374
389.375000	-0.250015
389.550000	-0.326984
389.726000	-0.273076
389.902000	-0.501225
390.077000	-0.266996
390.253000	-0.198201
390.429000	-0.285510
390.604000	-0.222427
390.780000	-0.181800
390.956000	-0.279944
391.131000	-0.321561
391.307000	0.042784
391.483000	-0.183120
391.659000	-0.398261
391.834000	-0.197974
392.010000	-0.341930
392.186000	-0.378381
392.361000	-0.276712
392.537000	-0.363609
392.713000	0.145798
392.888000	0.312211
393.064000	-0.061951
393.240000	-0.260845
393.416000	-0.386204
393.591000	-0.436577
393.767000	-0.536415
393.943000	-0.420682
394.118000	-0.025780
394.294000	0.132330
394.470000	-0.101620
394.645000	-0.008150
394.821000	0.325565
394.997000	-0.045970
395.172000	-0.135446
395.348000	-0.231408
395.524000	-0.527668
395.700000	-0.378942
395.875000	-0.099977
396.051000	-0.208875
396.227000	-0.282695
396.402000	-0.266761
396.578000	-0.225501
396.754000	-0.417421
396.929000	-0.315111
397.105000	-0.016620
397.281000	-0.128337
397.457000	-0.219366
397.632000	-0.256622
397.808000	-0.522769
397.984000	-0.626983
398.159000	-0.502354
398.335000	-0.313065
398.511000	0.131484
398.686000	-0.110308
398.862000	-0.391941
399.038000	-0.475426
399.213000	-0.212486
399.389000	-0.490764
399.565000	-0.193727
399.741000	0.037127
399.916000	-0.073267
400.092000	0.133384
400.268000	-0.246076
400.443000	-0.328421
400.619000	0.051521
400.795000	-0.044891
400.970000	-0.285409
401.146000	-0.328745
401.322000	-0.024936
401.497000	0.272394
401.673000	0.009108
401.849000	-0.297286
402.025000	-0.132196
402.200000	-0.221980
402.376000	-0.351408
402.552000	0.082560
402.727000	-0.052907
402.903000	-0.367320
403.079000	-0.272022
403.254000	-0.036001
403.430000	-0.030173
403.606000	-0.153352
403.782000	-0.195084
403.957000	-0.391837
404.133000	-0.541783
404.309000	-0.367446
404.484000	-0.172990
404.660000	-0.165052
404.841000	-0.302780
405.023000	-0.055309
405.204000	-0.111505
405.385000	-0.396276
405.566000	-0.458935
405.748000	-0.288198
405.929000	0.000569
406.110000	-0.050059
406.292000	-0.230531
406.473000	-0.150160
406.654000	-0.325775
406.835000	-0.139621
407.017000	-0.189369
407.198000	-0.178971
407.379000	-0.178477
407.560000	-0.176273
407.742000	-0.213837
407.923000	-0.161827
408.104000	-0.314315
408.286000	-0.219130
408.467000	-0.152013
408.648000	-0.347260
408.829000	-0.437539
409.011000	-0.290946
409.192000	-0.439793
409.373000	-0.258288
409.555000	-0.160901
409.736000	-0.179178
409.917000	-0.260330
410.098000	-0.264121
410.280000	-0.166412
410.461000	-0.168849
410.642000	-0.171898
410.823000	0.066217
411.005000	0.003288
411.186000	-0.237966
411.367000	-0.323233
411.549000	-0.328483
411.730000	-0.144733
411.911000	0.038859
412.092000	-0.089491
412.274000	-0.186298
412.455000	-0.151409
412.636000	-0.121672
412.818000	-0.299726
412.999000	-0.418605
413.180000	-0.326527
413.361000	-0.276194
413.543000	-0.344882
413.724000	-0.435517
413.905000	-0.470524
414.087000	-0.428349
414.268000	-0.380969
414.449000	-0.379008
414.630000	-0.471711
414.812000	-0.583221
414.993000	-0.219817
415.174000	-0.068526
415.355000	-0.277401
415.537000	-0.491685
415.718000	-0.228517
415.899000	-0.339364
416.081000	-0.456971
416.262000	-0.242267
416.443000	-0.307471
416.624000	-0.264738
416.806000	-0.220513
416.987000	-0.097301
417.168000	-0.149282
417.350000	-0.359454
417.531000	-0.430424
417.712000	-0.372934
417.893000	-0.137841
418.075000	-0.098312
418.256000	-0.278576
418.437000	-0.104232
418.618000	-0.059496
418.800000	-0.048981
418.981000	-0.271686
419.162000	-0.213271
419.344000	-0.015037
419.525000	-0.114171
419.706000	-0.192584
419.887000	-0.061982
420.069000	0.078567
420.250000	-0.061901
420.431000	-0.152560
420.613000	-0.218454
420.794000	-0.412139
420.975000	-0.079611
421.156000	-0.250690
421.338000	-0.281538
421.519000	-0.265958
421.700000	-0.360160
421.882000	-0.339341
422.063000	-0.183230
422.244000	0.327528
422.425000	0.142678
422.607000	-0.260656
422.788000	-0.267247
422.969000	-0.337686
423.150000	-0.382017
423.332000	-0.463388
423.513000	-0.273542
423.694000	-0.259384
423.876000	-0.193819
424.057000	-0.113511
424.238000	-0.038499
424.419000	-0.041220
424.601000	-0.174251
424.782000	-0.155833
424.963000	0.010854
425.145000	-0.134232
425.326000	-0.100112
425.507000	-0.051013
425.688000	-0.160032
425.870000	-0.321859
426.051000	-0.391955
426.232000	-0.327376
426.413000	-0.303332
426.595000	-0.317244
426.776000	-0.345503
426.957000	-0.292532
427.139000	-0.206076
427.320000	-0.165486
427.501000	-0.054162
427.682000	-0.110904
427.864000	-0.118610
428.045000	0.088828
428.226000	0.034407
428.408000	-0.324993
428.589000	-0.232855
428.770000	-0.185758
428.951000	-0.257760
429.133000	-0.424371
429.314000	-0.269488
429.495000	-0.245527
429.677000	-0.269545
429.858000	-0.282710
430.039000	-0.200553
430.220000	-0.110349
430.402000	-0.089443
430.583000	-0.324086
430.764000	-0.304834
430.945000	-0.125462
431.127000	-0.040331
431.308000	-0.245958
431.489000	-0.045478
431.671000	0.056952
431.852000	-0.111614
432.033000	-0.193180
432.214000	-0.111408
432.396000	-0.113651
432.577000	-0.258820
432.758000	-0.437950
432.940000	-0.345810
433.121000	-0.164836
433.302000	-0.171896
433.483000	-0.045040
433.665000	0.076457
433.846000	-0.077960
434.027000	-0.175570
434.208000	-0.265773
434.390000	-0.349956
434.571000	0.000504
434.752000	0.361041
434.934000	0.090139
435.115000	-0.019471
435.296000	0.077858
435.477000	-0.061706
435.659000	-0.272785
435.840000	-0.162492
436.026000	-0.159549
436.211000	-0.282348
436.397000	-0.570398
436.582000	-0.391553
436.768000	-0.168440
436.953000	-0.268454
437.139000	-0.250792
437.325000	0.039348
437.510000	-0.014086
437.696000	0.131278
437.881000	0.077869
438.067000	-0.285647
438.252000	-0.184799
438.438000	-0.211118
438.624000	-0.201509
438.809000	-0.104894
438.995000	-0.018658
439.180000	-0.118756
439.366000	-0.230594
439.551000	-0.239802
439.737000	-0.144349
439.923000	-0.111256
440.108000	-0.260681
440.294000	-0.148640
440.479000	0.014623
440.665000	0.075450
440.850000	-0.027496
441.036000	-0.088281
441.222000	-0.161360
441.407000	-0.268328
441.593000	-0.136844
441.778000	-0.029721
441.964000	0.033112
442.149000	-0.264353
442.335000	-0.267647
442.521000	-0.175002
442.706000	-0.004139
442.892000	-0.134912
443.077000	-0.202125
443.263000	-0.082073
443.448000	-0.143324
443.634000	-0.202805
443.820000	0.095764
444.005000	-0.092527
444.191000	-0.258615
444.376000	-0.196329
444.562000	0.106106
444.747000	0.108920
444.933000	-0.001803
445.119000	-0.111945
445.304000	-0.223923
445.490000	-0.087091
445.675000	-0.051153
445.861000	-0.213257
446.046000	-0.226259
446.232000	-0.172151
446.418000	-0.109266
446.603000	-0.093582
446.789000	-0.122554
446.974000	-0.147599
447.160000	-0.348224
447.345000	-0.277473
447.531000	-0.350537
447.717000	-0.140358
447.902000	-0.044438
448.088000	0.011602
448.273000	-0.095003
448.459000	-0.169994
448.644000	-0.192232
448.830000	-0.244078
449.016000	-0.386023
449.201000	-0.310067
449.387000	-0.168497
449.572000	-0.052747
449.758000	-0.152379
449.943000	-0.259060
450.129000	-0.306628
450.315000	-0.270772
450.500000	-0.279835
450.686000	-0.222863
450.871000	-0.342583
451.057000	-0.222696
451.243000	-0.209198
451.428000	-0.213899
451.614000	-0.136236
451.799000	-0.184624
451.985000	-0.030390
452.170000	-0.003960
452.356000	-0.226007
452.542000	-0.210870
452.727000	-0.069776
452.913000	-0.230334
453.098000	-0.067687
453.284000	0.158608
453.469000	0.007038
453.655000	0.094849
453.841000	0.009207
454.026000	-0.137063
454.212000	-0.088792
454.397000	-0.097629
454.583000	-0.234768
454.768000	-0.327497
454.954000	-0.112564
455.140000	-0.073324
455.325000	-0.231159
455.511000	-0.343202
455.696000	-0.293207
455.882000	-0.140632
456.067000	0.033004
456.253000	-0.162423
456.439000	-0.314377
456.624000	-0.326327
456.810000	-0.340535
456.995000	-0.248075
457.181000	-0.266817
457.366000	-0.100351
457.552000	-0.121294
457.738000	-0.076364
457.923000	-0.082909
458.109000	0.124741
458.294000	0.071087
458.480000	-0.018866
458.665000	-0.108582
458.851000	-0.202272
459.037000	-0.340812
459.222000	-0.190343
459.408000	-0.175510
459.593000	-0.180991
459.779000	-0.050044
459.964000	0.116273
460.150000	0.245198
460.336000	0.143765
460.521000	-0.041450
460.707000	-0.108187
460.892000	-0.235131
461.078000	-0.041370
461.263000	0.058657
461.449000	-0.141529
461.635000	-0.135122
461.820000	-0.078663
462.006000	-0.041029
462.191000	-0.034685
462.377000	-0.246607
462.562000	0.076820
462.748000	0.280548
462.934000	-0.143946
463.119000	-0.350610
463.305000	-0.136539
463.490000	-0.176559
463.676000	-0.140302
463.861000	-0.159349
464.047000	-0.181304
464.233000	-0.096952
464.418000	-0.129265
464.604000	-0.268477
464.789000	-0.048151
464.975000	-0.007664
465.160000	-0.132924
465.346000	-0.114678
465.532000	-0.171458
465.717000	-0.237795
465.903000	-0.025797
466.088000	-0.080115
466.274000	-0.297997
466.459000	-0.270272
466.645000	0.102797
466.831000	0.084196
467.016000	0.111944
467.202000	0.004402
467.387000	-0.101355
467.573000	-0.265879
467.758000	0.004353
467.944000	-0.143987
468.130000	-0.273955
468.315000	-0.124918
468.501000	0.016253
468.686000	-0.064853
468.872000	-0.060919
469.057000	0.004350
469.243000	-0.074850
469.429000	-0.138112
469.614000	-0.244373
469.800000	-0.305575
469.985000	-0.157035
470.171000	-0.070186
470.356000	-0.141287
470.542000	-0.054914
470.728000	-0.080316
470.913000	-0.097545
471.099000	0.004306
471.284000	-0.106057
471.470000	-0.127927
471.655000	-0.143743
471.841000	-0.161001
472.027000	-0.173844
472.212000	0.041539
472.398000	0.067230
472.583000	-0.082258
472.769000	-0.052838
472.954000	-0.074410
473.140000	-0.219138
473.326000	-0.242970
473.511000	0.047399
473.697000	0.047454
473.882000	-0.084274
474.068000	-0.173208
474.253000	-0.239252
474.439000	-0.153066
474.625000	-0.056558
474.810000	-0.074286
474.996000	-0.103764
475.181000	-0.232607
475.367000	-0.085848
475.552000	0.120635
475.738000	-0.132893
475.924000	-0.133191
476.109000	-0.070300
476.295000	-0.198044
476.480000	-0.133346
476.666000	-0.140998
476.851000	-0.133072
477.037000	-0.072606
477.223000	-0.186304
477.408000	-0.286610
477.594000	-0.370789
477.779000	-0.265280
477.965000	-0.194502
478.151000	-0.296810
478.336000	-0.155240
478.522000	-0.192211
478.707000	-0.249180
478.893000	-0.141389
479.078000	-0.299665
479.264000	-0.307640
479.450000	-0.244552
479.635000	-0.102186
479.821000	-0.203149
480.006000	-0.112161
480.192000	-0.114027
480.377000	-0.102413
480.563000	-0.074661
480.749000	-0.278281
480.934000	-0.250343
481.120000	-0.151071
481.305000	-0.078181
481.491000	-0.084417
481.676000	-0.064839
481.862000	-0.059045
482.048000	-0.194702
482.233000	-0.135422
482.419000	-0.137701
482.604000	-0.226708
482.790000	-0.242512
482.975000	-0.187390
483.161000	-0.037050
483.347000	-0.070440
483.532000	-0.113751
483.718000	-0.327374
483.903000	-0.256651
484.089000	-0.202774
484.274000	-0.308803
484.460000	-0.198915
484.646000	-0.191037
484.831000	-0.280047
485.017000	-0.174825
485.202000	-0.156808
485.388000	0.094651
485.573000	0.065067
485.759000	-0.145003
485.945000	0.014150
486.130000	-0.148851
486.316000	-0.178375
486.501000	-0.091695
486.687000	-0.279392
486.872000	-0.328603
487.058000	-0.125023
487.244000	-0.091766
487.429000	-0.285058
487.615000	-0.144315
487.800000	-0.013295
487.986000	-0.128160
488.171000	-0.052320
488.357000	-0.137750
488.543000	-0.112047
488.728000	-0.048091
488.914000	-0.106335
489.099000	-0.209052
489.285000	-0.230219
489.470000	-0.047939
489.656000	-0.038303
489.842000	-0.059353
490.027000	0.042651
490.213000	-0.126627
490.398000	-0.391244
490.584000	-0.084205
490.769000	-0.134189
490.955000	-0.087898
491.141000	-0.064725
491.326000	-0.108387
491.512000	0.049972
491.697000	-0.058626
491.883000	-0.193849
492.068000	-0.228153
492.254000	-0.217113
492.440000	-0.127368
492.625000	-0.199229
492.811000	-0.200724
492.996000	-0.088667
493.182000	-0.101604
493.367000	-0.245833
493.553000	-0.291368
493.739000	-0.213374
493.924000	-0.134079
494.110000	-0.133655
494.295000	-0.246171
494.481000	-0.156025
494.666000	-0.158022
494.852000	0.019203
495.038000	-0.089808
495.223000	-0.229183
495.409000	-0.116012
495.594000	-0.150050
495.780000	-0.175915
495.965000	-0.279345
496.151000	-0.065252
496.337000	0.026601
496.522000	-0.188099
496.708000	-0.108250
496.893000	0.011611
497.079000	-0.169615
497.264000	-0.159969
497.450000	-0.145109
497.636000	-0.063100
497.821000	-0.174656
498.007000	0.061820
498.192000	0.086347
498.378000	-0.079852
498.563000	-0.160128
498.749000	-0.107982
498.935000	-0.094761
499.120000	-0.014515
499.306000	-0.143118
499.491000	-0.217070
499.677000	-0.101813
499.862000	-0.008952
500.048000	0.009715
500.234000	-0.102120
500.419000	-0.148979
500.605000	0.015322
500.790000	-0.117216
500.976000	-0.233314
501.161000	-0.300535
501.347000	-0.122975
501.533000	-0.031418
501.718000	-0.096815
501.904000	-0.121394
502.089000	-0.033396
502.275000	0.009731
502.460000	-0.120902
502.646000	-0.093023
502.832000	-0.022053
503.017000	-0.033334
503.203000	-0.235917
503.388000	-0.236483
503.574000	-0.040873
503.759000	-0.018369
503.945000	0.041683
504.131000	-0.061585
504.316000	-0.179764
504.502000	-0.151675
504.687000	-0.165255
504.873000	-0.233144
505.058000	-0.259477
505.244000	-0.302713
505.430000	-0.237270
505.615000	-0.103489
505.801000	-0.020432
505.986000	-0.221790
506.172000	-0.110774
506.358000	-0.090256
506.543000	-0.186454
506.729000	0.007931
506.914000	-0.003406
507.100000	0.076337
507.285000	-0.147986
507.471000	-0.229522
507.657000	0.038376
507.842000	-0.088788
508.028000	-0.267303
508.213000	-0.199455
508.399000	-0.156004
508.584000	-0.045435
508.770000	-0.161601
508.956000	-0.209406
509.141000	-0.146340
509.327000	-0.074085
509.512000	-0.109926
509.698000	-0.163426
509.883000	-0.098940
510.069000	-0.133680
510.255000	-0.099251
510.440000	-0.053332
510.626000	-0.122331
510.811000	-0.191634
510.997000	-0.097566
511.182000	0.146174
511.368000	0.019588
511.554000	-0.291686
511.739000	-0.230048
511.925000	-0.009223
512.110000	-0.022652
512.296000	0.112004
512.481000	0.100335
512.667000	-0.051569
512.853000	-0.267126
513.038000	-0.163430
513.224000	-0.171181
513.409000	-0.282959
513.595000	-0.177231
513.780000	-0.281341
513.966000	-0.174788
514.152000	-0.176735
514.337000	-0.238438
514.523000	-0.211494
514.708000	-0.134584
514.894000	-0.100153
515.079000	-0.219169
515.265000	-0.206394
515.451000	-0.146547
515.636000	-0.229511
515.822000	-0.115673
516.007000	-0.224030
516.193000	-0.080788
516.378000	0.023620
516.564000	-0.090475
516.750000	-0.117580
516.935000	-0.011222
517.121000	-0.013155
517.306000	0.064284
517.492000	0.008145
517.677000	-0.224302
517.863000	-0.222407
518.049000	-0.061627
518.234000	-0.156468
518.420000	-0.036451
518.605000	0.143816
518.791000	0.070129
518.976000	-0.063794
519.162000	-0.195691
519.348000	-0.057865
519.533000	-0.028697
519.719000	0.130430
519.904000	-0.011270
520.090000	-0.044213
520.275000	0.124579
520.461000	0.085939
520.647000	-0.125968
520.832000	-0.301740
521.018000	-0.184307
521.203000	-0.121694
521.389000	-0.303627
521.574000	-0.249663
521.760000	-0.081131
521.946000	-0.048282
522.131000	-0.171080
522.317000	-0.184435
522.502000	-0.194079
522.688000	-0.083269
522.873000	-0.151506
523.059000	-0.192538
523.245000	-0.167047
523.430000	-0.272528
523.616000	-0.180855
523.801000	-0.263055
523.987000	-0.242023
524.172000	-0.116893
524.358000	-0.046543
524.544000	-0.122609
524.729000	-0.026871
524.915000	0.017957
525.100000	-0.081556
525.286000	-0.048459
525.471000	-0.072109
525.657000	-0.056492
525.843000	-0.254904
526.028000	-0.103763
526.214000	-0.174445
526.399000	-0.287248
526.585000	-0.297159
526.770000	-0.362144
526.956000	-0.234658
527.142000	-0.252390
527.327000	-0.078691
527.513000	-0.193606
527.698000	-0.215622
527.884000	-0.140824
528.069000	-0.196122
528.255000	-0.114886
528.441000	-0.244374
528.626000	-0.203206
528.812000	0.050262
528.997000	-0.113518
529.183000	-0.187384
529.368000	-0.091919
529.554000	-0.098200
529.740000	-0.132782
529.925000	-0.209509
530.111000	-0.185494
530.296000	-0.084587
530.482000	0.030834
530.667000	-0.086859
530.853000	-0.030131
531.039000	-0.099569
531.224000	-0.054975
531.410000	-0.020097
531.595000	-0.094009
531.781000	0.014781
531.967000	-0.150286
532.152000	-0.041002
532.338000	-0.111632
532.523000	-0.238655
532.709000	-0.262490
532.894000	-0.171521
533.080000	-0.115030
533.266000	-0.245357
533.451000	-0.303198
533.637000	-0.219571
533.822000	-0.010194
534.008000	-0.162961
534.193000	-0.212550
534.379000	-0.106443
534.565000	-0.151939
534.750000	-0.180504
534.936000	0.022054
535.121000	-0.125296
535.307000	-0.071225
535.492000	-0.084390
535.678000	-0.347455
535.864000	-0.206250
536.049000	0.108806
536.235000	-0.059334
536.420000	-0.099640
536.606000	-0.184683
536.791000	-0.282259
536.977000	-0.316705
537.163000	-0.078581
537.348000	-0.069955
537.534000	-0.013262
537.719000	-0.178333
537.905000	-0.305590
538.090000	-0.103499
538.276000	0.019011
538.462000	-0.015816
538.647000	-0.006539
538.833000	-0.114589
539.018000	-0.013683
539.204000	-0.082154
539.389000	-0.301393
539.575000	0.002855
539.761000	-0.059291
539.946000	-0.333405
540.132000	-0.175550
540.317000	-0.280044
540.503000	-0.142505
540.688000	-0.116575
540.874000	0.078769
541.060000	0.183896
541.245000	-0.019164
541.431000	-0.219001
541.616000	-0.170141
541.802000	-0.239589
541.987000	-0.118648
542.173000	-0.074251
542.359000	-0.243971
542.544000	-0.136505
542.730000	-0.262092
542.915000	-0.257711
543.101000	-0.084783
543.286000	-0.273479
543.472000	-0.389004
543.658000	-0.265261
543.843000	-0.215167
544.029000	-0.004582
544.214000	-0.180453
544.400000	-0.476645
544.585000	-0.413761
544.771000	-0.348410
544.957000	-0.068907
545.142000	0.005661
545.328000	0.008256
545.513000	0.052214
545.699000	0.047247
545.884000	-0.051436
546.070000	-0.119033
546.261000	-0.129900
546.451000	-0.271596
546.642000	-0.455539
546.833000	-0.290913
547.023000	-0.406346
547.214000	-0.350007
547.405000	-0.089067
547.595000	0.145646
547.786000	0.082638
547.977000	-0.137575
548.167000	-0.318443
548.358000	-0.317179
548.549000	0.075567
548.740000	-0.050378
548.930000	-0.334540
549.121000	-0.262917
549.312000	-0.325991
549.502000	-0.399817
549.693000	-0.296782
549.884000	-0.169796
550.074000	-0.094422
550.265000	-0.293186
550.456000	-0.203930
550.646000	-0.097834
550.837000	-0.144342
551.028000	-0.229395
551.218000	-0.065133
551.409000	-0.205599
551.600000	-0.208525
551.790000	-0.057446
551.981000	-0.292189
552.172000	-0.312102
552.362000	0.014381
552.553000	0.128423
552.744000	-0.082781
552.934000	-0.185722
553.125000	-0.230617
553.316000	-0.244699
553.506000	0.170917
553.697000	-0.055502
553.888000	-0.142150
554.079000	0.084573
554.269000	0.093067
554.460000	-0.213021
554.651000	-0.252625
554.841000	-0.433156
555.032000	-0.346378
555.223000	-0.197159
555.413000	-0.089426
555.604000	-0.075685
555.795000	-0.174985
555.985000	-0.141297
556.176000	-0.175025
556.367000	-0.475126
556.557000	-0.346027
556.748000	-0.267000
556.939000	-0.266589
557.129000	-0.351555
557.320000	-0.175603
557.511000	-0.175275
557.701000	-0.183493
557.892000	-0.110310
558.083000	0.139726
558.273000	-0.039199
558.464000	-0.277816
558.655000	-0.260547
558.845000	-0.197524
559.036000	-0.101381
559.227000	-0.132629
559.418000	-0.024985
559.608000	0.043138
559.799000	-0.282885
559.990000	-0.320854
560.180000	-0.197056
560.371000	-0.375484
560.562000	-0.343857
560.752000	-0.219840
560.943000	-0.333022
561.134000	-0.470280
561.324000	-0.281038
561.515000	-0.002249
561.706000	-0.168273
561.896000	-0.372877
562.087000	-0.215397
562.278000	-0.271384
562.468000	-0.473711
562.659000	-0.391255
562.850000	0.000560
563.040000	0.059370
563.231000	-0.377799
563.422000	-0.231298
563.612000	-0.273501
563.803000	-0.186468
563.994000	-0.299474
564.185000	-0.354440
564.375000	-0.132722
564.566000	-0.168613
564.757000	-0.238606
564.947000	-0.310541
565.138000	-0.165541
565.329000	-0.264663
565.519000	-0.363931
565.710000	-0.344950
565.901000	-0.132212
566.091000	-0.027086
566.282000	-0.137326
566.473000	-0.112160
566.663000	-0.186167
566.854000	-0.393283
567.045000	-0.244959
567.235000	-0.160367
567.426000	-0.143950
567.617000	-0.132566
567.807000	-0.197847
567.998000	-0.099807
568.189000	-0.205531
568.379000	-0.210419
568.570000	-0.145305
568.761000	-0.166561
568.951000	-0.185132
569.142000	-0.247354
569.333000	-0.303933
569.524000	-0.407484
569.714000	-0.463814
569.905000	-0.535365
570.096000	-0.133414
570.286000	-0.039596
570.477000	0.027215
570.668000	-0.178064
570.858000	-0.170058
571.049000	-0.270394
571.240000	-0.355569
571.430000	-0.132169
571.621000	-0.184592
571.812000	-0.104825
572.002000	-0.120842
572.193000	-0.323477
572.384000	-0.175888
572.574000	-0.131231
572.765000	-0.199382
572.956000	-0.217113
573.146000	-0.044118
573.337000	-0.172452
573.528000	-0.138140
573.718000	-0.043839
573.909000	-0.004690
574.100000	-0.092952
574.290000	-0.227239
574.481000	-0.200907
574.672000	-0.193382
574.863000	-0.107635
575.053000	-0.230797
575.244000	-0.127689
575.435000	-0.235151
575.625000	-0.313172
575.816000	-0.343349
576.007000	-0.167600
576.197000	-0.109188
576.388000	-0.134175
576.579000	-0.027436
576.769000	-0.047703
576.960000	-0.291074
577.155000	-0.436922
577.350000	-0.171220
577.545000	-0.027223
577.740000	-0.243278
577.935000	0.085774
578.130000	0.018072
578.326000	-0.294772
578.521000	-0.039518
578.716000	0.012946
578.911000	-0.270573
579.106000	-0.187797
579.301000	-0.098305
579.496000	-0.255577
579.691000	-0.476768
579.886000	-0.313581
580.081000	-0.168554
580.276000	-0.094824
580.471000	-0.248748
580.666000	-0.423942
580.861000	-0.384778
581.057000	-0.309389
581.252000	-0.177672
581.447000	-0.277113
581.642000	-0.304409
581.837000	-0.277205
582.032000	-0.239982
582.227000	-0.026080
582.422000	-0.013980
582.617000	-0.193873
582.812000	-0.334576
583.007000	-0.327218
583.202000	-0.419731
583.397000	-0.123243
583.592000	0.131102
583.788000	-0.193657
583.983000	-0.193474
584.178000	-0.060926
584.373000	-0.216131
584.568000	-0.290861
584.763000	-0.361695
584.958000	-0.451028
585.153000	-0.347585
585.348000	-0.326241
585.543000	-0.126583
585.738000	-0.131229
585.933000	-0.359443
586.128000	-0.175896
586.324000	-0.223510
586.519000	-0.199787
586.714000	-0.084411
586.909000	-0.018424
587.104000	0.000474
587.299000	-0.129500
587.494000	-0.183602
587.689000	-0.264359
587.884000	-0.212978
588.079000	-0.212992
588.274000	-0.170613
588.469000	-0.229558
588.664000	-0.137251
588.859000	-0.113669
589.055000	-0.106658
589.250000	-0.194839
589.445000	-0.316697
589.640000	-0.326499
589.835000	-0.044977
590.030000	0.077013
590.225000	0.096164
590.420000	-0.131271
590.615000	-0.277641
590.810000	-0.239013
591.005000	-0.252014
591.200000	-0.307450
591.395000	-0.343483
591.591000	-0.208425
591.786000	-0.136274
591.981000	-0.247367
592.176000	-0.146601
592.371000	-0.124948
592.566000	-0.187528
592.761000	-0.028438
592.956000	-0.074355
593.151000	-0.021255
593.346000	-0.093974
593.541000	-0.030970
593.736000	-0.130570
593.931000	-0.271452
594.126000	-0.155137
594.322000	-0.106500
594.517000	-0.247477
594.712000	-0.347302
594.907000	-0.421777
595.102000	-0.265912
595.297000	-0.116749
595.492000	-0.019092
595.687000	-0.205525
595.882000	-0.333226
596.077000	-0.206027
596.272000	-0.029005
596.467000	0.020163
596.662000	-0.142261
596.857000	-0.172482
597.053000	-0.128218
597.248000	-0.056411
597.443000	-0.096126
597.638000	-0.173344
597.833000	-0.374859
598.028000	-0.195633
598.223000	-0.039303
598.418000	-0.171446
598.613000	-0.278563
598.808000	-0.141633
599.003000	-0.149274
599.198000	-0.301925
599.393000	-0.266853
599.589000	-0.157341
599.784000	-0.295345
599.979000	-0.250585
600.174000	-0.037187
600.369000	-0.238444
600.564000	-0.168235
600.759000	0.055976
600.954000	0.161604
601.149000	0.008080
601.344000	-0.312901
601.539000	-0.141198
601.734000	-0.221882
601.929000	-0.460588
602.124000	-0.351942
602.320000	-0.154432
602.515000	0.086882
602.710000	0.000509
602.905000	-0.338015
603.100000	-0.337471
603.295000	-0.238803
603.490000	-0.119488
603.685000	-0.086312
603.880000	-0.150334
604.075000	-0.286563
604.270000	-0.266622
604.465000	-0.225353
604.660000	-0.428465
604.856000	-0.276705
605.051000	-0.084354
605.246000	-0.161375
605.441000	-0.382646
605.636000	-0.413622
605.831000	-0.267493
606.026000	-0.329204
606.221000	-0.383824
606.416000	-0.237097
606.611000	-0.038263
606.806000	-0.004649
607.001000	0.109142
607.196000	-0.162571
607.391000	-0.307968
607.587000	-0.092993
607.782000	-0.142536
607.977000	-0.352383
608.172000	-0.004685
608.367000	0.042167
608.562000	-0.145534
608.757000	-0.226313
608.952000	-0.307855
609.147000	0.144079
609.342000	0.021436
609.537000	-0.266610
609.732000	-0.240801
609.927000	-0.339805
610.122000	-0.301051
610.318000	-0.025725
610.513000	-0.015233
610.708000	-0.272909
610.903000	-0.249525
611.098000	-0.205216
611.293000	-0.252765
611.488000	-0.218495
611.683000	-0.210947
611.878000	-0.240099
612.073000	-0.174042
612.268000	-0.100090
612.463000	-0.073776
612.658000	-0.113585
612.854000	-0.145737
613.049000	-0.175069
613.244000	-0.052711
613.439000	0.016512
613.634000	-0.231740
613.829000	-0.124984
614.024000	-0.267156
614.219000	-0.269794
614.414000	0.059458
614.609000	-0.184541
614.804000	-0.342886
614.999000	-0.372058
615.194000	-0.311213
615.389000	-0.281982
615.585000	-0.430757
615.780000	-0.204498
615.975000	-0.237345
616.170000	-0.196938
616.365000	-0.029246
616.560000	0.079148
616.755000	0.022294
616.950000	-0.105535
617.145000	-0.051182
617.340000	-0.192935
617.535000	-0.443634
617.730000	-0.174094
617.925000	-0.327434
618.120000	-0.401356
618.316000	-0.007672
618.511000	-0.117381
618.706000	-0.368247
618.901000	-0.277280
619.096000	-0.154079
619.291000	-0.272576
619.486000	-0.187644
619.681000	-0.475847
619.876000	-0.533783
620.071000	-0.356907
620.266000	-0.099443
620.461000	-0.016140
620.656000	-0.046837
620.852000	-0.149801
621.047000	-0.261815
621.242000	-0.396315
621.437000	-0.072280
621.632000	0.110056
621.827000	-0.137132
622.022000	-0.421273
622.217000	-0.205284
622.412000	-0.086945
622.607000	-0.081378
622.802000	-0.304761
622.997000	-0.311497
623.192000	-0.186655
623.387000	-0.169671
623.583000	-0.440084
623.778000	-0.027938
623.973000	-0.010840
624.168000	-0.096649
624.363000	-0.073660
624.558000	-0.008008
624.753000	-0.289204
624.948000	-0.068412
625.143000	-0.091474
625.338000	-0.189596
625.533000	-0.261711
625.728000	-0.163891
625.923000	0.066984
626.119000	-0.089134
626.314000	-0.384687
626.509000	-0.327756
626.704000	-0.273269
626.899000	-0.250178
627.094000	-0.238846
627.289000	-0.268661
627.484000	-0.257560
627.679000	-0.278343
627.874000	-0.246363
628.069000	0.030031
628.264000	-0.134722
628.459000	-0.205801
628.654000	-0.250254
628.850000	-0.375512
629.045000	-0.272164
629.240000	-0.263533
629.435000	-0.287648
629.630000	-0.210785
629.825000	-0.240549
630.020000	-0.172754
630.215000	-0.378776
630.410000	-0.347288
630.605000	-0.350573
630.800000	-0.296501
630.995000	-0.122717
631.190000	0.142271
631.385000	-0.017493
631.581000	-0.165561
631.776000	-0.090089
631.971000	-0.238992
632.166000	-0.196683
632.361000	-0.351811
632.556000	-0.254948
632.751000	-0.090955
632.946000	-0.240589
633.141000	-0.314820
633.336000	-0.229431
633.531000	-0.131683
633.726000	-0.189906
633.921000	-0.369135
634.117000	-0.524358
634.312000	-0.602166
634.507000	-0.475941
634.702000	-0.340389
634.897000	-0.340875
635.092000	-0.242168
635.287000	-0.152207
635.482000	-0.193259
635.677000	-0.018143
635.872000	0.010011
636.067000	-0.002509
636.262000	-0.172509
636.457000	-0.441437
636.652000	-0.470356
636.848000	-0.452504
637.043000	-0.394344
637.238000	-0.255981
637.433000	-0.386164
637.628000	-0.370297
637.823000	-0.066040
638.018000	-0.027994
638.213000	-0.276739
638.408000	-0.385497
638.603000	-0.427596
638.798000	-0.437818
638.993000	-0.342462
639.188000	-0.368242
639.383000	-0.403869
639.579000	-0.015394
639.774000	-0.237339
639.969000	-0.385435
640.164000	-0.447585
640.359000	-0.457753
640.554000	-0.212687
640.749000	-0.164655
640.944000	-0.054571
641.139000	-0.080393
641.334000	-0.379305
641.529000	-0.773787
641.724000	-0.553199
641.919000	-0.302975
642.115000	-0.035345
642.310000	-0.090850
642.505000	-0.211691
642.700000	-0.267712
642.895000	-0.376857
643.090000	-0.222499
643.285000	-0.012472
643.480000	-0.012500
643.675000	-0.028973
643.870000	0.274457
644.065000	0.146089
644.260000	-0.290118
644.455000	-0.267487
644.650000	-0.384304
644.846000	-0.175231
645.041000	-0.367564
645.236000	-0.587937
645.431000	-0.542158
645.626000	-0.664976
645.821000	-0.475083
646.016000	-0.379709
646.211000	0.017383
646.406000	-0.059616
646.601000	-0.089671
646.796000	-0.223461
646.991000	-0.461044
647.186000	-0.327938
647.381000	-0.173805
647.577000	-0.173972
647.772000	-0.063144
647.967000	-0.123843
648.162000	-0.191301
648.357000	-0.245519
648.552000	-0.073492
648.747000	-0.049922
648.942000	-0.012826
649.137000	-0.134747
649.332000	-0.304425
649.527000	-0.358514
649.722000	-0.053522
649.917000	0.078819
650.113000	-0.342044
650.308000	-0.447870
650.503000	-0.396686
650.698000	-0.176436
650.893000	-0.234506
651.088000	-0.132337
651.283000	-0.026662
651.478000	-0.344557
651.673000	-0.142737
651.868000	-0.283309
652.063000	-0.078168
652.258000	0.038427
652.453000	0.229953
652.648000	-0.122673
652.844000	-0.242781
653.039000	-0.143579
653.234000	-0.507838
653.429000	-0.673967
653.624000	-0.439577
653.819000	-0.168219
654.014000	-0.226865
654.209000	-0.365735
654.404000	-0.168519
654.599000	-0.258962
654.794000	-0.272340
654.989000	-0.006239
655.184000	-0.054832
655.380000	-0.353000
655.575000	-0.384252
655.770000	-0.384890
655.965000	-0.232103
656.160000	-0.322613
656.355000	-0.134858
656.550000	-0.124813
656.745000	-0.093499
656.940000	-0.226257
657.135000	-0.191294
657.330000	-0.198357
657.525000	-0.436137
657.720000	-0.268862
657.915000	-0.153194
658.111000	-0.233727
658.306000	0.088243
658.501000	-0.139688
658.696000	-0.406266
658.891000	-0.160756
659.086000	-0.248405
659.281000	-0.252325
659.476000	-0.404011
659.671000	-0.762904
659.866000	-0.460479
660.061000	-0.112027
660.256000	-0.062735
660.451000	-0.105122
660.646000	-0.306598
660.842000	-0.169036
661.037000	-0.416736
661.232000	-0.399619
661.427000	-0.179827
661.622000	-0.311377
661.817000	-0.410566
662.012000	-0.180562
662.207000	-0.390538
662.402000	-0.484231
662.597000	-0.216947
662.792000	-0.548286
662.987000	-0.590581
663.182000	-0.238445
663.378000	-0.302939
663.573000	-0.586595
663.768000	-0.567509
663.963000	-0.396403
664.158000	-0.381744
664.353000	0.115566
664.548000	0.259035
664.743000	-0.110628
664.938000	-0.441028
665.133000	-0.373375
665.328000	0.065564
665.523000	-0.064248
665.718000	-0.320557
665.913000	-0.313808
666.109000	-0.245666
666.304000	-0.013764
666.499000	-0.216471
666.694000	0.007986
666.889000	0.265703
667.084000	-0.152236
667.279000	-0.286819
667.474000	-0.272413
667.669000	-0.195885
667.864000	-0.199763
668.059000	-0.192765
668.254000	-0.174733
668.449000	-0.350592
668.644000	-0.310620
668.840000	-0.068774
669.035000	-0.306992
669.230000	-0.591075
669.425000	-0.264104
669.620000	-0.370748
669.815000	-0.372090
670.010000	-0.397562
670.205000	-0.276089
670.400000	-0.139272
670.595000	-0.047304
670.790000	-0.280507
670.985000	-0.251165
671.180000	-0.073430
671.376000	-0.518927
671.571000	-0.553558
671.766000	-0.439249
671.961000	-0.495369
672.156000	-0.563212
672.351000	-0.425123
672.546000	-0.369865
672.741000	-0.171081
672.936000	-0.182526
673.131000	0.319537
673.326000	0.008274
673.521000	-0.499876
673.716000	-0.597731
673.911000	-0.729993
674.107000	-0.176614
674.302000	0.095166
674.497000	-0.067297
674.692000	-0.411638
674.887000	-0.507950
675.082000	-0.303406
675.277000	-0.060157
675.472000	-0.163171
675.667000	-0.369606
675.862000	-0.358334
676.057000	-0.312701
676.252000	-0.278885
676.447000	-0.333331
676.643000	-0.183412
676.838000	0.054590
677.033000	-0.249466
677.228000	0.058663
677.423000	-0.014675
677.618000	-0.483252
677.813000	-0.645507
678.008000	-0.368050
678.203000	-0.236299
678.398000	-0.431408
678.593000	-0.217336
678.788000	-0.108630
678.983000	-0.397302
679.178000	-0.284264
679.374000	-0.398079
679.569000	-0.332317
679.764000	-0.364746
679.959000	-0.507456
680.154000	-0.483915
680.349000	-0.687262
680.544000	-0.516533
680.739000	-0.335054
680.934000	-0.556877
681.129000	-0.586199
681.324000	-0.670314
681.519000	-0.345775
681.714000	-0.286122
681.909000	-0.397217
682.105000	-0.633825
682.300000	-0.263650
682.495000	-0.043252
682.690000	-0.047364
682.885000	-0.220137
683.080000	-0.402020
683.275000	-0.345798
683.470000	0.053264
683.665000	0.178747
683.860000	0.418065
684.055000	0.130517
684.250000	-0.283199
684.445000	-0.392121
684.641000	0.069884
684.836000	-0.174187
685.031000	-0.289181
685.226000	-0.293662
685.421000	0.041835
685.616000	-0.208356
685.811000	-0.286972
686.006000	-0.036177
686.201000	-0.143253
686.396000	-0.614876
686.591000	-0.541581
686.786000	-0.057230
686.981000	-0.111153
687.176000	-0.161314
687.372000	-0.340473
687.567000	-0.049137
687.762000	-0.053448
687.957000	-0.174534
688.152000	-0.237671
688.347000	-0.158453
688.542000	-0.553863
688.737000	-0.986264
688.932000	-0.992148
689.127000	-0.551118
689.322000	-0.155497
689.517000	-0.328670
689.712000	-0.520610
689.908000	-0.419286
690.103000	-0.445612
690.298000	-0.369137
690.493000	-0.374367
690.688000	-0.554133
690.883000	-0.440377
691.078000	-0.024854
691.273000	0.043714
691.468000	-0.231021
691.663000	-0.249142
691.858000	-0.059494
692.053000	-0.106912
692.248000	-0.063868
692.443000	-0.085441
692.639000	-0.198047
692.834000	-0.077161
693.029000	0.430183
693.224000	0.292798
693.419000	-0.326214
693.614000	-0.449175
693.809000	-0.550074
694.004000	-0.603682
694.199000	-0.550968
694.394000	-0.232034
694.589000	-0.584218
694.784000	-0.536371
694.979000	-0.311792
695.174000	-0.299337
695.370000	0.274149
695.565000	-0.052136
695.760000	-0.317957
695.955000	0.014205
696.150000	-0.012433
696.345000	-0.449337
696.540000	-0.164331
696.740000	-0.204378
696.940000	-0.061628
697.140000	-0.061945
697.340000	-0.219433
697.539000	-0.003599
697.739000	-0.246642
697.939000	-0.183758
698.139000	-0.486024
698.339000	-0.822733
698.539000	-0.591594
698.739000	-0.561439
698.939000	-0.477350
699.138000	-0.532888
699.338000	0.132767
699.538000	0.361482
699.738000	-0.205074
699.938000	-0.420572
700.138000	-0.586494
700.338000	-0.749271
700.538000	-0.492759
700.737000	-0.349615
700.937000	-0.725669
701.137000	-0.625457
701.337000	0.079630
701.537000	0.056606
701.737000	-0.291015
701.937000	-0.403141
702.137000	-0.287044
702.337000	-0.524803
702.536000	-0.721679
702.736000	-0.605857
702.936000	-0.690892
703.136000	-0.219413
703.336000	-0.247487
703.536000	-0.450286
703.736000	-0.724863
703.936000	-0.634000
704.135000	-0.581972
704.335000	-0.206476
704.535000	-0.514291
704.735000	-0.718284
704.935000	-0.220978
705.135000	-0.316948
705.335000	-0.560797
705.535000	-0.261052
705.735000	-0.218141
705.934000	-0.270394
706.134000	-0.475254
706.334000	-0.495474
706.534000	-0.558330
706.734000	-0.482229
706.934000	-0.534823
707.134000	-0.606737
707.334000	-0.440197
707.533000	-0.388166
707.733000	-0.426289
707.933000	-0.561265
708.133000	-0.195821
708.333000	-0.081052
708.533000	-0.361540
708.733000	-0.105352
708.933000	-0.342457
709.132000	-0.391586
709.332000	-0.333994
709.532000	-0.509882
709.732000	-0.431407
709.932000	-0.778197
710.132000	-0.690107
710.332000	-0.981663
710.532000	-0.412894
710.732000	-0.165025
710.931000	-0.463193
711.131000	-0.582726
711.331000	-0.489906
711.531000	-0.525158
711.731000	-0.501832
711.931000	-0.487851
712.131000	-0.492198
712.331000	-0.211150
712.530000	-0.368572
712.730000	-0.562218
712.930000	-0.433622
713.130000	-0.464878
713.330000	-0.594469
713.530000	-0.452224
713.730000	0.285012
713.930000	-0.113570
714.129000	-0.541382
714.329000	-0.608015
714.529000	-0.393064
714.729000	-0.023992
714.929000	-0.238930
715.129000	-0.684934
715.329000	-0.535225
715.529000	-0.396522
715.729000	0.232041
715.928000	-0.084591
716.128000	-0.412131
716.328000	-0.337556
716.528000	-0.434062
716.728000	-0.312722
716.928000	-0.499999
717.128000	-0.323595
717.328000	-0.333685
717.527000	-0.527029
717.727000	-0.354745
717.927000	-0.248814
718.127000	-0.391800
718.327000	-0.826929
718.527000	-0.744782
718.727000	-0.305756
718.927000	-0.490710
719.127000	-0.734397
719.326000	-0.500929
719.526000	-0.137521
719.726000	-0.240653
719.926000	-0.695752
720.126000	-0.830082
720.326000	-0.437689
720.526000	-0.530694
720.726000	-0.516763
720.925000	-0.325385
721.125000	-0.742629
721.325000	-0.414495
721.525000	-0.238470
721.725000	-0.462412
721.925000	-0.521156
722.125000	-0.578645
722.325000	-0.103393
722.524000	-0.318454
722.724000	-0.801320
722.924000	-0.874686
723.124000	-0.629002
723.324000	-0.356346
723.524000	-0.209372
723.724000	-0.720301
723.924000	-0.611915
724.124000	-0.384825
724.323000	-0.120679
724.523000	-0.173456
724.723000	0.308441
724.923000	0.001060
725.123000	-0.120996
725.323000	-0.057416
725.523000	-0.281237
725.723000	-0.584232
725.922000	-0.574237
726.122000	-0.366901
726.322000	-0.528308
726.522000	-0.646580
726.722000	0.150766
726.922000	-0.057701
727.122000	-0.272352
727.322000	-0.063344
727.521000	-0.214175
727.721000	-0.424670
727.921000	-0.435469
728.121000	-0.564674
728.321000	-0.878800
728.521000	-0.518456
728.721000	-0.362127
728.921000	-0.063946
729.121000	0.728448
729.320000	0.071730
729.520000	-0.449983
729.720000	-0.619475
729.920000	-0.491158
730.120000	-0.358978
730.320000	-0.359857
730.520000	-0.595267
730.720000	-0.492862
730.919000	-0.448870
731.119000	-0.196809
731.319000	-0.698216
731.519000	-0.901831
731.719000	-0.505805
731.919000	-0.555691
732.119000	-1.009412
732.319000	-0.990424
732.519000	-0.386848
732.718000	-0.731425
732.918000	-0.620968
733.118000	-0.449905
733.318000	-0.183160
733.518000	-0.462405
733.718000	-0.977546
733.918000	-0.961330
734.118000	-0.681311
734.317000	-0.296550
734.517000	-0.683138
734.717000	-0.596258
734.917000	-0.094894
735.117000	-0.157194
735.317000	-0.309786
735.517000	0.142844
735.717000	0.507119
735.916000	-0.357083
736.116000	-0.709001
736.316000	-0.387555
736.516000	-0.284575
736.716000	-0.376196
736.916000	-0.894382
737.116000	-0.569931
737.316000	0.001154
737.516000	-0.056634
737.715000	-0.131845
737.915000	-0.727792
738.115000	-0.828765
738.315000	-0.498324
738.515000	-0.765343
738.715000	-0.553722
738.915000	-0.069016
739.115000	-0.584674
739.314000	-0.560734
739.514000	0.007049
739.714000	0.001178
739.914000	-0.152381
740.114000	-0.342020
740.314000	-0.093563
740.514000	0.291794
740.714000	-0.516535
740.913000	-1.005970
741.113000	-0.798634
741.313000	-0.339032
741.513000	-0.369915
741.713000	-0.358905
741.913000	-0.288240
742.113000	-0.329948
742.313000	-0.903863
742.513000	-0.657090
742.712000	-0.447153
742.912000	-0.695755
743.112000	-0.588648
743.312000	-1.028191
743.512000	-0.584852
743.712000	-0.378495
743.912000	-1.029353
744.112000	-1.109810
744.311000	-1.131275
744.511000	-0.794188
744.711000	-0.351105
744.911000	-0.723024
745.111000	-0.748714
745.311000	-0.160215
745.511000	-0.527326
745.711000	-0.783020
745.911000	-0.478649
746.110000	-0.809352
746.310000	-0.927028
746.510000	-0.699715
746.710000	-0.363409
746.910000	-0.212701
747.110000	-0.616441
747.310000	-1.053191
747.510000	-0.759310
747.709000	-0.461791
747.909000	-0.513852
748.109000	-0.119964
748.309000	-0.420730
748.509000	-0.844061
748.709000	-0.905040
748.909000	-0.731262
749.109000	-0.728001
749.308000	-0.108535
749.508000	-0.439626
749.708000	-0.498151
749.908000	-0.121970
750.108000	-0.154868
750.308000	-0.788797
750.508000	-0.181992
750.708000	-0.745239
750.908000	-1.101242
751.107000	-0.360751
751.307000	0.231449
751.507000	-0.441088
751.707000	-0.480096
751.907000	-0.553996
752.107000	-0.416572
752.307000	-0.784032
752.507000	-0.619259
752.706000	-0.778883
752.906000	0.248596
753.106000	-0.474775
753.306000	-1.135423
753.506000	-0.086333
753.706000	-0.593374
753.906000	-0.329853
754.106000	-0.093402
754.305000	-0.168070
754.505000	-0.195690
754.705000	-0.292405
754.905000	-0.327048
755.105000	-0.163081
755.305000	-0.911235
755.505000	-0.796874
755.705000	-0.356905
755.905000	-0.503105
756.104000	-0.980796
756.304000	-1.413421
756.504000	-1.590076
756.704000	-0.487604
756.904000	-0.222020
757.104000	-0.437836
757.304000	-0.305661
757.504000	0.050553
757.703000	-0.546152
757.903000	-0.160440
758.103000	0.149487
758.303000	-0.330928
758.503000	-0.516135
758.703000	-0.609722
758.903000	-0.887264
759.103000	-0.511873
759.303000	-0.414043
759.502000	-0.537512
759.702000	-0.041663
759.902000	-0.438971
760.102000	-0.635427
760.302000	-0.761014
760.502000	-0.251949
760.702000	-0.187058
760.902000	-0.528941
761.101000	-0.960369
761.301000	-1.129938
761.501000	-0.801725
761.701000	-0.752122
761.901000	-0.461860
762.101000	-0.131190
762.301000	-0.426003
762.501000	-0.817299
762.700000	-0.924808
762.900000	-0.865834
763.100000	-0.399272
763.300000	-0.154996
763.500000	-0.371464
763.703000	-0.622985
763.905000	-1.073100
764.108000	-0.350485
764.311000	-0.582722
764.513000	-0.658416
764.716000	-0.344847
764.919000	-0.443322
765.121000	-0.926209
765.324000	-1.155946
765.527000	-1.162113
765.729000	-0.880685
765.932000	-0.006094
766.135000	-0.135554
766.337000	-0.455637
766.540000	-0.632954
766.743000	-0.291105
766.945000	-0.974578
767.148000	-1.331138
767.351000	-1.292440
767.553000	-0.369546
767.756000	-0.586640
767.958000	-0.988983
768.161000	-0.680032
768.364000	-1.040130
768.566000	-1.322875
768.769000	-0.748847
768.972000	-0.389221
769.174000	-0.711826
769.377000	-1.161995
769.580000	-1.227501
769.782000	-0.525839
769.985000	-1.151381
770.188000	-2.032768
770.390000	-1.080278
770.593000	0.653080
770.796000	0.168559
770.998000	-0.547343
771.201000	-0.930188
771.404000	-0.389189
771.606000	-0.815095
771.809000	-0.774808
772.012000	-0.696105
772.214000	-1.595559
772.417000	-1.635865
772.620000	-0.454514
772.822000	-0.699956
773.025000	-1.014637
773.228000	-1.065015
773.430000	-0.726842
773.633000	-0.533596
773.836000	-0.558686
774.038000	-0.381472
774.241000	-0.356923
774.444000	-0.709499
774.646000	0.238487
774.849000	-0.235751
775.052000	-0.383030
775.254000	-0.252580
775.457000	-0.776713
775.659000	-0.622531
775.862000	-0.869121
776.065000	-0.755357
776.267000	-0.105503
776.470000	0.415618
776.673000	-0.304887
776.875000	0.076445
777.078000	-0.147670
777.281000	-1.005972
777.483000	-0.290723
777.686000	-0.123872
777.889000	-0.358610
778.091000	0.077350
778.294000	-1.014192
778.497000	-0.956651
778.699000	-0.881697
778.902000	-0.800290
779.105000	-0.530186
779.307000	0.153872
779.510000	-0.777858
779.713000	-0.551213
779.915000	-0.809067
780.118000	0.266536
780.321000	0.352396
780.523000	-0.666994
780.726000	-1.036072
780.929000	-1.052846
781.131000	-1.105997
781.334000	-1.463476
781.537000	-1.415712
781.739000	-0.465415
781.942000	-0.993918
782.145000	-1.390675
782.347000	-1.304471
782.550000	-0.948048
782.753000	-1.204691
782.955000	-1.058942
783.158000	-0.944426
783.361000	-0.858932
783.563000	-0.762449
783.766000	-0.808460
783.968000	0.945534
784.171000	0.719493
784.374000	-0.494474
784.576000	-0.609493
784.779000	-0.272425
784.982000	0.153010
785.184000	-0.624305
785.387000	-0.114661
785.590000	0.619552
785.792000	0.460135
785.995000	0.136812
786.198000	-0.034259
786.400000	-0.315061
786.603000	-0.461085
786.806000	-0.758260
787.008000	-0.541043
787.211000	-0.343232
787.414000	-1.137086
787.616000	-0.839576
787.819000	-0.722380
788.022000	-1.301672
788.224000	-0.780369
788.427000	-1.452972
788.630000	-0.922151
788.832000	-0.570412
789.035000	-1.233004
789.238000	-1.701412
789.440000	-1.310970
789.643000	0.001858
789.846000	-0.706308
790.048000	-0.334394
790.251000	-0.156960
790.454000	-0.576234
790.656000	0.254553
790.859000	-0.514037
791.062000	-0.815639
791.264000	-0.214070
791.467000	-1.167277
791.669000	-1.650551
791.872000	-0.595952
792.075000	-1.173466
792.277000	-0.993531
792.480000	-0.703446
792.683000	-1.271870
792.885000	-1.568064
793.088000	-1.373268
793.291000	-1.271392
793.493000	-1.369621
793.696000	-0.688917
793.899000	-0.392553
794.101000	-0.605625
794.304000	-0.829301
794.507000	-0.646614
794.709000	-0.347500
794.912000	-0.884916
795.115000	-1.326021
795.317000	-0.866851
795.520000	-0.517678
795.723000	-0.795399
795.925000	-1.181040
796.128000	-1.445360
796.331000	-1.094498
796.533000	-1.473365
796.736000	-0.804072
796.939000	-0.416964
797.141000	-0.728111
797.344000	-0.278308
797.547000	-0.038059
797.749000	-0.349037
797.952000	-1.036297
798.155000	-1.526909
798.357000	-1.455150
798.560000	-1.127544
798.763000	-0.496096
798.965000	-0.759690
799.168000	-0.812836
799.371000	-0.528246
799.573000	-0.796036
799.776000	-1.565764
799.978000	-1.344980
800.181000	-0.739713
800.384000	0.703711
800.586000	0.012411
800.789000	-1.434932
800.992000	-1.351311
801.194000	-1.323234
801.397000	-1.337035
801.600000	-1.216615
801.802000	0.064677
802.005000	-0.249066
802.208000	-1.624605
802.410000	-0.668998
802.613000	-0.482372
802.816000	-0.778179
803.018000	-1.446319
803.221000	-1.163028
803.424000	0.331165
803.626000	-0.093551
803.829000	-0.829709
804.032000	0.141145
804.234000	0.900058
804.437000	-0.556104
804.640000	-0.834530
804.842000	-0.567660
805.045000	-1.002669
805.248000	-0.820523
805.450000	-0.776465
805.653000	-0.890216
805.856000	-0.965341
806.058000	-0.052341
806.261000	-1.134539
806.464000	-0.927795
806.666000	-0.326558
806.869000	-0.725677
807.072000	-1.894498
807.274000	-2.193675
807.477000	-1.225970
807.679000	-0.850477
807.882000	-1.485096
808.085000	-1.048140
808.287000	-0.501100
808.490000	-1.376184
808.693000	-1.309867
808.895000	-0.918386
809.098000	-0.930064
809.301000	-1.000796
809.503000	-0.903265
809.706000	-0.100152
809.909000	0.138824
810.111000	0.036464
810.314000	-0.408871
810.517000	-0.737673
810.719000	-0.982238
810.922000	-1.181838
811.125000	-0.100952
811.327000	0.048457
811.530000	-0.611587
811.735000	-0.980764
811.940000	-1.226380
812.146000	-1.243180
812.351000	-0.568089
812.556000	-0.593270
812.761000	-1.532402
812.967000	-0.432995
813.172000	-0.267986
813.377000	-0.775793
813.582000	-0.175235
813.788000	-0.546025
813.993000	-1.412774
814.198000	-0.628515
814.403000	-1.615623
814.609000	-0.560287
814.814000	-0.574839
815.019000	0.206468
815.224000	0.254352
815.429000	-1.012092
815.635000	-0.603347
815.840000	-0.446331
816.045000	-0.777328
816.250000	-0.400274
816.456000	-1.525598
816.661000	-2.318542
816.866000	-1.794420
817.071000	-1.448899
817.277000	-2.584730
817.482000	-1.609568
817.687000	-0.753463
817.892000	-0.745266
818.097000	-0.297530
818.303000	-0.097509
818.508000	0.538995
818.713000	7.614464
818.918000	3.923975
819.124000	0.128121
819.329000	-0.943543
819.534000	-0.933704
819.739000	-1.174185
819.945000	-1.065311
820.150000	-0.841239
820.355000	-0.919733
820.560000	-0.252948
820.766000	-0.381675
820.971000	-0.705921
821.176000	-2.089334
821.381000	-2.546835
821.586000	-1.590627
821.792000	-0.075390
821.997000	-0.804044
822.202000	-0.987159
822.407000	-1.734728
822.613000	-1.960902
822.818000	-1.047320
823.023000	-0.680669
823.228000	-0.923118
823.434000	-0.380583
823.639000	0.174808
823.844000	-0.886967
824.049000	-0.196659
824.255000	-0.063988
824.460000	-0.787507
824.665000	-1.083659
824.870000	-0.266450
825.075000	-0.509320
825.281000	-0.321649
825.486000	0.560107
825.691000	-1.454123
825.896000	-2.425553
826.102000	-0.952806
826.307000	-0.763553
826.512000	-1.192191
826.717000	-1.058095
826.923000	-1.033484
827.128000	-0.523413
827.333000	-1.321172
827.538000	-0.444838
827.744000	0.044872
827.949000	-1.326823
828.154000	-1.079249
828.359000	-0.151693
828.564000	-0.844146
828.770000	-0.890160
828.975000	0.315388
829.180000	-0.582570
829.385000	-2.066766
829.591000	-1.502128
829.796000	-0.818198
830.001000	-1.195004
830.206000	-1.358034
830.412000	-1.168627
830.617000	-1.388922
830.822000	-0.230213
831.027000	-1.087445
831.232000	-1.649839
831.438000	-1.484738
831.643000	-0.674555
831.848000	-1.074848
832.053000	-1.167875
832.259000	-1.080287
832.464000	-2.779727
832.669000	-2.371605
832.874000	-1.980084
833.080000	-2.063719
833.285000	-0.207007
833.490000	-0.672500
833.695000	-1.885729
833.901000	-1.317720
834.106000	-1.289321
834.311000	-0.929278
834.516000	-0.716397
834.721000	-1.551713
834.927000	-0.336976
835.132000	-0.585442
835.337000	1.228469
835.542000	0.003121
835.748000	-2.083660
835.953000	-0.231276
836.158000	-0.717462
836.363000	-0.830439
836.569000	-0.535727
836.774000	-1.679869
836.979000	-2.142927
837.184000	-2.450907
837.390000	-2.120120
837.595000	-1.357438
837.800000	-0.895271
838.005000	-0.949182
838.210000	-1.450230
838.416000	-1.536909
838.621000	-1.215929
838.826000	-1.247678
839.031000	-1.335730
839.237000	-1.888604
839.442000	-2.320040
839.647000	-2.382387
839.852000	-1.649085
840.058000	-1.505792
840.263000	-1.746499
840.468000	-2.432212
840.673000	-1.264611
840.878000	-1.115510
841.084000	-1.878104
841.289000	-1.057618
841.494000	1.071775
841.699000	0.973234
841.905000	0.464014
842.110000	0.861006
842.315000	-1.646613
842.520000	-0.700567
842.726000	-1.080901
842.931000	-1.957115
843.136000	-0.568169
843.341000	-1.794007
843.547000	-1.476851
843.752000	-1.217008
843.957000	-1.894955
844.162000	-1.992258
844.367000	-1.270886
844.573000	-0.903049
844.778000	-1.007041
844.983000	-0.831781
845.188000	-0.300119
845.394000	-2.195518
845.599000	-1.974353
845.804000	-1.241337
846.009000	-0.850235
846.215000	-2.150038
846.420000	-1.625115
846.625000	-0.418618
846.830000	0.113425
847.036000	-0.989009
847.241000	-1.565495
847.446000	0.059068
847.651000	-0.589460
847.856000	-2.072445
848.062000	-1.834714
848.267000	0.210172
848.472000	-1.201385
848.677000	-2.507673
848.883000	-0.881869
849.088000	0.555798
849.293000	-1.180951
849.498000	-1.904670
849.704000	-0.589461
849.909000	-1.147439
850.114000	-2.202846
850.319000	-0.919265
850.524000	-1.175704
850.730000	-1.104586
850.935000	-1.284748
851.140000	-0.328886
851.345000	-0.485429
851.551000	-0.486890
851.756000	-0.213173
851.961000	-1.341815
852.166000	-1.580125
852.372000	-1.048207
852.577000	-1.055866
852.782000	-1.265366
852.987000	0.385762
853.193000	-0.036296
853.398000	-0.399370
853.603000	-1.734471
853.808000	-2.685998
854.013000	-1.868547
854.219000	-0.791191
854.424000	0.904802
854.629000	0.865768
854.834000	-0.925245
855.040000	-0.993528
855.245000	-0.534463
855.450000	-2.907785
855.655000	-3.876183
855.861000	-3.504042
856.066000	-2.374647
856.271000	-2.357384
856.476000	-0.630519
856.682000	-1.227660
856.887000	-3.879218
857.092000	-2.505081
857.297000	0.132377
857.502000	-0.530550
857.708000	-1.196064
857.913000	0.133127
858.118000	-0.645765
858.323000	-1.082335
858.529000	-1.058961
858.734000	-1.845169
858.939000	-1.326851
859.144000	-1.572209
859.350000	-3.083541
859.555000	-2.653810
859.760000	-0.503616
859.965000	0.048580
860.171000	-2.080246
860.376000	-1.242669
860.581000	-2.697421
860.786000	-4.704436
860.991000	-3.801582
861.197000	-3.146546
861.402000	-1.372379
861.607000	-1.847571
861.812000	-2.944336
862.018000	-2.910089
862.223000	-1.638012
862.428000	-0.959227
862.633000	0.096425
862.839000	-0.249506
863.044000	-1.975462
863.249000	-3.154951
863.454000	-0.786032
863.659000	-1.324917
863.865000	-2.409834
864.070000	-2.604184
864.275000	-3.197110
864.480000	-2.880631
864.686000	-4.244332
864.891000	-3.606411
865.096000	-1.451095
865.301000	-0.736469
865.507000	-0.476230
865.712000	-1.053408
865.917000	-1.713715
866.122000	-0.286396
866.328000	-3.436712
866.533000	-3.239182
866.738000	-0.312608
866.943000	-0.704852
867.148000	0.349485
867.354000	-1.855397
867.559000	-3.319839
867.764000	-2.014603
867.969000	-0.370883
868.175000	-1.993012
868.380000	-2.852133
868.585000	-3.734184
868.790000	-1.480698
868.996000	-1.921407
869.201000	-3.552987
869.406000	-4.410617
869.611000	-3.726725
869.817000	-3.135344
870.022000	1.440338
870.227000	-0.405929
870.432000	-2.499202
870.637000	-0.951196
870.843000	-1.632669
871.048000	-1.997604
871.253000	-0.359152
871.458000	-0.962600
871.664000	-2.837717
871.869000	-2.801524
872.074000	-1.960069
872.279000	-0.976908
872.485000	-2.105337
872.690000	-2.892632
872.895000	-2.284870
873.100000	-3.312662
873.306000	-3.191292
873.511000	-2.040508
873.716000	-0.295265
873.921000	-2.366858
874.126000	-2.916853
874.332000	-1.897535
874.537000	-0.271625
874.742000	-0.243121
874.947000	-0.771300
875.153000	0.761733
875.358000	-0.864573
875.563000	-1.761197
875.768000	-4.331350
875.974000	-4.773318
876.179000	-1.439321
876.384000	-0.706075
876.589000	-2.436198
876.794000	-2.381449
877.000000	-3.563605
877.205000	-4.392800
877.410000	-1.669856
877.615000	-3.224467
877.821000	-4.620632
878.026000	-2.963549
878.231000	-3.341241
878.436000	-3.609234
878.642000	-3.311277
878.847000	-1.788775
879.052000	-0.611077
879.257000	-2.601875
879.463000	-4.000194
879.668000	-2.932783
879.873000	-0.500677
880.078000	-3.130920
880.283000	-4.582704
880.489000	-4.762550
880.694000	-4.421789
880.899000	-2.664590
881.104000	-1.578430
881.310000	0.798337
881.515000	-0.420015
881.720000	1.165446
881.925000	2.951522
882.131000	4.731323
882.336000	0.439051
882.541000	-4.200671
882.746000	-3.908232
882.952000	-3.747291
883.157000	-3.442956
883.362000	-3.762294
883.567000	-3.935724
883.772000	-4.226899
883.978000	-4.135935
884.183000	-1.973664
884.388000	-2.287667
884.593000	-4.456059
884.799000	0.070438
885.004000	0.201310
885.209000	-1.974984
885.414000	-1.968215
885.620000	-4.330092
885.825000	-0.978645
886.030000	-1.075060
886.235000	-3.027337
886.440000	-2.720024
886.646000	-5.097805
886.851000	-4.285184
887.056000	-0.060548
887.261000	-0.363579
887.467000	-3.610030
887.672000	-1.218350
887.877000	-2.866437
888.082000	-5.629637
888.288000	-5.506364
888.493000	-7.496658
888.698000	-5.395631
888.903000	-2.458226
889.109000	-4.601361
889.314000	-0.825110
889.519000	-2.376125
889.724000	-0.650223
889.929000	-1.897546
890.135000	-2.805368
890.340000	-3.350989
890.545000	-4.188576
890.750000	-5.914798
890.956000	-3.965701
891.161000	-1.186587
891.366000	-2.598155
891.571000	-1.404462
891.777000	-2.324116
891.982000	-0.489809
892.187000	-0.990947
892.392000	0.220477
892.598000	0.257499
892.803000	-0.894782
893.008000	-3.200724
893.213000	-3.228219
893.418000	-3.612996
893.624000	-4.104114
893.829000	-6.180676
894.034000	-2.910891
894.239000	-1.129029
894.445000	-3.796161
894.650000	-4.109345
894.855000	-4.408886
895.060000	-4.070862
895.266000	-3.579218
895.471000	-5.024223
895.676000	-1.886021
895.881000	-0.966106
896.087000	-3.176032
896.292000	-3.649055
896.497000	-0.068188
896.702000	-1.350738
896.907000	-3.582334
897.113000	0.083441
897.318000	-0.181962
897.523000	-0.790581
897.728000	-2.739529
897.934000	-3.567405
898.139000	-3.462831
898.344000	-0.608225
898.549000	-2.276415
898.755000	-4.218106
898.960000	-4.556224
899.165000	-6.002245
899.370000	-1.794953
899.575000	1.540213
899.781000	-3.853584
899.986000	-4.760093
900.191000	-2.649051
900.396000	-2.850639
900.602000	-2.388462
900.807000	-3.330474
901.012000	-2.137612
901.217000	0.008117
901.423000	-3.187181
901.628000	-5.064617
901.833000	-0.399683
902.038000	-0.279487
902.244000	-3.844693
902.449000	-3.248889
902.654000	-3.366459
902.859000	-1.945315
903.064000	-0.242242
903.270000	-0.410777
903.475000	-4.815647
903.680000	-6.780285
903.885000	-5.693870
904.091000	-4.789120
904.296000	-6.044297
904.501000	-5.597541
904.706000	-4.198785
904.912000	0.616221
905.117000	-1.211459
905.322000	-4.428289
905.527000	-4.976213
905.733000	-4.148110
905.938000	-4.570343
906.143000	-5.026298
906.348000	-6.501970
906.553000	-1.518128
906.759000	-0.305231
906.964000	-2.517125
907.169000	-3.710763
907.374000	-6.237173
907.580000	-4.086218
907.785000	-4.202921
907.990000	24.642789
908.195000	16.591221
908.401000	-0.973159
908.606000	-8.035046
908.811000	-9.812941
909.016000	-2.290409
909.221000	-2.109328
909.427000	-4.015390
909.632000	-5.483657
909.837000	-4.126974
910.042000	-5.441389
910.248000	-7.552992
910.453000	-3.351399
910.658000	-4.702203
910.863000	-5.726981
911.069000	-7.371815
911.274000	-3.261866
911.479000	-0.538677
911.684000	-7.215867
911.890000	-4.356905
912.095000	-3.909967
912.300000	-6.569831
912.506000	-5.560455
912.711000	-5.527200
912.917000	-2.453024
913.123000	-1.941572
913.328000	-2.935522
913.534000	-3.066761
913.740000	6.575710
913.946000	2.860914
914.151000	-4.430580
914.357000	-6.105354
914.563000	-2.261158
914.768000	-5.473652
914.974000	-7.468712
915.180000	-6.672039
915.385000	-6.262371
915.591000	-9.454952
915.797000	-3.633141
916.002000	0.455758
916.208000	-2.866105
916.414000	-6.589482
916.620000	-7.276265
916.825000	-3.250274
917.031000	-4.884752
917.237000	-10.723248
917.442000	-6.213316
917.648000	-7.067861
917.854000	-7.178230
918.059000	-1.146686
918.265000	-1.260931
918.471000	-4.580943
918.676000	-8.272667
918.882000	-9.569257
919.088000	-7.631500
919.294000	-11.153333
919.499000	-7.803592
919.705000	-1.740887
919.911000	-2.949707
920.116000	-1.758235
920.322000	-7.835326
920.528000	-6.028128
920.733000	-8.112202
920.939000	-8.773210
921.145000	-8.127210
921.350000	-7.787510
921.556000	-5.869489
921.762000	-6.428750
921.968000	-5.807502
922.173000	-5.910804
922.379000	-10.057040
922.585000	-5.744301
922.790000	-5.885563
922.996000	-8.573453
923.202000	-9.078167
923.407000	-9.471332
923.613000	-6.991806
923.819000	-4.179187
924.024000	-4.825466
924.230000	-3.029872
924.436000	-6.179751
924.642000	5.181691
924.847000	2.172157
925.053000	-5.688991
925.259000	-12.173471
925.464000	-4.822663
925.670000	-6.079478
925.876000	-8.485498
926.081000	-9.385522
926.287000	-4.767117
926.493000	-2.527273
926.698000	-4.786550
926.904000	-2.082177
927.110000	-4.567530
927.316000	-5.828446
927.521000	0.900147
927.727000	-3.729623
927.933000	-6.528824
928.138000	-6.406303
928.344000	-13.205892
928.550000	-7.332145
928.755000	-1.765059
928.961000	-6.938064
929.167000	-8.068611
929.372000	-0.764799
929.578000	-4.079729
929.784000	-8.155712
929.990000	-10.265456
930.195000	-8.774301
930.401000	-6.746439
930.607000	-4.341687
930.812000	-4.384121
931.018000	-7.593562
931.224000	-12.919464
931.429000	-8.646237
931.635000	-12.949610
931.841000	-12.404864
932.046000	-5.707920
932.252000	-1.929949
932.458000	1.981558
932.664000	-2.228433
932.869000	-8.196759
933.075000	-10.341841
933.281000	-9.606114
933.486000	-2.486893
933.692000	-5.014178
933.898000	-9.081353
934.103000	-2.066178
934.309000	-6.735879
934.515000	-4.683537
934.720000	-1.774157
934.926000	0.875486
935.132000	-1.028572
935.338000	-2.676306
935.543000	-11.015046
935.749000	-14.863910
935.955000	-15.625445
936.160000	-10.898253
936.366000	-2.096919
936.572000	-4.811047
936.777000	-1.972199
936.983000	0.021030
937.189000	-5.277559
937.394000	-10.397032
937.600000	-3.107693
937.806000	0.565198
938.012000	-7.816903
938.217000	2.024397
938.423000	-2.218075
938.629000	-8.156530
938.834000	-13.405696
939.040000	-11.044306
939.246000	-6.531076
939.451000	-11.969341
939.657000	-8.795314
939.863000	-13.928040
940.068000	-4.912476
940.274000	-8.582879
940.480000	-4.029146
940.686000	-1.851239
940.891000	-6.672903
941.097000	18.435693
941.303000	4.834500
941.508000	-8.248906
941.714000	-2.662198
941.920000	-16.960517
942.125000	-8.836164
942.331000	-6.651432
942.537000	-0.104668
942.742000	1.348071
942.948000	-11.473482
943.154000	-14.363974
943.360000	-26.743103
943.565000	-10.353994
943.771000	1.252122
943.977000	3.406290
944.182000	-15.086149
944.388000	-16.777930
944.594000	-5.328668
944.799000	4.050915
945.005000	-2.700861
945.211000	3.174035
945.416000	0.722398
945.622000	-15.153147
945.828000	-14.753528
946.034000	-3.119136
946.239000	-1.697765
946.445000	-8.329514
946.651000	-17.877879
946.856000	-16.227259
947.062000	-3.234291
947.268000	-1.399924
947.473000	-16.322316
947.679000	-19.596364
947.885000	-3.155574
948.090000	0.611689
948.296000	12.026017
948.502000	0.467107
948.708000	-10.866715
948.913000	-16.955560
949.119000	-3.693705
949.325000	-10.402590
949.530000	-20.699508
949.736000	-23.006135
949.942000	-16.550484
950.147000	-18.758535
950.353000	-16.233713
950.559000	-11.658007
950.764000	9.586653
950.970000	2.435556
951.176000	-11.528233
951.382000	-17.003928
951.587000	-7.943075
951.793000	0.818445
951.999000	4.685699
952.204000	-11.875767
952.410000	-26.055363
952.616000	-12.448652
952.821000	-7.877423
953.027000	-16.589978
953.233000	-21.157622
953.438000	-19.239571
953.644000	1.783050
953.850000	-6.499733
954.056000	-12.203258
954.261000	-10.335176
954.467000	-1.266509
954.673000	0.356473
954.878000	-10.535832
955.084000	-6.804659
955.290000	-19.907873
955.495000	-24.228111
955.701000	-18.114408
955.907000	1.198671
956.112000	-5.627671
956.318000	4.653524
956.524000	5.875572
956.730000	-10.816980
956.935000	-15.271212
957.141000	-15.843063
957.347000	-4.593238
957.552000	-10.580795
957.758000	-25.150933
957.964000	-31.463849
958.169000	0.034781
958.375000	-0.314003
958.581000	-11.359328
958.786000	-25.523346
958.992000	-28.940495
959.198000	-7.491060
959.404000	-4.607255
959.609000	-12.691991
959.815000	-14.925666
960.021000	1.309276
960.226000	-4.366199
960.432000	-27.660956
960.638000	-18.928478
960.843000	-13.909389
961.049000	-16.856042
961.255000	-7.111582
961.460000	-19.479738
961.666000	-40.451597
961.872000	-22.350922
962.078000	-19.079182
962.283000	-32.523166
962.489000	-31.132852
962.695000	-21.359250
962.900000	-15.932298
963.106000	-12.757744
963.312000	-16.912250
963.517000	-22.451181
963.723000	-24.546026
963.929000	-0.768489
964.134000	9.123079
964.340000	-18.123704
964.546000	-26.507418
964.752000	-28.111460
964.957000	-28.771349
965.163000	-5.850528
965.369000	-9.551944
965.574000	-6.419391
965.780000	-8.796301
966.000000	-17.002775
966.220000	-14.065614
966.440000	-16.976779
966.661000	-2.809987
966.881000	-20.875428
967.101000	-39.199276
967.321000	-42.085764
967.541000	-15.126180
967.761000	-20.943360
967.981000	-16.192934
968.202000	-12.419705
968.422000	0.741685
968.642000	0.046213
968.862000	-5.850139
969.082000	-17.299041
969.302000	-7.557104
969.522000	-13.456659
969.743000	0.281804
969.963000	-16.993038
970.183000	-29.818947
970.403000	-25.337278
970.623000	-25.985177
970.843000	-5.405483
971.063000	1.309281
971.284000	-20.467806
971.504000	-38.139028
971.724000	-22.335776
971.944000	-33.937880
972.164000	-39.943276
972.384000	-28.692044
972.604000	-40.134287
972.825000	-47.931622
973.045000	-34.267741
973.265000	25.172390
973.485000	15.295939
973.705000	-6.513958
973.925000	-13.836241
974.145000	-52.395269
974.365000	-14.455515
974.586000	-16.257581
974.806000	-34.613414
975.026000	1.781688
975.246000	-14.566870
975.466000	-30.154309
975.686000	-19.105577
975.906000	-27.999637
976.127000	-53.080205
976.347000	-42.622551
976.567000	-5.318381
976.787000	-5.035088
977.007000	-19.189170
977.227000	-27.217023
977.447000	-35.212216
977.668000	-50.291222
977.888000	-28.703494
978.108000	-28.581949
978.328000	-20.910641
978.548000	7.373854
978.768000	10.425174
978.988000	-5.344092
979.209000	-19.124437
979.429000	-19.573122
979.649000	-9.202984
979.869000	-29.329173
980.089000	-46.735558
980.309000	-51.119638
980.529000	-54.770377
980.750000	-30.697262
980.970000	-46.180963
981.190000	-30.550910
981.410000	-37.210279
981.630000	-42.704345
981.850000	-24.052644
982.070000	-23.928015
982.291000	-61.058710
982.511000	-50.675041
982.731000	-4.572639
982.951000	-30.306898
983.171000	-35.880143
983.391000	-25.142230
983.611000	3.617033
983.832000	-30.449324
984.052000	-56.117482
984.272000	-31.756477
984.492000	-21.938362
984.712000	-31.899945
984.932000	-53.628770
985.152000	-59.127080
985.373000	-40.556264
985.593000	-14.355322
985.813000	-32.512094
986.033000	-40.667377
986.253000	3.224595
986.473000	-0.766566
986.693000	-32.361245
986.914000	-36.623360
987.134000	3.304162
987.354000	-31.653803
987.574000	195.388667
987.794000	112.112160
988.014000	-46.860745
988.234000	-32.787574
988.455000	-18.243646
988.675000	-16.342046
988.895000	-30.317979
989.115000	-54.179191
989.335000	-30.859192
989.555000	-9.524816
989.775000	-45.662946
989.995000	-41.851883
990.216000	-38.659574
990.436000	-37.779355
990.656000	-4.829971
990.876000	-35.079049
991.096000	-18.513604
991.316000	8.248141
991.536000	-23.866828
991.757000	-38.435311
991.977000	-83.797382
992.197000	-23.655005
992.417000	-43.663024
992.637000	-90.707834
992.857000	-95.645789
993.077000	-89.766649
993.298000	-33.817459
993.518000	-37.067856
993.738000	-88.406709
993.958000	-38.390378
994.178000	-56.859954
994.398000	-56.204865
994.618000	-79.005145
994.839000	-131.644206
995.059000	-33.139145
995.279000	31.809836
995.499000	-6.794312
995.719000	-21.909655
995.939000	-49.401955
996.159000	-38.461109
996.380000	-28.961485
996.600000	-66.521889
996.820000	-27.791778
997.040000	5.245959
997.260000	-66.359956
997.480000	-39.287690
997.700000	-110.278911
997.921000	-76.524594
998.141000	36.174208
998.361000	-6.534368
998.581000	-67.639070
998.801000	-98.634959
999.021000	-62.048416
999.241000	-39.950025
999.462000	-67.711615
999.682000	-104.052719
999.902000	-50.450686
1000.122000	-70.055787
1000.342000	-148.322511
1000.562000	-76.947236
1000.782000	-75.039206
1001.003000	-1037.508245
