Wavelength	Irradiance
(nm)	(mW/cm2/nm)

294.396000	0.000000
294.577000	0.000000
294.757000	-0.000000
294.938000	-0.000000
295.118000	-0.000000
295.299000	0.000000
295.479000	-0.000000
295.660000	-0.000000
295.840000	-0.000000
296.021000	-0.000000
296.202000	-0.000000
296.382000	-0.000000
296.563000	-0.000000
296.743000	-0.000000
296.924000	0.000000
297.104000	-0.000000
297.285000	-0.000000
297.465000	-0.000000
297.646000	-0.000000
297.826000	-0.000000
298.007000	0.000000
298.187000	-0.000000
298.368000	-0.000000
298.548000	0.000000
298.729000	0.000000
298.909000	-0.000000
299.090000	-0.000000
299.270000	-0.000000
299.451000	-0.000000
299.631000	-0.000000
299.812000	-0.000000
299.992000	0.000000
300.173000	0.000000
300.353000	-0.000000
300.534000	0.000000
300.714000	0.000000
300.895000	0.000000
301.075000	-0.000000
301.256000	0.000000
301.436000	-0.000000
301.617000	-0.000000
301.797000	-0.000000
301.978000	0.000000
302.159000	0.000000
302.339000	0.000000
302.520000	-0.000000
302.700000	-0.000000
302.881000	0.000000
303.061000	0.000000
303.242000	0.000000
303.422000	0.000000
303.603000	-0.000000
303.783000	-0.000000
303.964000	0.000000
304.144000	-0.000000
304.325000	-0.000000
304.505000	-0.000000
304.686000	-0.000000
304.866000	0.000000
305.047000	0.000000
305.227000	-0.000000
305.408000	-0.000000
305.588000	-0.000000
305.769000	-0.000000
305.949000	-0.000000
306.130000	-0.000000
306.310000	-0.000000
306.491000	-0.000000
306.671000	0.000000
306.852000	-0.000000
307.032000	-0.000000
307.213000	-0.000000
307.393000	-0.000000
307.574000	0.000000
307.755000	0.000000
307.935000	-0.000000
308.116000	-0.000000
308.296000	-0.000000
308.477000	-0.000000
308.657000	0.000000
308.838000	0.000000
309.018000	0.000000
309.199000	-0.000000
309.379000	-0.000000
309.560000	0.000000
309.740000	-0.000000
309.921000	0.000000
310.101000	-0.000000
310.282000	-0.000000
310.462000	-0.000000
310.643000	-0.000000
310.823000	-0.000000
311.004000	-0.000000
311.184000	-0.000000
311.365000	0.000000
311.545000	0.000000
311.726000	0.000000
311.906000	-0.000000
312.087000	0.000000
312.267000	-0.000000
312.448000	-0.000000
312.628000	-0.000000
312.809000	-0.000000
312.989000	-0.000000
313.170000	-0.000000
313.344000	-0.000000
313.518000	-0.000000
313.691000	-0.000000
313.865000	-0.000000
314.039000	-0.000000
314.213000	-0.000000
314.387000	-0.000000
314.560000	-0.000000
314.734000	-0.000000
314.908000	-0.000000
315.082000	-0.000000
315.255000	0.000000
315.429000	0.000000
315.603000	0.000000
315.777000	-0.000000
315.951000	0.000000
316.124000	-0.000000
316.298000	-0.000000
316.472000	-0.000000
316.646000	-0.000000
316.820000	-0.000000
316.993000	-0.000000
317.167000	-0.000000
317.341000	-0.000000
317.515000	-0.000000
317.688000	-0.000000
317.862000	-0.000000
318.036000	-0.000000
318.210000	-0.000000
318.384000	-0.000000
318.557000	-0.000000
318.731000	-0.000000
318.905000	-0.000000
319.079000	-0.000000
319.253000	-0.000000
319.426000	0.000000
319.600000	0.000000
319.774000	-0.000000
319.948000	-0.000000
320.122000	0.000000
320.295000	0.000000
320.469000	-0.000000
320.643000	-0.000000
320.817000	-0.000000
320.990000	-0.000000
321.164000	-0.000000
321.338000	-0.000000
321.512000	-0.000000
321.686000	-0.000000
321.859000	-0.000000
322.033000	-0.000000
322.207000	-0.000000
322.381000	-0.000000
322.555000	0.000000
322.728000	-0.000000
322.902000	-0.000000
323.076000	-0.000000
323.250000	-0.000000
323.423000	-0.000000
323.597000	-0.000000
323.771000	-0.000000
323.945000	-0.000000
324.119000	-0.000000
324.292000	0.000000
324.466000	-0.000000
324.640000	0.000000
324.814000	0.000000
324.988000	-0.000000
325.161000	-0.000000
325.335000	-0.000000
325.509000	-0.000000
325.683000	0.000000
325.856000	-0.000000
326.030000	-0.000000
326.204000	-0.000000
326.378000	-0.000000
326.552000	-0.000000
326.725000	-0.000000
326.899000	-0.000000
327.073000	-0.000000
327.247000	-0.000000
327.421000	0.000000
327.594000	-0.000000
327.768000	-0.000000
327.942000	-0.000000
328.116000	0.000000
328.289000	0.000000
328.463000	-0.000000
328.637000	0.000000
328.811000	-0.000000
328.985000	-0.000000
329.158000	-0.000000
329.332000	-0.000000
329.506000	0.000000
329.680000	-0.000000
329.854000	-0.000000
330.027000	0.000000
330.201000	0.000000
330.375000	0.000000
330.549000	0.000000
330.723000	-0.000000
330.896000	-0.000000
331.070000	-0.000000
331.244000	-0.000000
331.418000	-0.000000
331.591000	-0.000000
331.765000	-0.000000
331.939000	-0.000000
332.113000	-0.000000
332.287000	-0.000000
332.460000	0.000000
332.634000	0.000000
332.808000	-0.000000
332.982000	-0.000000
333.156000	-0.000000
333.329000	-0.000000
333.503000	-0.000000
333.677000	-0.000000
333.851000	-0.000000
334.024000	-0.000000
334.198000	-0.000000
334.372000	-0.000000
334.546000	-0.000000
334.720000	-0.000000
334.893000	-0.000000
335.067000	-0.000000
335.241000	-0.000000
335.415000	-0.000000
335.589000	-0.000000
335.762000	-0.000000
335.936000	-0.000000
336.110000	-0.000000
336.284000	-0.000000
336.458000	-0.000000
336.631000	-0.000000
336.805000	-0.000000
336.979000	-0.000000
337.153000	-0.000000
337.326000	-0.000000
337.500000	-0.000000
337.674000	-0.000000
337.848000	-0.000000
338.022000	-0.000000
338.195000	-0.000000
338.369000	-0.000000
338.543000	-0.000000
338.717000	-0.000000
338.891000	0.000000
339.064000	0.000000
339.238000	-0.000000
339.412000	-0.000000
339.586000	-0.000000
339.759000	-0.000000
339.933000	-0.000000
340.107000	0.000000
340.281000	-0.000000
340.455000	-0.000000
340.628000	-0.000000
340.802000	-0.000000
340.976000	-0.000000
341.150000	-0.000000
341.324000	-0.000000
341.497000	-0.000000
341.671000	-0.000000
341.845000	-0.000000
342.019000	-0.000000
342.192000	-0.000000
342.366000	-0.000000
342.540000	-0.000000
342.714000	-0.000000
342.888000	-0.000000
343.061000	-0.000000
343.235000	-0.000000
343.409000	-0.000000
343.583000	-0.000000
343.757000	-0.000000
343.930000	-0.000000
344.104000	-0.000000
344.278000	0.000000
344.452000	0.000000
344.626000	-0.000000
344.799000	-0.000000
344.973000	-0.000000
345.147000	-0.000000
345.321000	-0.000000
345.494000	-0.000000
345.668000	0.000000
345.842000	0.000000
346.016000	-0.000000
346.190000	0.000000
346.363000	0.000000
346.537000	-0.000000
346.711000	-0.000000
346.885000	-0.000000
347.059000	-0.000000
347.232000	0.000000
347.406000	0.000000
347.580000	-0.000000
347.754000	-0.000000
347.927000	0.000000
348.101000	0.000000
348.275000	-0.000000
348.449000	-0.000000
348.623000	-0.000000
348.796000	0.000000
348.970000	0.000000
349.144000	-0.000000
349.318000	-0.000000
349.492000	-0.000000
349.665000	-0.000000
349.839000	-0.000000
350.013000	-0.000000
350.187000	-0.000000
350.361000	-0.000000
350.534000	-0.000000
350.708000	-0.000000
350.882000	-0.000000
351.056000	0.000000
351.229000	-0.000000
351.403000	-0.000000
351.577000	-0.000000
351.751000	-0.000000
351.925000	-0.000000
352.098000	-0.000000
352.272000	-0.000000
352.446000	-0.000000
352.620000	-0.000000
352.794000	-0.000000
352.967000	-0.000000
353.141000	0.000000
353.315000	0.000000
353.489000	-0.000000
353.662000	-0.000000
353.836000	-0.000000
354.010000	-0.000000
354.184000	-0.000000
354.358000	-0.000000
354.531000	-0.000000
354.705000	-0.000000
354.879000	-0.000000
355.053000	-0.000000
355.227000	0.000000
355.400000	-0.000000
355.574000	0.000000
355.748000	0.000000
355.922000	-0.000000
356.095000	-0.000000
356.269000	0.000000
356.443000	-0.000000
356.617000	-0.000000
356.791000	-0.000000
356.964000	-0.000000
357.138000	-0.000000
357.312000	-0.000000
357.486000	-0.000000
357.660000	-0.000000
357.833000	-0.000000
358.007000	-0.000000
358.181000	-0.000000
358.355000	-0.000000
358.529000	-0.000000
358.702000	-0.000000
358.876000	-0.000000
359.050000	-0.000000
359.224000	-0.000000
359.397000	0.000000
359.571000	-0.000000
359.745000	-0.000000
359.919000	-0.000000
360.093000	-0.086641
360.266000	0.054784
360.440000	0.129929
360.614000	0.137618
360.788000	-0.004387
360.962000	-0.249224
361.135000	-0.099364
361.309000	-0.165336
361.483000	-0.322396
361.657000	-0.327051
361.830000	-0.284209
362.004000	-0.088074
362.178000	-0.417657
362.352000	-0.239054
362.526000	-0.079188
362.699000	-0.107416
362.873000	-0.413490
363.047000	-0.393121
363.221000	-0.365316
363.395000	-0.189180
363.568000	-0.252889
363.742000	-0.285750
363.916000	-0.268238
364.090000	-0.348989
364.263000	-0.329550
364.437000	-0.443265
364.611000	-0.127794
364.785000	-0.074403
364.959000	-0.278803
365.132000	-0.276442
365.306000	-0.289087
365.480000	-0.114317
365.656000	-0.182360
365.831000	-0.183628
366.007000	-0.140635
366.183000	-0.149403
366.358000	-0.298313
366.534000	-0.191397
366.710000	-0.381899
366.886000	-0.290125
367.061000	-0.076013
367.237000	0.023089
367.413000	-0.131988
367.588000	-0.431735
367.764000	-0.431074
367.940000	-0.400316
368.115000	-0.282280
368.291000	-0.325615
368.467000	-0.242989
368.643000	0.054867
368.818000	-0.331557
368.994000	-0.446078
369.170000	-0.299458
369.345000	-0.273781
369.521000	-0.357507
369.697000	-0.189520
369.872000	-0.242859
370.048000	-0.376547
370.224000	-0.312566
370.399000	-0.488108
370.575000	-0.421765
370.751000	-0.538782
370.927000	-0.496539
371.102000	-0.474725
371.278000	-0.439634
371.454000	-0.315477
371.629000	-0.005318
371.805000	-0.049591
371.981000	0.069296
372.156000	0.237871
372.332000	0.032516
372.508000	-0.023042
372.683000	-0.064016
372.859000	-0.215299
373.035000	-0.262448
373.211000	0.180562
373.386000	-0.038301
373.562000	-0.470440
373.738000	-0.503992
373.913000	-0.648973
374.089000	-0.513931
374.265000	-0.127812
374.440000	-0.116895
374.616000	-0.047498
374.792000	-0.233383
374.968000	0.164600
375.143000	-0.037739
375.319000	-0.277252
375.495000	-0.373685
375.670000	-0.307887
375.846000	-0.186072
376.022000	-0.334719
376.197000	-0.275547
376.373000	-0.484113
376.549000	-0.494091
376.724000	-0.563167
376.900000	-0.420563
377.076000	-0.241298
377.252000	-0.002285
377.427000	0.063822
377.603000	-0.278797
377.779000	-0.278900
377.954000	-0.389341
378.130000	-0.233965
378.306000	-0.178476
378.481000	-0.203629
378.657000	-0.262682
378.833000	-0.339370
379.009000	-0.265928
379.184000	-0.103236
379.360000	-0.122341
379.536000	-0.132002
379.711000	-0.225027
379.887000	-0.279459
380.063000	-0.302200
380.238000	-0.384866
380.414000	-0.088089
380.590000	-0.311300
380.765000	-0.342004
380.941000	-0.076291
381.117000	-0.104090
381.293000	-0.222366
381.468000	-0.353832
381.644000	-0.245826
381.820000	-0.104312
381.995000	0.023471
382.171000	0.121361
382.347000	0.098236
382.522000	-0.310761
382.698000	-0.039218
382.874000	0.026106
383.050000	-0.336490
383.225000	0.037645
383.401000	0.269527
383.577000	-0.082989
383.752000	-0.313116
383.928000	-0.267300
384.104000	-0.181509
384.279000	-0.245291
384.455000	-0.170901
384.631000	-0.272489
384.806000	-0.436646
384.982000	-0.230534
385.158000	-0.309274
385.334000	-0.133798
385.509000	-0.227111
385.685000	-0.481929
385.861000	-0.350633
386.036000	-0.438729
386.212000	-0.597824
386.388000	-0.409900
386.563000	-0.345022
386.739000	-0.359937
386.915000	-0.572283
387.090000	-0.291384
387.266000	-0.064401
387.442000	0.011852
387.618000	-0.091829
387.793000	-0.374991
387.969000	-0.524380
388.145000	-0.441265
388.320000	-0.376052
388.496000	-0.313006
388.672000	-0.567798
388.847000	-0.174972
389.023000	-0.148057
389.199000	-0.436343
389.375000	-0.224508
389.550000	-0.335863
389.726000	-0.223370
389.902000	-0.373212
390.077000	-0.218123
390.253000	-0.196867
390.429000	-0.301508
390.604000	-0.202207
390.780000	-0.170800
390.956000	-0.309342
391.131000	-0.333385
391.307000	0.006026
391.483000	-0.207543
391.659000	-0.386778
391.834000	-0.138949
392.010000	-0.310845
392.186000	-0.365858
392.361000	-0.309102
392.537000	-0.417399
392.713000	0.051724
392.888000	0.243359
393.064000	-0.056319
393.240000	-0.245234
393.416000	-0.356463
393.591000	-0.415813
393.767000	-0.495787
393.943000	-0.441358
394.118000	-0.100672
394.294000	0.093685
394.470000	-0.110965
394.645000	-0.017994
394.821000	0.272014
394.997000	-0.099981
395.172000	-0.220482
395.348000	-0.307911
395.524000	-0.575745
395.700000	-0.514351
395.875000	-0.161405
396.051000	-0.124678
396.227000	-0.199185
396.402000	-0.245152
396.578000	-0.205001
396.754000	-0.389957
396.929000	-0.317772
397.105000	-0.012504
397.281000	-0.142713
397.457000	-0.277323
397.632000	-0.202461
397.808000	-0.464902
397.984000	-0.660747
398.159000	-0.581378
398.335000	-0.362365
398.511000	0.135054
398.686000	-0.120956
398.862000	-0.407651
399.038000	-0.473173
399.213000	-0.249234
399.389000	-0.512892
399.565000	-0.222192
399.741000	-0.017387
399.916000	-0.035627
400.092000	0.203468
400.268000	-0.218610
400.443000	-0.280516
400.619000	0.031396
400.795000	-0.110549
400.970000	-0.315535
401.146000	-0.396090
401.322000	-0.038125
401.497000	0.391782
401.673000	0.060027
401.849000	-0.288312
402.025000	-0.115042
402.200000	-0.237653
402.376000	-0.293864
402.552000	0.159877
402.727000	-0.053214
402.903000	-0.382433
403.079000	-0.349480
403.254000	-0.060854
403.430000	0.010667
403.606000	-0.124147
403.782000	-0.212920
403.957000	-0.374051
404.133000	-0.512967
404.309000	-0.344257
404.484000	-0.114004
404.660000	-0.093907
404.841000	-0.259935
405.023000	-0.047741
405.204000	-0.134478
405.385000	-0.411423
405.566000	-0.389196
405.748000	-0.233688
405.929000	0.008277
406.110000	-0.109423
406.292000	-0.265258
406.473000	-0.159345
406.654000	-0.349867
406.835000	-0.216135
407.017000	-0.228015
407.198000	-0.180276
407.379000	-0.184787
407.560000	-0.278299
407.742000	-0.295645
407.923000	-0.175114
408.104000	-0.311073
408.286000	-0.206794
408.467000	-0.140715
408.648000	-0.399166
408.829000	-0.420449
409.011000	-0.256925
409.192000	-0.450485
409.373000	-0.229747
409.555000	-0.156397
409.736000	-0.127697
409.917000	-0.211433
410.098000	-0.247629
410.280000	-0.198560
410.461000	-0.158466
410.642000	-0.121433
410.823000	0.097509
411.005000	0.047820
411.186000	-0.188917
411.367000	-0.296342
411.549000	-0.303606
411.730000	-0.114132
411.911000	0.040302
412.092000	-0.111119
412.274000	-0.216133
412.455000	-0.194380
412.636000	-0.155053
412.818000	-0.311825
412.999000	-0.424516
413.180000	-0.348446
413.361000	-0.275750
413.543000	-0.306169
413.724000	-0.378795
413.905000	-0.381255
414.087000	-0.404122
414.268000	-0.423945
414.449000	-0.424738
414.630000	-0.494689
414.812000	-0.598363
414.993000	-0.209487
415.174000	-0.079199
415.355000	-0.283766
415.537000	-0.497780
415.718000	-0.263431
415.899000	-0.371277
416.081000	-0.465915
416.262000	-0.203449
416.443000	-0.363279
416.624000	-0.331400
416.806000	-0.198074
416.987000	-0.076437
417.168000	-0.147657
417.350000	-0.345886
417.531000	-0.429284
417.712000	-0.384140
417.893000	-0.108697
418.075000	0.012295
418.256000	-0.265107
418.437000	-0.161419
418.618000	-0.056459
418.800000	-0.020843
418.981000	-0.261128
419.162000	-0.217299
419.344000	-0.041954
419.525000	-0.172513
419.706000	-0.246245
419.887000	-0.063450
420.069000	0.116361
420.250000	-0.042087
420.431000	-0.131615
420.613000	-0.196224
420.794000	-0.417410
420.975000	-0.065325
421.156000	-0.220837
421.338000	-0.239477
421.519000	-0.248836
421.700000	-0.339212
421.882000	-0.358020
422.063000	-0.166572
422.244000	0.342229
422.425000	0.103859
422.607000	-0.293945
422.788000	-0.304398
422.969000	-0.379744
423.150000	-0.436578
423.332000	-0.456406
423.513000	-0.218119
423.694000	-0.188549
423.876000	-0.185621
424.057000	-0.147955
424.238000	-0.070471
424.419000	-0.039844
424.601000	-0.229552
424.782000	-0.184309
424.963000	0.009867
425.145000	-0.138519
425.326000	-0.098048
425.507000	-0.051060
425.688000	-0.114880
425.870000	-0.294963
426.051000	-0.440826
426.232000	-0.360987
426.413000	-0.320614
426.595000	-0.337724
426.776000	-0.370433
426.957000	-0.320164
427.139000	-0.199080
427.320000	-0.176380
427.501000	-0.063441
427.682000	-0.112600
427.864000	-0.124308
428.045000	0.057141
428.226000	-0.027962
428.408000	-0.380673
428.589000	-0.199900
428.770000	-0.180630
428.951000	-0.337638
429.133000	-0.481771
429.314000	-0.275379
429.495000	-0.244176
429.677000	-0.249717
429.858000	-0.306164
430.039000	-0.198725
430.220000	-0.097974
430.402000	-0.074302
430.583000	-0.348490
430.764000	-0.281787
430.945000	-0.144440
431.127000	-0.055229
431.308000	-0.223598
431.489000	-0.045989
431.671000	-0.013527
431.852000	-0.124634
432.033000	-0.215005
432.214000	-0.115154
432.396000	-0.059500
432.577000	-0.290763
432.758000	-0.449120
432.940000	-0.358357
433.121000	-0.244664
433.302000	-0.213891
433.483000	-0.066248
433.665000	0.000460
433.846000	-0.077776
434.027000	-0.216775
434.208000	-0.305554
434.390000	-0.334186
434.571000	0.007338
434.752000	0.378294
434.934000	0.104582
435.115000	-0.004085
435.296000	0.066243
435.477000	-0.123954
435.659000	-0.368846
435.840000	-0.268950
436.026000	-0.212195
436.211000	-0.256680
436.397000	-0.469540
436.582000	-0.396053
436.768000	-0.208769
436.953000	-0.270721
437.139000	-0.279003
437.325000	0.022522
437.510000	0.000442
437.696000	0.154575
437.881000	0.123553
438.067000	-0.257493
438.252000	-0.235811
438.438000	-0.270620
438.624000	-0.266260
438.809000	-0.162849
438.995000	-0.108294
439.180000	-0.190339
439.366000	-0.216128
439.551000	-0.209351
439.737000	-0.152810
439.923000	-0.131398
440.108000	-0.258566
440.294000	-0.158796
440.479000	-0.023156
440.665000	0.006816
440.850000	-0.084309
441.036000	-0.084501
441.222000	-0.089123
441.407000	-0.273683
441.593000	-0.185760
441.778000	-0.035462
441.964000	0.068259
442.149000	-0.236098
442.335000	-0.308452
442.521000	-0.177983
442.706000	-0.028847
442.892000	-0.135162
443.077000	-0.194214
443.263000	-0.116294
443.448000	-0.175939
443.634000	-0.238349
443.820000	0.064366
444.005000	-0.032574
444.191000	-0.280555
444.376000	-0.244280
444.562000	0.098504
444.747000	0.092855
444.933000	0.016797
445.119000	-0.148770
445.304000	-0.185209
445.490000	-0.060809
445.675000	-0.062820
445.861000	-0.210230
446.046000	-0.242421
446.232000	-0.132047
446.418000	-0.038267
446.603000	-0.099321
446.789000	-0.107347
446.974000	-0.101553
447.160000	-0.322663
447.345000	-0.274482
447.531000	-0.292417
447.717000	-0.137757
447.902000	-0.038357
448.088000	0.008519
448.273000	-0.116635
448.459000	-0.130393
448.644000	-0.166703
448.830000	-0.284535
449.016000	-0.342853
449.201000	-0.279863
449.387000	-0.189554
449.572000	-0.088248
449.758000	-0.213025
449.943000	-0.267771
450.129000	-0.274736
450.315000	-0.288251
450.500000	-0.328627
450.686000	-0.236772
450.871000	-0.329546
451.057000	-0.210484
451.243000	-0.226290
451.428000	-0.212533
451.614000	-0.216038
451.799000	-0.231932
451.985000	-0.047647
452.170000	0.044402
452.356000	-0.171484
452.542000	-0.225718
452.727000	-0.101333
452.913000	-0.209395
453.098000	0.000400
453.284000	0.202104
453.469000	-0.033591
453.655000	0.072254
453.841000	0.032284
454.026000	-0.136507
454.212000	-0.116332
454.397000	-0.108564
454.583000	-0.309347
454.768000	-0.379211
454.954000	-0.128013
455.140000	-0.082436
455.325000	-0.257368
455.511000	-0.335728
455.696000	-0.325873
455.882000	-0.133767
456.067000	0.057638
456.253000	-0.159502
456.439000	-0.325272
456.624000	-0.276988
456.810000	-0.291921
456.995000	-0.294279
457.181000	-0.354241
457.366000	-0.132164
457.552000	-0.085030
457.738000	-0.019004
457.923000	-0.044291
458.109000	0.107556
458.294000	0.035427
458.480000	-0.022997
458.665000	-0.059848
458.851000	-0.176125
459.037000	-0.350291
459.222000	-0.226993
459.408000	-0.207729
459.593000	-0.151113
459.779000	-0.030202
459.964000	0.098043
460.150000	0.222907
460.336000	0.140277
460.521000	-0.033875
460.707000	-0.155312
460.892000	-0.259235
461.078000	-0.075597
461.263000	0.040088
461.449000	-0.153333
461.635000	-0.162647
461.820000	-0.141511
462.006000	-0.020345
462.191000	-0.020270
462.377000	-0.226060
462.562000	0.043554
462.748000	0.225083
462.934000	-0.153357
463.119000	-0.344862
463.305000	-0.127843
463.490000	-0.153112
463.676000	-0.105300
463.861000	-0.118795
464.047000	-0.190807
464.233000	-0.119485
464.418000	-0.145142
464.604000	-0.251422
464.789000	-0.071362
464.975000	-0.017967
465.160000	-0.130022
465.346000	-0.139126
465.532000	-0.212853
465.717000	-0.243704
465.903000	-0.052767
466.088000	-0.081981
466.274000	-0.276369
466.459000	-0.267575
466.645000	0.055122
466.831000	0.038452
467.016000	0.042011
467.202000	-0.059661
467.387000	-0.162880
467.573000	-0.319387
467.758000	0.016550
467.944000	-0.109321
468.130000	-0.241821
468.315000	-0.118987
468.501000	0.061624
468.686000	-0.023008
468.872000	-0.058978
469.057000	-0.033795
469.243000	-0.104048
469.429000	-0.139946
469.614000	-0.240103
469.800000	-0.288563
469.985000	-0.114135
470.171000	-0.008555
470.356000	-0.121287
470.542000	-0.073267
470.728000	-0.076593
470.913000	-0.097580
471.099000	0.025268
471.284000	-0.083871
471.470000	-0.164755
471.655000	-0.121700
471.841000	-0.146365
472.027000	-0.227450
472.212000	-0.013894
472.398000	0.046822
472.583000	-0.074780
472.769000	-0.049827
472.954000	-0.069435
473.140000	-0.277619
473.326000	-0.295818
473.511000	0.019942
473.697000	0.025314
473.882000	-0.132103
474.068000	-0.170016
474.253000	-0.235360
474.439000	-0.165979
474.625000	-0.076411
474.810000	-0.081825
474.996000	-0.115770
475.181000	-0.254180
475.367000	-0.049534
475.552000	0.168803
475.738000	-0.136848
475.924000	-0.128227
476.109000	-0.072835
476.295000	-0.196115
476.480000	-0.189166
476.666000	-0.160315
476.851000	-0.112053
477.037000	-0.110846
477.223000	-0.215819
477.408000	-0.269490
477.594000	-0.346008
477.779000	-0.216117
477.965000	-0.175030
478.151000	-0.260881
478.336000	-0.133963
478.522000	-0.199751
478.707000	-0.256898
478.893000	-0.171500
479.078000	-0.322672
479.264000	-0.337116
479.450000	-0.233095
479.635000	-0.098276
479.821000	-0.172106
480.006000	-0.150433
480.192000	-0.132356
480.377000	-0.120063
480.563000	-0.128923
480.749000	-0.301495
480.934000	-0.272455
481.120000	-0.148067
481.305000	-0.074646
481.491000	-0.073157
481.676000	-0.055350
481.862000	-0.050074
482.048000	-0.189543
482.233000	-0.130268
482.419000	-0.161051
482.604000	-0.243799
482.790000	-0.261758
482.975000	-0.199106
483.161000	-0.024724
483.347000	-0.038994
483.532000	-0.092675
483.718000	-0.306587
483.903000	-0.249497
484.089000	-0.211238
484.274000	-0.334441
484.460000	-0.186213
484.646000	-0.134200
484.831000	-0.268952
485.017000	-0.189358
485.202000	-0.167562
485.388000	0.012853
485.573000	0.018173
485.759000	-0.160400
485.945000	-0.044307
486.130000	-0.206727
486.316000	-0.149658
486.501000	-0.060204
486.687000	-0.284230
486.872000	-0.369941
487.058000	-0.158193
487.244000	-0.126205
487.429000	-0.314242
487.615000	-0.168527
487.800000	-0.067186
487.986000	-0.151922
488.171000	-0.035140
488.357000	-0.102234
488.543000	-0.103624
488.728000	-0.033142
488.914000	-0.114309
489.099000	-0.197099
489.285000	-0.232192
489.470000	-0.054125
489.656000	-0.031303
489.842000	-0.101258
490.027000	-0.004890
490.213000	-0.139608
490.398000	-0.380230
490.584000	-0.128981
490.769000	-0.114999
490.955000	-0.048502
491.141000	-0.017060
491.326000	-0.046491
491.512000	0.088778
491.697000	-0.041184
491.883000	-0.198731
492.068000	-0.209143
492.254000	-0.199110
492.440000	-0.138323
492.625000	-0.189759
492.811000	-0.213521
492.996000	-0.099552
493.182000	-0.097518
493.367000	-0.275137
493.553000	-0.340658
493.739000	-0.276520
493.924000	-0.152880
494.110000	-0.109491
494.295000	-0.244324
494.481000	-0.143554
494.666000	-0.141942
494.852000	-0.018485
495.038000	-0.122636
495.223000	-0.240849
495.409000	-0.197620
495.594000	-0.230425
495.780000	-0.153103
495.965000	-0.211284
496.151000	0.000341
496.337000	0.027589
496.522000	-0.220195
496.708000	-0.120543
496.893000	0.002043
497.079000	-0.169479
497.264000	-0.211529
497.450000	-0.140396
497.636000	-0.026815
497.821000	-0.192633
498.007000	-0.013204
498.192000	0.037719
498.378000	-0.106515
498.563000	-0.169324
498.749000	-0.144021
498.935000	-0.138716
499.120000	-0.018270
499.306000	-0.175848
499.491000	-0.207474
499.677000	-0.129716
499.862000	-0.043742
500.048000	0.027514
500.234000	-0.101307
500.419000	-0.145619
500.605000	0.015628
500.790000	-0.076017
500.976000	-0.217202
501.161000	-0.269815
501.347000	-0.108397
501.533000	0.010541
501.718000	-0.084615
501.904000	-0.123983
502.089000	-0.054238
502.275000	-0.006464
502.460000	-0.115000
502.646000	-0.062491
502.832000	-0.011553
503.017000	-0.045626
503.203000	-0.228108
503.388000	-0.264544
503.574000	-0.084882
503.759000	-0.042259
503.945000	-0.001366
504.131000	-0.098659
504.316000	-0.142952
504.502000	-0.096930
504.687000	-0.124566
504.873000	-0.246190
505.058000	-0.287242
505.244000	-0.288884
505.430000	-0.217415
505.615000	-0.124983
505.801000	-0.065012
505.986000	-0.246129
506.172000	-0.172635
506.358000	-0.112949
506.543000	-0.154063
506.729000	0.015793
506.914000	-0.001376
507.100000	0.114281
507.285000	-0.108595
507.471000	-0.198293
507.657000	0.036614
507.842000	-0.099688
508.028000	-0.268890
508.213000	-0.219387
508.399000	-0.173030
508.584000	-0.051717
508.770000	-0.165966
508.956000	-0.235448
509.141000	-0.162484
509.327000	-0.053463
509.512000	-0.084373
509.698000	-0.117401
509.883000	-0.084736
510.069000	-0.125010
510.255000	-0.107647
510.440000	-0.102548
510.626000	-0.161760
510.811000	-0.189923
510.997000	-0.086950
511.182000	0.111959
511.368000	0.019553
511.554000	-0.286131
511.739000	-0.203898
511.925000	0.000349
512.110000	-0.045025
512.296000	0.087826
512.481000	0.138394
512.667000	0.016093
512.853000	-0.193854
513.038000	-0.152077
513.224000	-0.159124
513.409000	-0.257235
513.595000	-0.166384
513.780000	-0.290849
513.966000	-0.214898
514.152000	-0.216675
514.337000	-0.265787
514.523000	-0.185263
514.708000	-0.148642
514.894000	-0.089291
515.079000	-0.185238
515.265000	-0.205200
515.451000	-0.154315
515.636000	-0.249041
515.822000	-0.150877
516.007000	-0.265220
516.193000	-0.108584
516.378000	-0.019008
516.564000	-0.124429
516.750000	-0.094585
516.935000	-0.011961
517.121000	-0.008441
517.306000	0.051399
517.492000	0.032085
517.677000	-0.209194
517.863000	-0.237412
518.049000	-0.087736
518.234000	-0.182734
518.420000	-0.066627
518.605000	0.111360
518.791000	0.051425
518.976000	-0.043850
519.162000	-0.169076
519.348000	-0.112624
519.533000	-0.119511
519.719000	0.100928
519.904000	0.030383
520.090000	-0.008462
520.275000	0.143243
520.461000	0.113478
520.647000	-0.109215
520.832000	-0.302661
521.018000	-0.195830
521.203000	-0.179335
521.389000	-0.349959
521.574000	-0.223442
521.760000	-0.049053
521.946000	-0.058051
522.131000	-0.155528
522.317000	-0.171206
522.502000	-0.202954
522.688000	-0.061550
522.873000	-0.095245
523.059000	-0.137831
523.245000	-0.104073
523.430000	-0.226486
523.616000	-0.221108
523.801000	-0.271073
523.987000	-0.223575
524.172000	-0.109821
524.358000	-0.074312
524.544000	-0.081290
524.729000	-0.012037
524.915000	0.023422
525.100000	-0.091879
525.286000	-0.067146
525.471000	-0.026364
525.657000	-0.033524
525.843000	-0.265652
526.028000	-0.108622
526.214000	-0.149657
526.399000	-0.241433
526.585000	-0.286267
526.770000	-0.300563
526.956000	-0.164843
527.142000	-0.261762
527.327000	-0.091309
527.513000	-0.192202
527.698000	-0.271690
527.884000	-0.258214
528.069000	-0.230625
528.255000	-0.099021
528.441000	-0.180549
528.626000	-0.155698
528.812000	0.080144
528.997000	-0.068678
529.183000	-0.195775
529.368000	-0.138299
529.554000	-0.142324
529.740000	-0.137221
529.925000	-0.201472
530.111000	-0.203532
530.296000	-0.102652
530.482000	0.005901
530.667000	-0.128775
530.853000	-0.044049
531.039000	-0.079388
531.224000	-0.057437
531.410000	0.000373
531.595000	-0.050009
531.781000	0.013437
531.967000	-0.159145
532.152000	-0.022214
532.338000	-0.137323
532.523000	-0.284995
532.709000	-0.280358
532.894000	-0.178803
533.080000	-0.117930
533.266000	-0.274614
533.451000	-0.273718
533.637000	-0.203456
533.822000	-0.015059
534.008000	-0.134644
534.193000	-0.156441
534.379000	-0.110368
534.565000	-0.159587
534.750000	-0.195425
534.936000	-0.003538
535.121000	-0.133612
535.307000	-0.118051
535.492000	-0.052991
535.678000	-0.256195
535.864000	-0.141525
536.049000	0.159229
536.235000	-0.094194
536.420000	-0.090582
536.606000	-0.137478
536.791000	-0.291274
536.977000	-0.326766
537.163000	-0.048856
537.348000	-0.086309
537.534000	-0.009977
537.719000	-0.145451
537.905000	-0.315464
538.090000	-0.102490
538.276000	-0.018547
538.462000	-0.039752
538.647000	-0.008068
538.833000	-0.125518
539.018000	0.009008
539.204000	-0.051078
539.389000	-0.237259
539.575000	0.017734
539.761000	-0.023473
539.946000	-0.270340
540.132000	-0.181513
540.317000	-0.333731
540.503000	-0.222085
540.688000	-0.185793
540.874000	0.018236
541.060000	0.122716
541.245000	-0.044224
541.431000	-0.261868
541.616000	-0.201885
541.802000	-0.220059
541.987000	-0.130427
542.173000	-0.096948
542.359000	-0.242202
542.544000	-0.167121
542.730000	-0.308745
542.915000	-0.261631
543.101000	-0.150047
543.286000	-0.305744
543.472000	-0.408824
543.658000	-0.250350
543.843000	-0.239434
544.029000	-0.059704
544.214000	-0.173316
544.400000	-0.472748
544.585000	-0.345925
544.771000	-0.298078
544.957000	-0.093029
545.142000	-0.006550
545.328000	-0.015949
545.513000	0.023969
545.699000	0.057112
545.884000	-0.070376
546.070000	-0.134201
546.261000	-0.141804
546.451000	-0.196953
546.642000	-0.373619
546.833000	-0.240598
547.023000	-0.383724
547.214000	-0.370900
547.405000	-0.150441
547.595000	0.103621
547.786000	0.055863
547.977000	-0.163699
548.167000	-0.294327
548.358000	-0.249510
548.549000	0.114982
548.740000	-0.040926
548.930000	-0.433284
549.121000	-0.334329
549.312000	-0.352781
549.502000	-0.420031
549.693000	-0.277174
549.884000	-0.154360
550.074000	-0.056239
550.265000	-0.281368
550.456000	-0.133342
550.646000	-0.079003
550.837000	-0.123764
551.028000	-0.260800
551.218000	-0.133849
551.409000	-0.276864
551.600000	-0.232084
551.790000	-0.082353
551.981000	-0.376095
552.172000	-0.288760
552.362000	0.065873
552.553000	0.091478
552.744000	-0.075255
552.934000	-0.181476
553.125000	-0.257760
553.316000	-0.224987
553.506000	0.112218
553.697000	-0.065747
553.888000	-0.065631
554.079000	0.125255
554.269000	0.056574
554.460000	-0.300958
554.651000	-0.334515
554.841000	-0.398899
555.032000	-0.268733
555.223000	-0.192074
555.413000	-0.073626
555.604000	-0.076506
555.795000	-0.133336
555.985000	-0.056230
556.176000	-0.161688
556.367000	-0.419062
556.557000	-0.275830
556.748000	-0.190973
556.939000	-0.242353
557.129000	-0.342829
557.320000	-0.198386
557.511000	-0.223799
557.701000	-0.228594
557.892000	-0.136466
558.083000	0.049570
558.273000	-0.056293
558.464000	-0.265472
558.655000	-0.262663
558.845000	-0.184713
559.036000	-0.058697
559.227000	-0.102538
559.418000	-0.061429
559.608000	0.005676
559.799000	-0.313859
559.990000	-0.327569
560.180000	-0.215072
560.371000	-0.428743
560.562000	-0.379325
560.752000	-0.148478
560.943000	-0.297607
561.134000	-0.537741
561.324000	-0.324609
561.515000	-0.088923
561.706000	-0.222044
561.896000	-0.390031
562.087000	-0.272306
562.278000	-0.346112
562.468000	-0.496978
562.659000	-0.406571
562.850000	-0.017312
563.040000	0.043789
563.231000	-0.417342
563.422000	-0.276297
563.612000	-0.350329
563.803000	-0.268486
563.994000	-0.355590
564.185000	-0.488622
564.375000	-0.244341
564.566000	-0.186059
564.757000	-0.194161
564.947000	-0.363114
565.138000	-0.213406
565.329000	-0.290833
565.519000	-0.386071
565.710000	-0.316103
565.901000	-0.135279
566.091000	-0.014573
566.282000	-0.190020
566.473000	-0.199428
566.663000	-0.166746
566.854000	-0.347585
567.045000	-0.197891
567.235000	-0.125953
567.426000	-0.165563
567.617000	-0.187192
567.807000	-0.214450
567.998000	-0.157305
568.189000	-0.238611
568.379000	-0.196207
568.570000	-0.092811
568.761000	-0.124467
568.951000	-0.224566
569.142000	-0.303252
569.333000	-0.308146
569.524000	-0.404604
569.714000	-0.448490
569.905000	-0.525670
570.096000	-0.152946
570.286000	-0.062750
570.477000	0.053848
570.668000	-0.091601
570.858000	-0.142483
571.049000	-0.277204
571.240000	-0.386058
571.430000	-0.190123
571.621000	-0.223106
571.812000	-0.119239
572.002000	-0.069080
572.193000	-0.267728
572.384000	-0.231708
572.574000	-0.131279
572.765000	-0.171691
572.956000	-0.245050
573.146000	-0.030558
573.337000	-0.202044
573.528000	-0.254018
573.718000	-0.113392
573.909000	-0.049272
574.100000	-0.124628
574.290000	-0.305401
574.481000	-0.243681
574.672000	-0.180502
574.863000	-0.076782
575.053000	-0.226171
575.244000	-0.116081
575.435000	-0.285963
575.625000	-0.280065
575.816000	-0.261193
576.007000	-0.226462
576.197000	-0.182753
576.388000	-0.175112
576.579000	-0.066512
576.769000	-0.041060
576.960000	-0.352202
577.155000	-0.466160
577.350000	-0.199275
577.545000	-0.068288
577.740000	-0.218877
577.935000	0.112177
578.130000	0.007302
578.326000	-0.315746
578.521000	-0.029104
578.716000	-0.040287
578.911000	-0.379362
579.106000	-0.258565
579.301000	-0.071405
579.496000	-0.221151
579.691000	-0.458027
579.886000	-0.273921
580.081000	-0.177730
580.276000	-0.152856
580.471000	-0.268340
580.666000	-0.376532
580.861000	-0.387483
581.057000	-0.365553
581.252000	-0.230299
581.447000	-0.293981
581.642000	-0.274518
581.837000	-0.247575
582.032000	-0.249079
582.227000	-0.034686
582.422000	-0.087211
582.617000	-0.256956
582.812000	-0.354200
583.007000	-0.314867
583.202000	-0.379403
583.397000	-0.107713
583.592000	0.080319
583.788000	-0.212640
583.983000	-0.199537
584.178000	-0.081148
584.373000	-0.269254
584.568000	-0.287913
584.763000	-0.333089
584.958000	-0.373683
585.153000	-0.262538
585.348000	-0.305130
585.543000	-0.130048
585.738000	-0.204819
585.933000	-0.427277
586.128000	-0.211212
586.324000	-0.177470
586.519000	-0.158065
586.714000	-0.130325
586.909000	-0.029633
587.104000	0.000431
587.299000	-0.134913
587.494000	-0.154039
587.689000	-0.233877
587.884000	-0.206553
588.079000	-0.275566
588.274000	-0.247991
588.469000	-0.247495
588.664000	-0.116139
588.859000	-0.083879
589.055000	-0.129426
589.250000	-0.153307
589.445000	-0.303082
589.640000	-0.316345
589.835000	-0.071337
590.030000	0.078708
590.225000	0.087422
590.420000	-0.134581
590.615000	-0.282916
590.810000	-0.254296
591.005000	-0.242221
591.200000	-0.323240
591.395000	-0.366924
591.591000	-0.276794
591.786000	-0.132610
591.981000	-0.262067
592.176000	-0.203417
592.371000	-0.185953
592.566000	-0.255939
592.761000	-0.047762
592.956000	-0.080763
593.151000	-0.001757
593.346000	-0.081027
593.541000	-0.036953
593.736000	-0.101050
593.931000	-0.271054
594.126000	-0.176402
594.322000	-0.134396
594.517000	-0.233820
594.712000	-0.388691
594.907000	-0.430031
595.102000	-0.270622
595.297000	-0.088372
595.492000	-0.026257
595.687000	-0.222514
595.882000	-0.340855
596.077000	-0.236469
596.272000	-0.037541
596.467000	0.004918
596.662000	-0.156179
596.857000	-0.168034
597.053000	-0.105311
597.248000	-0.073775
597.443000	-0.069369
597.638000	-0.125978
597.833000	-0.345301
598.028000	-0.150765
598.223000	-0.008593
598.418000	-0.173983
598.613000	-0.303072
598.808000	-0.133291
599.003000	-0.165205
599.198000	-0.326737
599.393000	-0.274394
599.589000	-0.122538
599.784000	-0.350548
599.979000	-0.284870
600.174000	-0.029238
600.369000	-0.223627
600.564000	-0.207890
600.759000	0.078394
600.954000	0.128606
601.149000	-0.017904
601.344000	-0.344196
601.539000	-0.183571
601.734000	-0.229279
601.929000	-0.444051
602.124000	-0.421372
602.320000	-0.181957
602.515000	0.074365
602.710000	0.025919
602.905000	-0.309601
603.100000	-0.325274
603.295000	-0.251810
603.490000	-0.189863
603.685000	-0.150430
603.880000	-0.164559
604.075000	-0.325757
604.270000	-0.298426
604.465000	-0.209533
604.660000	-0.438553
604.856000	-0.314554
605.051000	-0.069672
605.246000	-0.109327
605.441000	-0.389939
605.636000	-0.406420
605.831000	-0.229119
606.026000	-0.318011
606.221000	-0.409900
606.416000	-0.227283
606.611000	-0.060638
606.806000	-0.030057
607.001000	0.099220
607.196000	-0.171325
607.391000	-0.371880
607.587000	-0.138852
607.782000	-0.176869
607.977000	-0.341579
608.172000	0.066731
608.367000	0.043067
608.562000	-0.220032
608.757000	-0.262626
608.952000	-0.296499
609.147000	0.095388
609.342000	-0.037549
609.537000	-0.289990
609.732000	-0.209372
609.927000	-0.306534
610.122000	-0.287986
610.318000	-0.087817
610.513000	-0.032948
610.708000	-0.283951
610.903000	-0.312983
611.098000	-0.227326
611.293000	-0.241779
611.488000	-0.181839
611.683000	-0.191770
611.878000	-0.218272
612.073000	-0.199097
612.268000	-0.199314
612.463000	-0.115321
612.658000	-0.093609
612.854000	-0.134906
613.049000	-0.171248
613.244000	-0.062440
613.439000	-0.018884
613.634000	-0.300476
613.829000	-0.174317
614.024000	-0.269639
614.219000	-0.318264
614.414000	0.005357
614.609000	-0.206779
614.804000	-0.367813
614.999000	-0.391846
615.194000	-0.351330
615.389000	-0.263685
615.585000	-0.416103
615.780000	-0.252127
615.975000	-0.291950
616.170000	-0.220842
616.365000	0.037419
616.560000	0.111379
616.755000	-0.019279
616.950000	-0.110777
617.145000	0.005445
617.340000	-0.158054
617.535000	-0.445417
617.730000	-0.180593
617.925000	-0.369723
618.120000	-0.402151
618.316000	0.002989
618.511000	-0.121669
618.706000	-0.289733
618.901000	-0.232067
619.096000	-0.067275
619.291000	-0.197635
619.486000	-0.203293
619.681000	-0.485466
619.876000	-0.533078
620.071000	-0.359728
620.266000	-0.151009
620.461000	-0.072857
620.656000	-0.080596
620.852000	-0.093151
621.047000	-0.268464
621.242000	-0.383154
621.437000	-0.058069
621.632000	0.049005
621.827000	-0.162985
622.022000	-0.413654
622.217000	-0.299415
622.412000	-0.079041
622.607000	-0.066274
622.802000	-0.338737
622.997000	-0.388920
623.192000	-0.257367
623.387000	-0.192937
623.583000	-0.397492
623.778000	-0.020215
623.973000	-0.035788
624.168000	-0.098260
624.363000	-0.059177
624.558000	0.000520
624.753000	-0.260304
624.948000	-0.054354
625.143000	-0.072698
625.338000	-0.156643
625.533000	-0.292945
625.728000	-0.185715
625.923000	0.032022
626.119000	-0.065245
626.314000	-0.389216
626.509000	-0.369280
626.704000	-0.213996
626.899000	-0.169118
627.094000	-0.256949
627.289000	-0.308090
627.484000	-0.300815
627.679000	-0.317099
627.874000	-0.269401
628.069000	0.072802
628.264000	-0.018184
628.459000	-0.141525
628.654000	-0.208724
628.850000	-0.344067
629.045000	-0.193517
629.240000	-0.293534
629.435000	-0.323631
629.630000	-0.202448
629.825000	-0.243039
630.020000	-0.222260
630.215000	-0.409517
630.410000	-0.334801
630.605000	-0.356904
630.800000	-0.299557
630.995000	-0.127966
631.190000	0.162220
631.385000	-0.089933
631.581000	-0.191708
631.776000	-0.079151
631.971000	-0.231052
632.166000	-0.203637
632.361000	-0.375066
632.556000	-0.212410
632.751000	-0.077137
632.946000	-0.210391
633.141000	-0.302905
633.336000	-0.272707
633.531000	-0.234389
633.726000	-0.167055
633.921000	-0.329975
634.117000	-0.501955
634.312000	-0.569905
634.507000	-0.548015
634.702000	-0.396811
634.897000	-0.343753
635.092000	-0.194685
635.287000	-0.107180
635.482000	-0.218333
635.677000	-0.116027
635.872000	-0.073378
636.067000	-0.062145
636.262000	-0.188306
636.457000	-0.466861
636.652000	-0.464704
636.848000	-0.468581
637.043000	-0.352749
637.238000	-0.316232
637.433000	-0.428879
637.628000	-0.362573
637.823000	-0.163946
638.018000	-0.089072
638.213000	-0.242886
638.408000	-0.362056
638.603000	-0.397439
638.798000	-0.435840
638.993000	-0.390036
639.188000	-0.331850
639.383000	-0.308782
639.579000	0.070555
639.774000	-0.168985
639.969000	-0.362095
640.164000	-0.380512
640.359000	-0.386792
640.554000	-0.163967
640.749000	-0.193885
640.944000	-0.167729
641.139000	-0.193910
641.334000	-0.347775
641.529000	-0.735983
641.724000	-0.496985
641.919000	-0.343696
642.115000	-0.079734
642.310000	-0.058824
642.505000	-0.207296
642.700000	-0.207671
642.895000	-0.267990
643.090000	-0.133654
643.285000	0.069223
643.480000	-0.056222
643.675000	-0.101167
643.870000	0.303486
644.065000	0.198912
644.260000	-0.317815
644.455000	-0.306370
644.650000	-0.340316
644.846000	-0.183437
645.041000	-0.415575
645.236000	-0.582858
645.431000	-0.556448
645.626000	-0.716472
645.821000	-0.516578
646.016000	-0.408890
646.211000	0.064427
646.406000	-0.005481
646.601000	-0.066310
646.796000	-0.257886
646.991000	-0.525586
647.186000	-0.368237
647.381000	-0.133603
647.577000	-0.164263
647.772000	-0.032977
647.967000	-0.100347
648.162000	-0.173910
648.357000	-0.223199
648.552000	-0.023905
648.747000	-0.036185
648.942000	-0.036208
649.137000	-0.085563
649.332000	-0.313732
649.527000	-0.304358
649.722000	-0.045576
649.917000	0.012972
650.113000	-0.258507
650.308000	-0.354639
650.503000	-0.286523
650.698000	-0.107756
650.893000	-0.185299
651.088000	-0.086199
651.283000	0.044126
651.478000	-0.334986
651.673000	-0.191848
651.868000	-0.313543
652.063000	-0.055478
652.258000	0.072363
652.453000	0.233935
652.648000	-0.074140
652.844000	-0.167715
653.039000	-0.143017
653.234000	-0.505402
653.429000	-0.650247
653.624000	-0.405869
653.819000	-0.159194
654.014000	-0.278331
654.209000	-0.436192
654.404000	-0.206568
654.599000	-0.351872
654.794000	-0.360691
654.989000	-0.002521
655.184000	-0.090861
655.380000	-0.434394
655.575000	-0.450206
655.770000	-0.406743
655.965000	-0.337352
656.160000	-0.347011
656.355000	-0.151036
656.550000	-0.189534
656.745000	-0.129401
656.940000	-0.227908
657.135000	-0.173904
657.330000	-0.154926
657.525000	-0.323418
657.720000	-0.126666
657.915000	-0.034340
658.111000	-0.152043
658.306000	0.185271
658.501000	-0.088701
658.696000	-0.429931
658.891000	-0.114233
659.086000	-0.216254
659.281000	-0.162296
659.476000	-0.392877
659.671000	-0.738336
659.866000	-0.482626
660.061000	-0.172299
660.256000	-0.121113
660.451000	-0.214221
660.646000	-0.426438
660.842000	-0.237255
661.037000	-0.433523
661.232000	-0.382614
661.427000	-0.211751
661.622000	-0.379790
661.817000	-0.473160
662.012000	-0.215847
662.207000	-0.364735
662.402000	-0.472626
662.597000	-0.297783
662.792000	-0.608630
662.987000	-0.566035
663.182000	-0.271934
663.378000	-0.236428
663.573000	-0.591869
663.768000	-0.616632
663.963000	-0.435172
664.158000	-0.402280
664.353000	0.154001
664.548000	0.320288
664.743000	-0.116897
664.938000	-0.417259
665.133000	-0.368863
665.328000	0.053053
665.523000	-0.025594
665.718000	-0.209373
665.913000	-0.193254
666.109000	-0.210156
666.304000	-0.058614
666.499000	-0.252736
666.694000	-0.055443
666.889000	0.244848
667.084000	-0.085422
667.279000	-0.244200
667.474000	-0.260891
667.669000	-0.168148
667.864000	-0.247881
668.059000	-0.264853
668.254000	-0.261866
668.449000	-0.398567
668.644000	-0.302362
668.840000	-0.005986
669.035000	-0.282414
669.230000	-0.610858
669.425000	-0.220031
669.620000	-0.373824
669.815000	-0.388600
670.010000	-0.441884
670.205000	-0.371787
670.400000	-0.340979
670.595000	-0.227787
670.790000	-0.315562
670.985000	-0.255274
671.180000	0.004046
671.376000	-0.346896
671.571000	-0.445742
671.766000	-0.402707
671.961000	-0.524939
672.156000	-0.573127
672.351000	-0.369495
672.546000	-0.411112
672.741000	-0.301548
672.936000	-0.227137
673.131000	0.327992
673.326000	-0.002735
673.521000	-0.423636
673.716000	-0.519438
673.911000	-0.687600
674.107000	-0.143405
674.302000	0.144878
674.497000	-0.119609
674.692000	-0.473961
674.887000	-0.589468
675.082000	-0.410624
675.277000	0.000692
675.472000	-0.148337
675.667000	-0.325592
675.862000	-0.405635
676.057000	-0.277323
676.252000	-0.250049
676.447000	-0.327466
676.643000	-0.187668
676.838000	0.049627
677.033000	-0.237286
677.228000	0.056839
677.423000	-0.034405
677.618000	-0.372436
677.813000	-0.505907
678.008000	-0.331062
678.203000	-0.225417
678.398000	-0.462982
678.593000	-0.271935
678.788000	-0.223085
678.983000	-0.496006
679.178000	-0.354265
679.374000	-0.390329
679.569000	-0.216605
679.764000	-0.385184
679.959000	-0.593847
680.154000	-0.504406
680.349000	-0.667921
680.544000	-0.591636
680.739000	-0.433904
680.934000	-0.484679
681.129000	-0.540119
681.324000	-0.641867
681.519000	-0.390391
681.714000	-0.401396
681.909000	-0.520312
682.105000	-0.652402
682.300000	-0.225111
682.495000	-0.046601
682.690000	-0.086846
682.885000	-0.207429
683.080000	-0.413079
683.275000	-0.358328
683.470000	-0.013940
683.665000	0.173526
683.860000	0.405838
684.055000	0.144446
684.250000	-0.379172
684.445000	-0.455903
684.641000	0.041369
684.836000	-0.236047
685.031000	-0.240613
685.226000	-0.281838
685.421000	0.045490
685.616000	-0.290088
685.811000	-0.496351
686.006000	-0.197327
686.201000	-0.197590
686.396000	-0.611570
686.591000	-0.541280
686.786000	-0.089728
686.981000	-0.251866
687.176000	-0.203343
687.372000	-0.252762
687.567000	-0.037099
687.762000	-0.128305
687.957000	-0.192830
688.152000	-0.307359
688.347000	-0.235508
688.542000	-0.614300
688.737000	-0.896604
688.932000	-0.882827
689.127000	-0.466543
689.322000	-0.187457
689.517000	-0.444730
689.712000	-0.554218
689.908000	-0.408175
690.103000	-0.470815
690.298000	-0.308516
690.493000	-0.305448
690.688000	-0.651237
690.883000	-0.450969
691.078000	0.039736
691.273000	0.035844
691.468000	-0.280286
691.663000	-0.332293
691.858000	-0.105035
692.053000	-0.093274
692.248000	-0.124754
692.443000	-0.167900
692.639000	-0.152525
692.834000	0.032315
693.029000	0.481748
693.224000	0.404815
693.419000	-0.241053
693.614000	-0.376563
693.809000	-0.539818
694.004000	-0.604558
694.199000	-0.572548
694.394000	-0.338782
694.589000	-0.527108
694.784000	-0.511630
694.979000	-0.271437
695.174000	-0.360425
695.370000	0.112993
695.565000	-0.135761
695.760000	-0.369568
695.955000	0.041162
696.150000	0.089617
696.345000	-0.363911
696.540000	-0.194047
696.740000	-0.311556
696.940000	-0.218417
697.140000	-0.170574
697.340000	-0.358909
697.539000	-0.109611
697.739000	-0.187395
697.939000	-0.162959
698.139000	-0.486925
698.339000	-0.867247
698.539000	-0.652941
698.739000	-0.691801
698.939000	-0.533333
699.138000	-0.617168
699.338000	0.066962
699.538000	0.295426
699.738000	-0.240529
699.938000	-0.423987
700.138000	-0.483113
700.338000	-0.572372
700.538000	-0.305353
700.737000	-0.309446
700.937000	-0.772575
701.137000	-0.681647
701.337000	0.068182
701.537000	-0.020246
701.737000	-0.403579
701.937000	-0.425604
702.137000	-0.341176
702.337000	-0.523619
702.536000	-0.647595
702.736000	-0.580482
702.936000	-0.683328
703.136000	-0.169632
703.336000	-0.229250
703.536000	-0.349530
703.736000	-0.723235
703.936000	-0.747391
704.135000	-0.674367
704.335000	-0.191991
704.535000	-0.471835
704.735000	-0.678795
704.935000	-0.119331
705.135000	-0.076778
705.335000	-0.462210
705.535000	-0.319602
705.735000	-0.219959
705.934000	-0.215519
706.134000	-0.453694
706.334000	-0.554577
706.534000	-0.633596
706.734000	-0.621052
706.934000	-0.668855
707.134000	-0.686429
707.334000	-0.426335
707.533000	-0.427122
707.733000	-0.448633
707.933000	-0.588874
708.133000	-0.326368
708.333000	-0.222804
708.533000	-0.464888
708.733000	-0.188035
708.933000	-0.342105
709.132000	-0.382422
709.332000	-0.387482
709.532000	-0.569681
709.732000	-0.343606
709.932000	-0.747296
710.132000	-0.808768
710.332000	-0.936644
710.532000	-0.326668
710.732000	-0.101199
710.931000	-0.434410
711.131000	-0.578802
711.331000	-0.427518
711.531000	-0.566820
711.731000	-0.559284
711.931000	-0.447990
712.131000	-0.416068
712.331000	-0.304078
712.530000	-0.330586
712.730000	-0.600932
712.930000	-0.560323
713.130000	-0.494704
713.330000	-0.567493
713.530000	-0.406585
713.730000	0.277221
713.930000	-0.080604
714.129000	-0.546449
714.329000	-0.734265
714.529000	-0.457093
714.729000	-0.062707
714.929000	-0.171768
715.129000	-0.477014
715.329000	-0.349892
715.529000	-0.424518
715.729000	0.169853
715.928000	0.000915
716.128000	-0.347183
716.328000	-0.270118
716.528000	-0.399201
716.728000	-0.298093
716.928000	-0.477548
717.128000	-0.275734
717.328000	-0.284909
717.527000	-0.525275
717.727000	-0.511927
717.927000	-0.406965
718.127000	-0.416473
718.327000	-0.788923
718.527000	-0.797815
718.727000	-0.375571
718.927000	-0.422817
719.127000	-0.672309
719.326000	-0.469359
719.526000	-0.017727
719.726000	-0.190727
719.926000	-0.698192
720.126000	-0.707691
720.326000	-0.519897
720.526000	-0.566924
720.726000	-0.342688
720.925000	-0.149786
721.125000	-0.599474
721.325000	-0.372092
721.525000	-0.358793
721.725000	-0.552925
721.925000	-0.535493
722.125000	-0.445331
722.325000	-0.008545
722.524000	-0.365689
722.724000	-0.780915
722.924000	-0.842841
723.124000	-0.567047
723.324000	-0.099383
723.524000	-0.099473
723.724000	-0.664392
723.924000	-0.570698
724.124000	-0.412313
724.323000	-0.100084
724.523000	-0.191341
724.723000	0.111775
724.923000	-0.124338
725.123000	-0.076225
725.323000	0.049297
725.523000	-0.221774
725.723000	-0.424702
725.922000	-0.405811
726.122000	-0.231737
726.322000	-0.504585
726.522000	-0.714313
726.722000	0.141920
726.922000	-0.139881
727.122000	-0.247593
727.322000	0.020496
727.521000	-0.219165
727.721000	-0.488948
727.921000	-0.444876
728.121000	-0.420273
728.321000	-0.676227
728.521000	-0.569721
728.721000	-0.393273
728.921000	-0.048280
729.121000	0.657291
729.320000	-0.003952
729.520000	-0.522708
729.720000	-0.637390
729.920000	-0.610592
730.120000	-0.425536
730.320000	-0.356974
730.520000	-0.700314
730.720000	-0.642646
730.919000	-0.467927
731.119000	-0.158927
731.319000	-0.719841
731.519000	-0.849877
731.719000	-0.434778
731.919000	-0.525220
732.119000	-0.927687
732.319000	-0.925564
732.519000	-0.447410
732.718000	-0.750697
732.918000	-0.594813
733.118000	-0.393819
733.318000	-0.181739
733.518000	-0.506676
733.718000	-0.970022
733.918000	-0.807806
734.118000	-0.629544
734.317000	-0.499355
734.517000	-0.672023
734.717000	-0.531806
734.917000	-0.014378
735.117000	-0.163466
735.317000	-0.250789
735.517000	0.232921
735.717000	0.445512
735.916000	-0.495202
736.116000	-0.603229
736.316000	-0.347126
736.516000	-0.263900
736.716000	-0.383576
736.916000	-0.875699
737.116000	-0.649222
737.316000	-0.009438
737.516000	-0.125037
737.715000	-0.235513
737.915000	-0.751038
738.115000	-0.790356
738.315000	-0.595581
738.515000	-0.854134
738.715000	-0.514004
738.915000	0.102088
739.115000	-0.419678
739.314000	-0.562969
739.514000	-0.095055
739.714000	0.001071
739.914000	-0.197590
740.114000	-0.477688
740.314000	-0.198108
740.514000	0.335358
740.714000	-0.393839
740.913000	-0.947025
741.113000	-0.801998
741.313000	-0.416736
741.513000	-0.472324
741.713000	-0.419032
741.913000	-0.421012
742.113000	-0.535317
742.313000	-1.041105
742.513000	-0.707162
742.712000	-0.632338
742.912000	-0.869418
743.112000	-0.706510
743.312000	-1.012243
743.512000	-0.648232
743.712000	-0.483280
743.912000	-1.086347
744.112000	-1.109364
744.311000	-1.151530
744.511000	-0.716384
744.711000	-0.201177
744.911000	-0.572882
745.111000	-0.658111
745.311000	-0.089197
745.511000	-0.451121
745.711000	-0.711836
745.911000	-0.486128
746.110000	-0.956848
746.310000	-1.025216
746.510000	-0.687312
746.710000	-0.204624
746.910000	-0.056064
747.110000	-0.675002
747.310000	-1.106689
747.510000	-0.793996
747.709000	-0.558209
747.909000	-0.553859
748.109000	-0.190271
748.309000	-0.353418
748.509000	-0.732397
748.709000	-0.910416
748.909000	-0.676467
749.109000	-0.685288
749.308000	-0.128034
749.508000	-0.458607
749.708000	-0.541315
749.908000	-0.187556
750.108000	-0.158536
750.308000	-0.924854
750.508000	-0.260669
750.708000	-0.713210
750.908000	-1.263642
751.107000	-0.507494
751.307000	0.210408
751.507000	-0.232910
751.707000	-0.184652
751.907000	-0.353384
752.107000	-0.324429
752.307000	-0.924526
752.507000	-0.720689
752.706000	-0.689888
752.906000	0.329274
753.106000	-0.516961
753.306000	-1.026088
753.506000	-0.053958
753.706000	-0.490280
753.906000	-0.256853
754.106000	-0.152593
754.305000	-0.362263
754.505000	-0.363212
754.705000	-0.458358
754.905000	-0.359517
755.105000	-0.092193
755.305000	-0.940678
755.505000	-0.824525
755.705000	-0.280613
755.905000	-0.338000
756.104000	-1.099135
756.304000	-1.354282
756.504000	-1.489749
756.704000	-0.398822
756.904000	-0.106630
757.104000	-0.436061
757.304000	-0.595082
757.504000	-0.139148
757.703000	-0.388011
757.903000	0.046059
758.103000	0.193590
758.303000	-0.397267
758.503000	-0.559447
758.703000	-0.586594
758.903000	-0.813067
759.103000	-0.426453
759.303000	-0.441524
759.502000	-0.534376
759.702000	-0.279493
759.902000	-0.628789
760.102000	-0.505289
760.302000	-0.526795
760.502000	-0.340934
760.702000	-0.262329
760.902000	-0.573328
761.101000	-1.051915
761.301000	-1.219653
761.501000	-0.781944
761.701000	-0.916541
761.901000	-0.834397
762.101000	-0.320269
762.301000	-0.487779
762.501000	-0.863703
762.700000	-0.867681
762.900000	-0.888208
763.100000	-0.747538
763.300000	-0.398329
763.500000	-0.534344
763.703000	-0.674483
763.905000	-0.989113
764.108000	-0.325431
764.311000	-0.495702
764.513000	-0.632647
764.716000	-0.381947
764.919000	-0.279647
765.121000	-0.848865
765.324000	-1.092124
765.527000	-0.925100
765.729000	-0.890502
765.932000	-0.012465
766.135000	-0.047077
766.337000	-0.462702
766.540000	-0.624059
766.743000	-0.495677
766.945000	-1.018737
767.148000	-1.245141
767.351000	-1.146937
767.553000	-0.181329
767.756000	-0.652917
767.958000	-1.060881
768.161000	-0.639334
768.364000	-0.881969
768.566000	-1.245108
768.769000	-0.744726
768.972000	-0.410679
769.174000	-0.846666
769.377000	-1.249334
769.580000	-1.223347
769.782000	-0.599691
769.985000	-1.025172
770.188000	-1.783205
770.390000	-1.032693
770.593000	0.507036
770.796000	0.218289
770.998000	-0.475887
771.201000	-0.852865
771.404000	-0.339307
771.606000	-0.821064
771.809000	-0.879008
772.012000	-0.727600
772.214000	-1.450509
772.417000	-1.348505
772.620000	-0.347723
772.822000	-0.738956
773.025000	-0.981055
773.228000	-1.041655
773.430000	-1.058107
773.633000	-0.573553
773.836000	-0.389781
774.038000	-0.243052
774.241000	-0.561535
774.444000	-0.808478
774.646000	0.046034
774.849000	-0.303618
775.052000	-0.571420
775.254000	-0.415996
775.457000	-0.869967
775.659000	-0.797389
775.862000	-0.932002
776.065000	-0.754010
776.267000	-0.200815
776.470000	0.234830
776.673000	-0.435338
776.875000	0.077050
777.078000	-0.134246
777.281000	-1.035649
777.483000	-0.431376
777.686000	-0.348486
777.889000	-0.394563
778.091000	-0.082547
778.294000	-1.234920
778.497000	-1.160086
778.699000	-0.893322
778.902000	-0.719862
779.105000	-0.620136
779.307000	0.201371
779.510000	-0.784175
779.713000	-0.593899
779.915000	-0.774308
780.118000	0.335500
780.321000	0.452548
780.523000	-0.551801
780.726000	-1.082231
780.929000	-1.253314
781.131000	-1.216222
781.334000	-1.581162
781.537000	-1.609157
781.739000	-0.706223
781.942000	-1.037365
782.145000	-1.556973
782.347000	-1.486708
782.550000	-1.123272
782.753000	-1.166702
782.955000	-1.026428
783.158000	-0.858569
783.361000	-0.740927
783.563000	-0.884786
783.766000	-0.975148
783.968000	0.779392
784.171000	0.702416
784.374000	-0.522026
784.576000	-0.586299
784.779000	-0.191373
784.982000	0.082490
785.184000	-0.665123
785.387000	-0.030945
785.590000	0.555090
785.792000	0.230394
785.995000	0.018002
786.198000	-0.203257
786.400000	-0.525102
786.603000	-0.476927
786.806000	-0.755134
787.008000	-0.434282
787.211000	-0.336793
787.414000	-1.240789
787.616000	-1.087508
787.819000	-0.848388
788.022000	-1.525488
788.224000	-0.851647
788.427000	-1.404590
788.630000	-0.930719
788.832000	-0.677983
789.035000	-1.003628
789.238000	-1.740291
789.440000	-1.318758
789.643000	-0.277058
789.846000	-0.904697
790.048000	-0.346452
790.251000	-0.219133
790.454000	-0.642520
790.656000	0.120811
790.859000	-0.578164
791.062000	-1.006308
791.264000	-0.390924
791.467000	-1.258308
791.669000	-1.740856
791.872000	-0.783330
792.075000	-1.204660
792.277000	-0.946303
792.480000	-0.674157
792.683000	-1.061188
792.885000	-1.295764
793.088000	-1.118200
793.291000	-1.399506
793.493000	-1.436934
793.696000	-0.443112
793.899000	-0.129452
794.101000	-0.769744
794.304000	-0.999941
794.507000	-0.508632
794.709000	-0.201194
794.912000	-0.928506
795.115000	-1.347503
795.317000	-0.832418
795.520000	-0.426051
795.723000	-0.803632
795.925000	-1.369426
796.128000	-1.591436
796.331000	-0.941117
796.533000	-1.339422
796.736000	-0.658601
796.939000	-0.632972
797.141000	-1.007426
797.344000	-0.416825
797.547000	-0.152963
797.749000	-0.271716
797.952000	-0.951252
798.155000	-1.287512
798.357000	-1.589644
798.560000	-1.302578
798.763000	-0.506447
798.965000	-0.625996
799.168000	-0.701902
799.371000	-0.406058
799.573000	-0.891098
799.776000	-1.525893
799.978000	-1.456408
800.181000	-0.700564
800.384000	0.921146
800.586000	0.189927
800.789000	-1.614627
800.992000	-1.632318
801.194000	-1.475907
801.397000	-1.564655
801.600000	-1.551070
801.802000	-0.159321
802.005000	-0.445237
802.208000	-1.648648
802.410000	-0.770235
802.613000	-0.677887
802.816000	-0.889567
803.018000	-1.468618
803.221000	-1.269143
803.424000	0.194917
803.626000	-0.220346
803.829000	-0.754281
804.032000	0.361612
804.234000	1.148638
804.437000	-0.505549
804.640000	-0.719657
804.842000	-0.584471
805.045000	-1.019563
805.248000	-0.834497
805.450000	-0.971319
805.653000	-0.967583
805.856000	-1.124649
806.058000	-0.057495
806.261000	-1.130763
806.464000	-1.012538
806.666000	-0.326757
806.869000	-0.629629
807.072000	-1.982917
807.274000	-2.275131
807.477000	-1.235224
807.679000	-0.833564
807.882000	-1.420719
808.085000	-1.135705
808.287000	-0.455545
808.490000	-1.291828
808.693000	-1.272349
808.895000	-0.885930
809.098000	-0.671917
809.301000	-0.797112
809.503000	-1.006372
809.706000	0.022762
809.909000	0.322750
810.111000	0.012431
810.314000	-0.226343
810.517000	-0.908638
810.719000	-1.371678
810.922000	-0.948982
811.125000	0.116803
811.327000	0.274799
811.530000	-0.492808
811.735000	-1.038803
811.940000	-1.283494
812.146000	-1.225402
812.351000	-0.495279
812.556000	-0.709206
812.761000	-1.510249
812.967000	-0.254577
813.172000	-0.104715
813.377000	-0.533773
813.582000	-0.105485
813.788000	-0.474710
813.993000	-1.489748
814.198000	-0.582199
814.403000	-1.252438
814.609000	-0.465817
814.814000	-0.588177
815.019000	0.154960
815.224000	-0.041447
815.429000	-1.216531
815.635000	-0.889932
815.840000	-0.659352
816.045000	-0.507290
816.250000	0.013313
816.456000	-1.386907
816.661000	-2.442685
816.866000	-1.821496
817.071000	-1.686171
817.277000	-2.349754
817.482000	-1.474516
817.687000	-0.797625
817.892000	-0.881448
818.097000	-0.293211
818.303000	0.127284
818.508000	0.444625
818.713000	7.662039
818.918000	4.205073
819.124000	0.310596
819.329000	-0.903637
819.534000	-1.044349
819.739000	-1.239980
819.945000	-1.130261
820.150000	-0.950724
820.355000	-0.801185
820.560000	-0.322863
820.766000	-0.533274
820.971000	-0.536350
821.176000	-1.969829
821.381000	-2.666463
821.586000	-1.716860
821.792000	0.002363
821.997000	-0.754604
822.202000	-1.027650
822.407000	-1.482024
822.613000	-1.770738
822.818000	-1.166871
823.023000	-0.702410
823.228000	-0.694923
823.434000	-0.057664
823.639000	0.086682
823.844000	-0.890829
824.049000	-0.154621
824.255000	0.026662
824.460000	-0.703740
824.665000	-1.058299
824.870000	0.039148
825.075000	-0.156789
825.281000	-0.267836
825.486000	0.830520
825.691000	-1.371441
825.896000	-2.589506
826.102000	-0.816549
826.307000	-0.768778
826.512000	-1.183701
826.717000	-1.074628
826.923000	-1.454514
827.128000	-0.790533
827.333000	-1.669836
827.538000	-0.976660
827.744000	-0.124929
827.949000	-1.117137
828.154000	-0.930035
828.359000	-0.265591
828.564000	-0.921400
828.770000	-1.105613
828.975000	-0.294466
829.180000	-0.932008
829.385000	-2.177319
829.591000	-1.587085
829.796000	-0.992628
830.001000	-0.968284
830.206000	-1.366195
830.412000	-1.338504
830.617000	-1.473538
830.822000	-0.593416
831.027000	-1.081101
831.232000	-1.499854
831.438000	-1.456886
831.643000	-0.773904
831.848000	-0.990556
832.053000	-0.913497
832.259000	-0.982079
832.464000	-2.594664
832.669000	-2.237466
832.874000	-1.569645
833.080000	-1.671887
833.285000	0.207280
833.490000	-0.420312
833.695000	-1.934081
833.901000	-1.529151
834.106000	-1.600594
834.311000	-1.136588
834.516000	-0.790430
834.721000	-1.242714
834.927000	-0.264184
835.132000	-0.574460
835.337000	0.905277
835.542000	-0.408520
835.748000	-1.979179
835.953000	-0.125014
836.158000	-0.296213
836.363000	-0.526173
836.569000	-0.587888
836.774000	-1.570457
836.979000	-1.687982
837.184000	-1.952845
837.390000	-1.767734
837.595000	-1.219482
837.800000	-1.061840
838.005000	-1.200419
838.210000	-1.230302
838.416000	-1.279284
838.621000	-1.031501
838.826000	-1.400093
839.031000	-1.422126
839.237000	-1.971159
839.442000	-2.423699
839.647000	-2.554694
839.852000	-1.739516
840.058000	-1.429206
840.263000	-1.375626
840.468000	-2.362755
840.673000	-1.513650
840.878000	-1.150731
841.084000	-1.692095
841.289000	-0.823680
841.494000	1.436844
841.699000	1.255985
841.905000	0.545899
842.110000	0.314964
842.315000	-1.621924
842.520000	-0.902246
842.726000	-1.311227
842.931000	-1.841733
843.136000	-1.209407
843.341000	-2.360702
843.547000	-1.754236
843.752000	-1.597739
843.957000	-1.914451
844.162000	-2.196493
844.367000	-1.074895
844.573000	-0.319978
844.778000	-0.528664
844.983000	-0.643063
845.188000	-0.418998
845.394000	-1.717348
845.599000	-1.827560
845.804000	-1.718976
846.009000	-1.037194
846.215000	-2.502127
846.420000	-1.993128
846.625000	-0.530784
846.830000	-0.063199
847.036000	-1.133065
847.241000	-1.809181
847.446000	-0.651092
847.651000	-1.041413
847.856000	-2.241124
848.062000	-1.582650
848.267000	0.054590
848.472000	-1.417422
848.677000	-2.777529
848.883000	-1.264218
849.088000	0.332233
849.293000	-0.778267
849.498000	-1.558020
849.704000	-0.466280
849.909000	-1.147788
850.114000	-2.246805
850.319000	-1.080459
850.524000	-0.699656
850.730000	-0.774342
850.935000	-1.363203
851.140000	-0.672721
851.345000	-0.868363
851.551000	-0.246300
851.756000	-0.229682
851.961000	-1.507698
852.166000	-1.814497
852.372000	-1.512392
852.577000	-1.341648
852.782000	-1.681537
852.987000	0.149775
853.193000	-0.491273
853.398000	-0.839815
853.603000	-2.128118
853.808000	-2.791172
854.013000	-1.643167
854.219000	-0.181670
854.424000	1.715812
854.629000	1.551743
854.834000	-1.291738
855.040000	-0.600878
855.245000	-0.222222
855.450000	-3.037704
855.655000	-3.957675
855.861000	-3.887896
856.066000	-2.426702
856.271000	-2.852324
856.476000	-0.380850
856.682000	-1.077437
856.887000	-4.182486
857.092000	-3.417952
857.297000	-0.384320
857.502000	-0.890733
857.708000	-1.165276
857.913000	0.199104
858.118000	-0.449159
858.323000	-1.477887
858.529000	-1.633420
858.734000	-1.618083
858.939000	-1.424460
859.144000	-2.325069
859.350000	-3.121766
859.555000	-2.871898
859.760000	-0.497993
859.965000	0.385431
860.171000	-1.407261
860.376000	-0.603316
860.581000	-2.330403
860.786000	-4.419455
860.991000	-4.295411
861.197000	-3.535721
861.402000	-1.288657
861.607000	-1.597477
861.812000	-2.821020
862.018000	-2.935344
862.223000	-1.737977
862.428000	-0.684268
862.633000	0.233758
862.839000	-0.667869
863.044000	-1.753519
863.249000	-2.741416
863.454000	-0.735716
863.659000	-1.395319
863.865000	-2.212069
864.070000	-2.474274
864.275000	-2.585426
864.480000	-1.952241
864.686000	-3.944804
864.891000	-3.472936
865.096000	-1.232390
865.301000	-0.582567
865.507000	-0.389205
865.712000	-0.629683
865.917000	-1.491909
866.122000	-0.789905
866.328000	-3.989675
866.533000	-3.587758
866.738000	-0.106571
866.943000	-0.195792
867.148000	0.563829
867.354000	-2.588716
867.559000	-3.762394
867.764000	-1.944790
867.969000	-0.747234
868.175000	-1.993466
868.380000	-2.570064
868.585000	-3.508783
868.790000	-1.346089
868.996000	-1.447162
869.201000	-2.929632
869.406000	-4.241692
869.611000	-3.318221
869.817000	-2.664625
870.022000	2.148158
870.227000	-0.649300
870.432000	-2.835308
870.637000	-1.099703
870.843000	-1.791492
871.048000	-2.052462
871.253000	-0.279183
871.458000	-1.374464
871.664000	-3.345529
871.869000	-3.437512
872.074000	-2.795959
872.279000	-1.877555
872.485000	-2.108252
872.690000	-2.044211
872.895000	-2.738513
873.100000	-3.894364
873.306000	-3.615386
873.511000	-2.078203
873.716000	-0.268422
873.921000	-1.928588
874.126000	-2.477885
874.332000	-1.825324
874.537000	-0.851664
874.742000	-1.100074
874.947000	-2.239747
875.153000	-0.249498
875.358000	-1.219793
875.563000	-2.034503
875.768000	-4.552039
875.974000	-4.596452
876.179000	-1.128172
876.384000	-1.263067
876.589000	-2.658716
876.794000	-2.217247
877.000000	-3.213472
877.205000	-3.784373
877.410000	-1.386732
877.615000	-3.298406
877.821000	-4.835422
878.026000	-2.694136
878.231000	-3.566671
878.436000	-4.394265
878.642000	-3.757477
878.847000	-1.492429
879.052000	-0.101490
879.257000	-2.958023
879.463000	-5.093314
879.668000	-3.475731
879.873000	-1.105390
880.078000	-3.443795
880.283000	-4.847720
880.489000	-5.202052
880.694000	-4.293637
880.899000	-2.201638
881.104000	-0.714698
881.310000	1.390579
881.515000	0.171547
881.720000	1.087232
881.925000	2.376391
882.131000	3.408606
882.336000	-0.050595
882.541000	-4.328720
882.746000	-3.723753
882.952000	-3.463500
883.157000	-3.529045
883.362000	-3.591566
883.567000	-4.265995
883.772000	-4.421345
883.978000	-3.470269
884.183000	-2.055537
884.388000	-1.992802
884.593000	-3.993009
884.799000	0.500631
885.004000	0.360115
885.209000	-1.854501
885.414000	-1.789287
885.620000	-4.321793
885.825000	-0.919532
886.030000	-1.424276
886.235000	-2.692165
886.440000	-2.109999
886.646000	-4.482720
886.851000	-5.084427
887.056000	-0.972439
887.261000	-1.248657
887.467000	-4.357356
887.672000	-1.571665
887.877000	-2.916813
888.082000	-5.649009
888.288000	-6.064223
888.493000	-8.129359
888.698000	-5.786655
888.903000	-2.076930
889.109000	-3.773570
889.314000	-0.907684
889.519000	-2.693862
889.724000	-0.496786
889.929000	-2.260183
890.135000	-2.771279
890.340000	-2.887358
890.545000	-3.807797
890.750000	-5.568218
890.956000	-4.020674
891.161000	-1.270203
891.366000	-3.930198
891.571000	-2.784544
891.777000	-2.755031
891.982000	-0.703415
892.187000	-0.965671
892.392000	-0.122846
892.598000	-0.221085
892.803000	-0.387039
893.008000	-3.040819
893.213000	-3.424958
893.418000	-3.185808
893.624000	-3.631784
893.829000	-5.982794
894.034000	-3.740585
894.239000	-1.626228
894.445000	-3.816774
894.650000	-3.769183
894.855000	-3.573145
895.060000	-4.001389
895.266000	-4.463939
895.471000	-5.811927
895.676000	-2.085828
895.881000	-0.810195
896.087000	-2.546818
896.292000	-4.413958
896.497000	-0.268617
896.702000	-1.879646
896.907000	-4.184199
897.113000	-0.199984
897.318000	0.282593
897.523000	-0.269516
897.728000	-2.802658
897.934000	-3.346819
898.139000	-3.217368
898.344000	-0.307962
898.549000	-1.506348
898.755000	-3.446948
898.960000	-3.893784
899.165000	-4.995366
899.370000	-2.379970
899.575000	1.078720
899.781000	-3.324155
899.986000	-4.004955
900.191000	-1.939561
900.396000	-2.158372
900.602000	-2.498118
900.807000	-2.771738
901.012000	-2.127307
901.217000	-1.173292
901.423000	-3.963753
901.628000	-5.526512
901.833000	-0.437501
902.038000	-0.515631
902.244000	-4.054105
902.449000	-2.841091
902.654000	-3.666441
902.859000	-2.184133
903.064000	-0.220220
903.270000	-0.525855
903.475000	-4.606669
903.680000	-6.087703
903.885000	-5.022647
904.091000	-4.469537
904.296000	-5.456065
904.501000	-4.310589
904.706000	-3.387753
904.912000	0.047341
905.117000	-2.052112
905.322000	-5.183910
905.527000	-4.762345
905.733000	-4.248352
905.938000	-4.274940
906.143000	-4.407328
906.348000	-6.113587
906.553000	-2.605071
906.759000	-0.603933
906.964000	-2.206277
907.169000	-4.445658
907.374000	-6.410816
907.580000	-5.369418
907.785000	-4.409954
907.990000	25.994040
908.195000	16.856397
908.401000	-0.842157
908.606000	-7.689489
908.811000	-9.647170
909.016000	-3.618232
909.221000	-2.730827
909.427000	-3.392075
909.632000	-4.594322
909.837000	-4.232794
910.042000	-6.393895
910.248000	-8.364791
910.453000	-3.356713
910.658000	-3.516166
910.863000	-4.225699
911.069000	-6.970074
911.274000	-2.109081
911.479000	-0.580393
911.684000	-7.783061
911.890000	-4.554034
912.095000	-4.788088
912.300000	-8.273256
912.506000	-6.390058
912.711000	-5.444231
912.917000	-3.303045
913.123000	-1.671676
913.328000	-2.574689
913.534000	-2.740550
913.740000	6.312147
913.946000	2.168958
914.151000	-4.368314
914.357000	-5.501549
914.563000	-1.863486
914.768000	-5.702124
914.974000	-7.914839
915.180000	-6.312457
915.385000	-4.006965
915.591000	-7.244560
915.797000	-2.047971
916.002000	1.071184
916.208000	-3.259453
916.414000	-6.702375
916.620000	-7.990744
916.825000	-4.488425
917.031000	-4.389524
917.237000	-9.851130
917.442000	-5.959965
917.648000	-6.634622
917.854000	-8.512644
918.059000	-1.358333
918.265000	-0.620475
918.471000	-4.323040
918.676000	-6.612579
918.882000	-8.538027
919.088000	-8.176608
919.294000	-12.853364
919.499000	-8.077959
919.705000	-2.187099
919.911000	-3.121151
920.116000	-2.042395
920.322000	-8.572152
920.528000	-6.432693
920.733000	-8.454235
920.939000	-8.774351
921.145000	-7.103767
921.350000	-6.445392
921.556000	-4.812772
921.762000	-5.148566
921.968000	-5.570271
922.173000	-7.597765
922.379000	-10.028691
922.585000	-4.984184
922.790000	-6.661327
922.996000	-8.394514
923.202000	-8.739057
923.407000	-8.426844
923.613000	-7.580886
923.819000	-3.676307
924.024000	-4.081300
924.230000	-2.078119
924.436000	-3.823675
924.642000	6.589868
924.847000	0.772154
925.053000	-7.195013
925.259000	-10.433680
925.464000	-4.639137
925.670000	-6.545563
925.876000	-9.710222
926.081000	-9.373869
926.287000	-4.074237
926.493000	-1.439252
926.698000	-4.682063
926.904000	-4.719075
927.110000	-7.259913
927.316000	-5.763375
927.521000	2.428117
927.727000	-3.867152
927.933000	-7.166116
928.138000	-6.510694
928.344000	-11.449553
928.550000	-6.526430
928.755000	-1.886108
928.961000	-8.133507
929.167000	-8.041758
929.372000	-0.482434
929.578000	-0.916471
929.784000	-6.476680
929.990000	-10.274151
930.195000	-7.976637
930.401000	-5.767188
930.607000	-3.433440
930.812000	-4.355970
931.018000	-8.539781
931.224000	-14.006514
931.429000	-9.904780
931.635000	-13.888076
931.841000	-13.489851
932.046000	-7.944249
932.252000	-3.370485
932.458000	3.043772
932.664000	-2.104370
932.869000	-6.744169
933.075000	-10.351338
933.281000	-10.578926
933.486000	-3.480674
933.692000	-5.620323
933.898000	-9.310050
934.103000	-2.537412
934.309000	-8.394614
934.515000	-5.112733
934.720000	-1.956034
934.926000	0.449854
935.132000	-1.454546
935.338000	-4.183369
935.543000	-11.256510
935.749000	-13.333433
935.955000	-14.925099
936.160000	-11.637673
936.366000	-1.997938
936.572000	-4.654043
936.777000	-5.512239
936.983000	-1.701527
937.189000	-6.146555
937.394000	-12.966997
937.600000	-3.609946
937.806000	3.280521
938.012000	-7.005905
938.217000	3.660498
938.423000	1.140608
938.629000	-8.128011
938.834000	-14.956768
939.040000	-14.546875
939.246000	-9.177792
939.451000	-12.363097
939.657000	-6.285421
939.863000	-12.661854
940.068000	-3.590223
940.274000	-8.023030
940.480000	-6.119657
940.686000	-4.639468
940.891000	-8.434152
941.097000	18.135348
941.303000	5.430471
941.508000	-5.763125
941.714000	-5.329050
941.920000	-16.597448
942.125000	-4.596985
942.331000	-2.356806
942.537000	3.354124
942.742000	2.427009
942.948000	-10.670771
943.154000	-14.138337
943.360000	-26.119041
943.565000	-13.334690
943.771000	-2.326077
943.977000	2.727981
944.182000	-13.346666
944.388000	-14.636643
944.594000	-1.722953
944.799000	4.817713
945.005000	-2.083309
945.211000	3.756107
945.416000	-0.353621
945.622000	-16.814321
945.828000	-12.516439
946.034000	0.416232
946.239000	-0.104639
946.445000	-7.958626
946.651000	-19.328822
946.856000	-15.780071
947.062000	-2.940264
947.268000	-2.051837
947.473000	-16.533549
947.679000	-20.045015
947.885000	-7.737605
948.090000	-2.753923
948.296000	11.336662
948.502000	-3.025580
948.708000	-11.083567
948.913000	-13.924202
949.119000	-2.274716
949.325000	-10.269814
949.530000	-25.189734
949.736000	-26.859406
949.942000	-15.853367
950.147000	-15.290958
950.353000	-14.354699
950.559000	-11.808641
950.764000	12.651884
950.970000	6.724430
951.176000	-10.203689
951.382000	-17.132281
951.587000	-6.225961
951.793000	0.744041
951.999000	0.451362
952.204000	-14.356888
952.410000	-25.804098
952.616000	-12.017263
952.821000	-7.161293
953.027000	-16.776383
953.233000	-17.221655
953.438000	-17.490519
953.644000	1.042042
953.850000	-3.012354
954.056000	-13.142870
954.261000	-14.402682
954.467000	-3.070324
954.673000	5.774275
954.878000	-7.656511
955.084000	-6.630029
955.290000	-19.732539
955.495000	-22.025555
955.701000	-17.210768
955.907000	2.603175
956.112000	-2.240170
956.318000	6.180696
956.524000	4.886194
956.730000	-13.070389
956.935000	-14.192116
957.141000	-17.013098
957.347000	-4.175671
957.552000	-8.529385
957.758000	-26.135289
957.964000	-36.470248
958.169000	1.612597
958.375000	0.666067
958.581000	-13.991989
958.786000	-27.590172
958.992000	-34.114596
959.198000	-12.675174
959.404000	-5.487147
959.609000	-13.305860
959.815000	-15.699153
960.021000	2.182126
960.226000	-3.969272
960.432000	-31.938151
960.638000	-20.523258
960.843000	-11.968701
961.049000	-15.323675
961.255000	-6.978176
961.460000	-19.948299
961.666000	-35.385163
961.872000	-17.862489
962.078000	-20.182292
962.283000	-30.967772
962.489000	-30.107605
962.695000	-19.774439
962.900000	-17.671075
963.106000	-17.862274
963.312000	-21.720492
963.517000	-24.426476
963.723000	-26.747927
963.929000	-3.456360
964.134000	6.275328
964.340000	-20.372468
964.546000	-23.337475
964.752000	-27.061373
964.957000	-34.697207
965.163000	-6.275256
965.369000	-3.062515
965.574000	-6.227475
965.780000	-12.112553
966.000000	-18.987871
966.220000	-12.786922
966.440000	-14.838316
966.661000	-5.148981
966.881000	-22.180643
967.101000	-39.666894
967.321000	-39.061877
967.541000	-12.534164
967.761000	-20.680747
967.981000	-13.285669
968.202000	-10.870914
968.422000	-2.697036
968.642000	-1.218335
968.862000	-1.243798
969.082000	-16.374467
969.302000	-11.554251
969.522000	-13.987208
969.743000	1.537113
969.963000	-21.557680
970.183000	-31.559387
970.403000	-29.531776
970.623000	-29.758703
970.843000	-3.336161
971.063000	0.045779
971.284000	-25.055100
971.504000	-39.395528
971.724000	-18.667731
971.944000	-32.478886
972.164000	-38.657810
972.384000	-28.437799
972.604000	-41.977676
972.825000	-46.911395
973.045000	-29.485310
973.265000	28.471377
973.485000	15.142535
973.705000	-4.180080
973.925000	-22.176377
974.145000	-57.066679
974.365000	-20.902033
974.586000	-17.121461
974.806000	-34.541666
975.026000	-3.605175
975.246000	-15.369936
975.466000	-32.694898
975.686000	-21.008854
975.906000	-30.659577
976.127000	-48.785587
976.347000	-45.260005
976.567000	-12.711962
976.787000	-5.394737
977.007000	-18.611570
977.227000	-31.828977
977.447000	-34.033468
977.668000	-50.552800
977.888000	-31.841681
978.108000	-31.014582
978.328000	-16.956160
978.548000	11.615554
978.768000	10.949081
978.988000	-7.010662
979.209000	-24.731986
979.429000	-25.490004
979.649000	-10.172036
979.869000	-34.254822
980.089000	-48.608899
980.309000	-48.371815
980.529000	-54.585018
980.750000	-35.622713
980.970000	-53.626584
981.190000	-35.132907
981.410000	-37.556011
981.630000	-46.393824
981.850000	-38.230752
982.070000	-31.797797
982.291000	-52.476539
982.511000	-48.864469
982.731000	-9.441197
982.951000	-26.843455
983.171000	-38.793271
983.391000	-32.027419
983.611000	-3.502661
983.832000	-27.316016
984.052000	-48.794591
984.272000	-25.862283
984.492000	-25.133845
984.712000	-36.827700
984.932000	-51.444863
985.152000	-63.647305
985.373000	-52.426011
985.593000	-25.791703
985.813000	-36.364846
986.033000	-43.077778
986.253000	-2.361446
986.473000	6.659060
986.693000	-21.446600
986.914000	-39.135010
987.134000	3.838168
987.354000	-33.444887
987.574000	181.032121
987.794000	102.758305
988.014000	-51.655477
988.234000	-26.683409
988.455000	-11.176938
988.675000	-11.232892
988.895000	-26.624323
989.115000	-44.983248
989.335000	-29.899456
989.555000	-7.737762
989.775000	-39.576488
989.995000	-30.120674
990.216000	-28.653894
990.436000	-30.098937
990.656000	2.095649
990.876000	-34.389265
991.096000	-24.299728
991.316000	4.045141
991.536000	-31.559442
991.757000	-29.710474
991.977000	-73.022831
992.197000	-14.652610
992.417000	-31.424146
992.637000	-78.359097
992.857000	-93.439577
993.077000	-87.638750
993.298000	-50.378365
993.518000	-47.343389
993.738000	-102.571320
993.958000	-46.387917
994.178000	-55.632436
994.398000	-51.095332
994.618000	-92.206642
994.839000	-139.223300
995.059000	-43.708112
995.279000	23.284650
995.499000	-8.067458
995.719000	-14.452599
995.939000	-30.305708
996.159000	-39.513948
996.380000	-28.848108
996.600000	-76.887133
996.820000	-56.521235
997.040000	0.794842
997.260000	-56.852162
997.480000	-34.337082
997.700000	-107.129657
997.921000	-71.578443
998.141000	16.843866
998.361000	5.535311
998.581000	-50.103015
998.801000	-104.154113
999.021000	-75.492946
999.241000	-29.620175
999.462000	-56.869008
999.682000	-97.577400
999.902000	-67.472042
1000.122000	-88.349502
1000.342000	-139.440648
1000.562000	-63.167892
1000.782000	-79.618706
1001.003000	-1080.463683
