Wavelength	Irradiance
(nm)	(mW/cm2/nm)

294.396000	0.000000
294.577000	0.000000
294.757000	0.000000
294.938000	-0.000000
295.118000	-0.000000
295.299000	0.000000
295.479000	-0.000000
295.660000	-0.000000
295.840000	-0.000000
296.021000	-0.000000
296.202000	-0.000000
296.382000	-0.000000
296.563000	-0.000000
296.743000	-0.000000
296.924000	0.000000
297.104000	-0.000000
297.285000	-0.000000
297.465000	-0.000000
297.646000	-0.000000
297.826000	-0.000000
298.007000	0.000000
298.187000	0.000000
298.368000	-0.000000
298.548000	0.000000
298.729000	0.000000
298.909000	-0.000000
299.090000	-0.000000
299.270000	-0.000000
299.451000	-0.000000
299.631000	-0.000000
299.812000	-0.000000
299.992000	0.000000
300.173000	0.000000
300.353000	-0.000000
300.534000	0.000000
300.714000	0.000000
300.895000	0.000000
301.075000	-0.000000
301.256000	0.000000
301.436000	-0.000000
301.617000	-0.000000
301.797000	-0.000000
301.978000	-0.000000
302.159000	0.000000
302.339000	0.000000
302.520000	-0.000000
302.700000	-0.000000
302.881000	0.000000
303.061000	0.000000
303.242000	0.000000
303.422000	0.000000
303.603000	-0.000000
303.783000	-0.000000
303.964000	-0.000000
304.144000	-0.000000
304.325000	-0.000000
304.505000	0.000000
304.686000	-0.000000
304.866000	0.000000
305.047000	-0.000000
305.227000	-0.000000
305.408000	-0.000000
305.588000	-0.000000
305.769000	-0.000000
305.949000	-0.000000
306.130000	-0.000000
306.310000	-0.000000
306.491000	-0.000000
306.671000	0.000000
306.852000	-0.000000
307.032000	-0.000000
307.213000	-0.000000
307.393000	-0.000000
307.574000	0.000000
307.755000	0.000000
307.935000	0.000000
308.116000	-0.000000
308.296000	-0.000000
308.477000	0.000000
308.657000	0.000000
308.838000	0.000000
309.018000	0.000000
309.199000	-0.000000
309.379000	-0.000000
309.560000	0.000000
309.740000	-0.000000
309.921000	0.000000
310.101000	-0.000000
310.282000	-0.000000
310.462000	-0.000000
310.643000	-0.000000
310.823000	-0.000000
311.004000	-0.000000
311.184000	-0.000000
311.365000	0.000000
311.545000	0.000000
311.726000	0.000000
311.906000	-0.000000
312.087000	0.000000
312.267000	-0.000000
312.448000	-0.000000
312.628000	-0.000000
312.809000	-0.000000
312.989000	-0.000000
313.170000	-0.000000
313.344000	-0.000000
313.518000	-0.000000
313.691000	-0.000000
313.865000	-0.000000
314.039000	-0.000000
314.213000	-0.000000
314.387000	-0.000000
314.560000	-0.000000
314.734000	-0.000000
314.908000	-0.000000
315.082000	-0.000000
315.255000	0.000000
315.429000	0.000000
315.603000	0.000000
315.777000	-0.000000
315.951000	0.000000
316.124000	-0.000000
316.298000	-0.000000
316.472000	-0.000000
316.646000	-0.000000
316.820000	-0.000000
316.993000	-0.000000
317.167000	-0.000000
317.341000	-0.000000
317.515000	-0.000000
317.688000	-0.000000
317.862000	-0.000000
318.036000	-0.000000
318.210000	-0.000000
318.384000	-0.000000
318.557000	-0.000000
318.731000	-0.000000
318.905000	-0.000000
319.079000	-0.000000
319.253000	-0.000000
319.426000	0.000000
319.600000	0.000000
319.774000	-0.000000
319.948000	-0.000000
320.122000	0.000000
320.295000	0.000000
320.469000	-0.000000
320.643000	-0.000000
320.817000	-0.000000
320.990000	-0.000000
321.164000	-0.000000
321.338000	-0.000000
321.512000	-0.000000
321.686000	-0.000000
321.859000	-0.000000
322.033000	-0.000000
322.207000	-0.000000
322.381000	-0.000000
322.555000	0.000000
322.728000	-0.000000
322.902000	-0.000000
323.076000	-0.000000
323.250000	-0.000000
323.423000	-0.000000
323.597000	-0.000000
323.771000	-0.000000
323.945000	-0.000000
324.119000	-0.000000
324.292000	-0.000000
324.466000	-0.000000
324.640000	0.000000
324.814000	0.000000
324.988000	-0.000000
325.161000	-0.000000
325.335000	-0.000000
325.509000	-0.000000
325.683000	-0.000000
325.856000	-0.000000
326.030000	-0.000000
326.204000	-0.000000
326.378000	-0.000000
326.552000	-0.000000
326.725000	-0.000000
326.899000	-0.000000
327.073000	-0.000000
327.247000	-0.000000
327.421000	0.000000
327.594000	-0.000000
327.768000	-0.000000
327.942000	-0.000000
328.116000	0.000000
328.289000	0.000000
328.463000	0.000000
328.637000	0.000000
328.811000	-0.000000
328.985000	-0.000000
329.158000	-0.000000
329.332000	-0.000000
329.506000	0.000000
329.680000	-0.000000
329.854000	-0.000000
330.027000	-0.000000
330.201000	0.000000
330.375000	0.000000
330.549000	0.000000
330.723000	-0.000000
330.896000	-0.000000
331.070000	-0.000000
331.244000	-0.000000
331.418000	-0.000000
331.591000	-0.000000
331.765000	-0.000000
331.939000	-0.000000
332.113000	-0.000000
332.287000	-0.000000
332.460000	0.000000
332.634000	0.000000
332.808000	-0.000000
332.982000	-0.000000
333.156000	-0.000000
333.329000	-0.000000
333.503000	-0.000000
333.677000	-0.000000
333.851000	-0.000000
334.024000	-0.000000
334.198000	-0.000000
334.372000	-0.000000
334.546000	-0.000000
334.720000	-0.000000
334.893000	-0.000000
335.067000	-0.000000
335.241000	0.000000
335.415000	-0.000000
335.589000	-0.000000
335.762000	-0.000000
335.936000	-0.000000
336.110000	-0.000000
336.284000	-0.000000
336.458000	-0.000000
336.631000	-0.000000
336.805000	-0.000000
336.979000	-0.000000
337.153000	-0.000000
337.326000	-0.000000
337.500000	-0.000000
337.674000	-0.000000
337.848000	-0.000000
338.022000	-0.000000
338.195000	-0.000000
338.369000	-0.000000
338.543000	-0.000000
338.717000	-0.000000
338.891000	-0.000000
339.064000	0.000000
339.238000	-0.000000
339.412000	-0.000000
339.586000	-0.000000
339.759000	-0.000000
339.933000	-0.000000
340.107000	0.000000
340.281000	-0.000000
340.455000	-0.000000
340.628000	-0.000000
340.802000	-0.000000
340.976000	-0.000000
341.150000	-0.000000
341.324000	-0.000000
341.497000	-0.000000
341.671000	-0.000000
341.845000	-0.000000
342.019000	-0.000000
342.192000	-0.000000
342.366000	-0.000000
342.540000	-0.000000
342.714000	-0.000000
342.888000	-0.000000
343.061000	-0.000000
343.235000	-0.000000
343.409000	-0.000000
343.583000	-0.000000
343.757000	-0.000000
343.930000	-0.000000
344.104000	-0.000000
344.278000	0.000000
344.452000	0.000000
344.626000	-0.000000
344.799000	-0.000000
344.973000	-0.000000
345.147000	-0.000000
345.321000	-0.000000
345.494000	-0.000000
345.668000	0.000000
345.842000	0.000000
346.016000	-0.000000
346.190000	0.000000
346.363000	0.000000
346.537000	-0.000000
346.711000	-0.000000
346.885000	-0.000000
347.059000	-0.000000
347.232000	0.000000
347.406000	0.000000
347.580000	-0.000000
347.754000	-0.000000
347.927000	-0.000000
348.101000	0.000000
348.275000	-0.000000
348.449000	-0.000000
348.623000	-0.000000
348.796000	-0.000000
348.970000	0.000000
349.144000	-0.000000
349.318000	-0.000000
349.492000	-0.000000
349.665000	-0.000000
349.839000	-0.000000
350.013000	-0.000000
350.187000	-0.000000
350.361000	-0.000000
350.534000	-0.000000
350.708000	-0.000000
350.882000	-0.000000
351.056000	0.000000
351.229000	-0.000000
351.403000	-0.000000
351.577000	-0.000000
351.751000	-0.000000
351.925000	-0.000000
352.098000	-0.000000
352.272000	-0.000000
352.446000	-0.000000
352.620000	-0.000000
352.794000	-0.000000
352.967000	-0.000000
353.141000	0.000000
353.315000	0.000000
353.489000	-0.000000
353.662000	-0.000000
353.836000	-0.000000
354.010000	-0.000000
354.184000	-0.000000
354.358000	-0.000000
354.531000	-0.000000
354.705000	-0.000000
354.879000	-0.000000
355.053000	-0.000000
355.227000	0.000000
355.400000	-0.000000
355.574000	0.000000
355.748000	0.000000
355.922000	-0.000000
356.095000	-0.000000
356.269000	-0.000000
356.443000	-0.000000
356.617000	-0.000000
356.791000	-0.000000
356.964000	-0.000000
357.138000	-0.000000
357.312000	-0.000000
357.486000	-0.000000
357.660000	-0.000000
357.833000	-0.000000
358.007000	-0.000000
358.181000	-0.000000
358.355000	-0.000000
358.529000	-0.000000
358.702000	-0.000000
358.876000	-0.000000
359.050000	-0.000000
359.224000	-0.000000
359.397000	-0.000000
359.571000	-0.000000
359.745000	-0.000000
359.919000	-0.000000
360.093000	-0.065888
360.266000	0.015802
360.440000	0.072690
360.614000	0.135037
360.788000	0.043115
360.962000	-0.206010
361.135000	-0.073001
361.309000	-0.196042
361.483000	-0.393205
361.657000	-0.322146
361.830000	-0.228527
362.004000	-0.008584
362.178000	-0.348193
362.352000	-0.230460
362.526000	-0.062926
362.699000	-0.039339
362.873000	-0.362400
363.047000	-0.381629
363.221000	-0.397360
363.395000	-0.180323
363.568000	-0.178890
363.742000	-0.256882
363.916000	-0.245639
364.090000	-0.329594
364.263000	-0.328685
364.437000	-0.416060
364.611000	-0.136919
364.785000	-0.070493
364.959000	-0.183224
365.132000	-0.206323
365.306000	-0.262215
365.480000	-0.132117
365.656000	-0.206953
365.831000	-0.227812
366.007000	-0.197336
366.183000	-0.147069
366.358000	-0.278459
366.534000	-0.224355
366.710000	-0.347238
366.886000	-0.252624
367.061000	-0.087618
367.237000	-0.009550
367.413000	-0.141413
367.588000	-0.395493
367.764000	-0.379167
367.940000	-0.338027
368.115000	-0.237542
368.291000	-0.308710
368.467000	-0.245845
368.643000	0.126523
368.818000	-0.197764
368.994000	-0.384392
369.170000	-0.316961
369.345000	-0.185212
369.521000	-0.229780
369.697000	-0.146225
369.872000	-0.227729
370.048000	-0.328693
370.224000	-0.283568
370.399000	-0.436233
370.575000	-0.334172
370.751000	-0.477220
370.927000	-0.479892
371.102000	-0.462293
371.278000	-0.380912
371.454000	-0.270141
371.629000	0.022480
371.805000	-0.034364
371.981000	0.058319
372.156000	0.188414
372.332000	-0.004524
372.508000	-0.023559
372.683000	-0.031494
372.859000	-0.129312
373.035000	-0.160841
373.211000	0.248273
373.386000	0.006309
373.562000	-0.381773
373.738000	-0.453656
373.913000	-0.605496
374.089000	-0.481736
374.265000	-0.081301
374.440000	-0.010218
374.616000	0.003582
374.792000	-0.248517
374.968000	0.148467
375.143000	-0.080268
375.319000	-0.355204
375.495000	-0.409811
375.670000	-0.209249
375.846000	-0.102394
376.022000	-0.276363
376.197000	-0.211485
376.373000	-0.416737
376.549000	-0.449983
376.724000	-0.505481
376.900000	-0.345313
377.076000	-0.207566
377.252000	0.040067
377.427000	0.158907
377.603000	-0.268636
377.779000	-0.303428
377.954000	-0.403939
378.130000	-0.222071
378.306000	-0.208343
378.481000	-0.236488
378.657000	-0.290367
378.833000	-0.350106
379.009000	-0.171805
379.184000	-0.046788
379.360000	-0.117125
379.536000	-0.160367
379.711000	-0.232865
379.887000	-0.316773
380.063000	-0.323884
380.238000	-0.373624
380.414000	-0.138164
380.590000	-0.338036
380.765000	-0.321156
380.941000	-0.134908
381.117000	-0.139234
381.293000	-0.180296
381.468000	-0.344553
381.644000	-0.295175
381.820000	-0.188900
381.995000	-0.093670
382.171000	0.203779
382.347000	0.158771
382.522000	-0.255802
382.698000	0.032042
382.874000	0.047601
383.050000	-0.391977
383.225000	-0.014901
383.401000	0.242083
383.577000	-0.112789
383.752000	-0.260860
383.928000	-0.205996
384.104000	-0.144923
384.279000	-0.229888
384.455000	-0.182167
384.631000	-0.190175
384.806000	-0.384588
384.982000	-0.172313
385.158000	-0.317115
385.334000	-0.212197
385.509000	-0.192468
385.685000	-0.433655
385.861000	-0.268804
386.036000	-0.427723
386.212000	-0.614392
386.388000	-0.385724
386.563000	-0.323679
386.739000	-0.376155
386.915000	-0.621477
387.090000	-0.305816
387.266000	-0.095025
387.442000	0.000776
387.618000	-0.166043
387.793000	-0.465139
387.969000	-0.591668
388.145000	-0.471307
388.320000	-0.415536
388.496000	-0.380782
388.672000	-0.599396
388.847000	-0.221432
389.023000	-0.156026
389.199000	-0.446233
389.375000	-0.231015
389.550000	-0.373342
389.726000	-0.257719
389.902000	-0.442628
390.077000	-0.234774
390.253000	-0.167462
390.429000	-0.294073
390.604000	-0.162187
390.780000	-0.118312
390.956000	-0.270743
391.131000	-0.355534
391.307000	0.003264
391.483000	-0.174938
391.659000	-0.371922
391.834000	-0.172250
392.010000	-0.329761
392.186000	-0.362690
392.361000	-0.298164
392.537000	-0.429634
392.713000	0.057539
392.888000	0.265370
393.064000	-0.056342
393.240000	-0.291396
393.416000	-0.390486
393.591000	-0.425524
393.767000	-0.464167
393.943000	-0.315954
394.118000	-0.023681
394.294000	0.110519
394.470000	-0.062539
394.645000	0.041965
394.821000	0.222752
394.997000	-0.156870
395.172000	-0.170514
395.348000	-0.255428
395.524000	-0.549532
395.700000	-0.417722
395.875000	-0.130957
396.051000	-0.159477
396.227000	-0.196798
396.402000	-0.287441
396.578000	-0.223907
396.754000	-0.318783
396.929000	-0.314968
397.105000	-0.027939
397.281000	-0.116258
397.457000	-0.268257
397.632000	-0.253654
397.808000	-0.485178
397.984000	-0.617332
398.159000	-0.513641
398.335000	-0.346186
398.511000	0.060003
398.686000	-0.148546
398.862000	-0.371092
399.038000	-0.449937
399.213000	-0.214215
399.389000	-0.484034
399.565000	-0.194055
399.741000	0.005391
399.916000	-0.046620
400.092000	0.146713
400.268000	-0.218843
400.443000	-0.334896
400.619000	0.057324
400.795000	-0.070320
400.970000	-0.286671
401.146000	-0.297174
401.322000	0.050297
401.497000	0.387684
401.673000	0.086095
401.849000	-0.226227
402.025000	-0.018125
402.200000	-0.149536
402.376000	-0.292605
402.552000	0.106735
402.727000	-0.081377
402.903000	-0.364371
403.079000	-0.294363
403.254000	-0.013360
403.430000	-0.050521
403.606000	-0.153213
403.782000	-0.220564
403.957000	-0.396368
404.133000	-0.521504
404.309000	-0.345768
404.484000	-0.141593
404.660000	-0.118596
404.841000	-0.254424
405.023000	-0.038874
405.204000	-0.104361
405.385000	-0.365176
405.566000	-0.398556
405.748000	-0.294190
405.929000	-0.044337
406.110000	-0.128193
406.292000	-0.317166
406.473000	-0.180722
406.654000	-0.325165
406.835000	-0.209572
407.017000	-0.262314
407.198000	-0.257086
407.379000	-0.194406
407.560000	-0.204224
407.742000	-0.229011
407.923000	-0.202284
408.104000	-0.403344
408.286000	-0.258850
408.467000	-0.144939
408.648000	-0.330889
408.829000	-0.399044
409.011000	-0.316256
409.192000	-0.435938
409.373000	-0.224285
409.555000	-0.138492
409.736000	-0.176736
409.917000	-0.262967
410.098000	-0.263523
410.280000	-0.149853
410.461000	-0.156417
410.642000	-0.111086
410.823000	0.103293
411.005000	0.030365
411.186000	-0.191223
411.367000	-0.301144
411.549000	-0.342055
411.730000	-0.076981
411.911000	0.016647
412.092000	-0.188030
412.274000	-0.229487
412.455000	-0.139515
412.636000	-0.144169
412.818000	-0.330699
412.999000	-0.379960
413.180000	-0.307921
413.361000	-0.304546
413.543000	-0.356891
413.724000	-0.429999
413.905000	-0.403095
414.087000	-0.435407
414.268000	-0.406180
414.449000	-0.409167
414.630000	-0.491254
414.812000	-0.559434
414.993000	-0.233843
415.174000	-0.094511
415.355000	-0.286621
415.537000	-0.493769
415.718000	-0.225720
415.899000	-0.293646
416.081000	-0.391608
416.262000	-0.225861
416.443000	-0.328399
416.624000	-0.301376
416.806000	-0.192313
416.987000	-0.036796
417.168000	-0.106661
417.350000	-0.336550
417.531000	-0.393293
417.712000	-0.338853
417.893000	-0.140756
418.075000	-0.031860
418.256000	-0.258013
418.437000	-0.235045
418.618000	-0.086330
418.800000	-0.038429
418.981000	-0.295320
419.162000	-0.244051
419.344000	-0.014476
419.525000	-0.116647
419.706000	-0.232031
419.887000	-0.092670
420.069000	0.076529
420.250000	-0.070874
420.431000	-0.150700
420.613000	-0.173138
420.794000	-0.419409
420.975000	-0.051049
421.156000	-0.208692
421.338000	-0.266745
421.519000	-0.247287
421.700000	-0.345326
421.882000	-0.375532
422.063000	-0.191295
422.244000	0.318216
422.425000	0.101882
422.607000	-0.253996
422.788000	-0.270150
422.969000	-0.365095
423.150000	-0.378442
423.332000	-0.452520
423.513000	-0.307454
423.694000	-0.252757
423.876000	-0.180733
424.057000	-0.161325
424.238000	-0.064382
424.419000	-0.036307
424.601000	-0.216727
424.782000	-0.164389
424.963000	-0.005815
425.145000	-0.107325
425.326000	-0.139117
425.507000	-0.100266
425.688000	-0.135302
425.870000	-0.311330
426.051000	-0.442606
426.232000	-0.332841
426.413000	-0.319650
426.595000	-0.335199
426.776000	-0.390993
426.957000	-0.364585
427.139000	-0.231771
427.320000	-0.178758
427.501000	-0.073127
427.682000	-0.081407
427.864000	-0.120207
428.045000	0.065582
428.226000	-0.005865
428.408000	-0.370434
428.589000	-0.215438
428.770000	-0.189078
428.951000	-0.328657
429.133000	-0.456430
429.314000	-0.243645
429.495000	-0.317588
429.677000	-0.273703
429.858000	-0.250397
430.039000	-0.248543
430.220000	-0.078852
430.402000	0.004926
430.583000	-0.284885
430.764000	-0.268783
430.945000	-0.160041
431.127000	-0.088703
431.308000	-0.234397
431.489000	-0.024911
431.671000	0.026296
431.852000	-0.090676
432.033000	-0.209618
432.214000	-0.135020
432.396000	-0.035304
432.577000	-0.217590
432.758000	-0.426351
432.940000	-0.355868
433.121000	-0.247381
433.302000	-0.233885
433.483000	-0.022562
433.665000	0.074474
433.846000	-0.041553
434.027000	-0.196405
434.208000	-0.315469
434.390000	-0.404878
434.571000	0.002733
434.752000	0.424177
434.934000	0.164550
435.115000	-0.003536
435.296000	0.087965
435.477000	-0.057434
435.659000	-0.290716
435.840000	-0.172247
436.026000	-0.163530
436.211000	-0.290423
436.397000	-0.503713
436.582000	-0.350593
436.768000	-0.138122
436.953000	-0.266294
437.139000	-0.269780
437.325000	0.016800
437.510000	-0.054035
437.696000	0.101527
437.881000	0.069123
438.067000	-0.291939
438.252000	-0.227991
438.438000	-0.245864
438.624000	-0.223832
438.809000	-0.155065
438.995000	-0.091097
439.180000	-0.217997
439.366000	-0.251518
439.551000	-0.231357
439.737000	-0.205168
439.923000	-0.147985
440.108000	-0.224950
440.294000	-0.157200
440.479000	0.016313
440.665000	0.029875
440.850000	-0.079031
441.036000	-0.122028
441.222000	-0.175315
441.407000	-0.313010
441.593000	-0.137116
441.778000	0.000580
441.964000	0.054993
442.149000	-0.264624
442.335000	-0.313372
442.521000	-0.197589
442.706000	-0.003257
442.892000	-0.087379
443.077000	-0.154817
443.263000	-0.052919
443.448000	-0.149676
443.634000	-0.229716
443.820000	0.081884
444.005000	-0.050459
444.191000	-0.251305
444.376000	-0.252008
444.562000	0.097976
444.747000	0.124851
444.933000	-0.021970
445.119000	-0.132439
445.304000	-0.221941
445.490000	-0.063036
445.675000	-0.038702
445.861000	-0.233765
446.046000	-0.259442
446.232000	-0.128328
446.418000	-0.079673
446.603000	-0.141231
446.789000	-0.107533
446.974000	-0.128420
447.160000	-0.336565
447.345000	-0.247718
447.531000	-0.260459
447.717000	-0.059041
447.902000	0.009912
448.088000	0.034025
448.273000	-0.101182
448.459000	-0.130410
448.644000	-0.200611
448.830000	-0.271753
449.016000	-0.291886
449.201000	-0.236025
449.387000	-0.164311
449.572000	-0.073321
449.758000	-0.148946
449.943000	-0.250817
450.129000	-0.270067
450.315000	-0.284259
450.500000	-0.345196
450.686000	-0.238967
450.871000	-0.327719
451.057000	-0.227740
451.243000	-0.212766
451.428000	-0.209369
451.614000	-0.172132
451.799000	-0.223437
451.985000	-0.045328
452.170000	-0.006784
452.356000	-0.158843
452.542000	-0.160867
452.727000	-0.089049
452.913000	-0.213740
453.098000	-0.039740
453.284000	0.143340
453.469000	-0.017778
453.655000	0.099350
453.841000	-0.001279
454.026000	-0.175875
454.212000	-0.106456
454.397000	-0.099336
454.583000	-0.241253
454.768000	-0.332853
454.954000	-0.090001
455.140000	-0.033806
455.325000	-0.226722
455.511000	-0.345631
455.696000	-0.351101
455.882000	-0.142332
456.067000	0.062063
456.253000	-0.151458
456.439000	-0.285320
456.624000	-0.282578
456.810000	-0.297986
456.995000	-0.269576
457.181000	-0.349686
457.366000	-0.106677
457.552000	-0.093782
457.738000	-0.026130
457.923000	-0.015492
458.109000	0.197007
458.294000	0.095104
458.480000	-0.013756
458.665000	-0.076057
458.851000	-0.216390
459.037000	-0.389807
459.222000	-0.222031
459.408000	-0.204373
459.593000	-0.150650
459.779000	-0.008236
459.964000	0.121644
460.150000	0.271328
460.336000	0.181463
460.521000	-0.077980
460.707000	-0.192668
460.892000	-0.289571
461.078000	-0.063900
461.263000	0.054254
461.449000	-0.142121
461.635000	-0.154132
461.820000	-0.113937
462.006000	-0.049560
462.191000	-0.066582
462.377000	-0.236212
462.562000	0.071073
462.748000	0.259710
462.934000	-0.166184
463.119000	-0.350165
463.305000	-0.123832
463.490000	-0.174084
463.676000	-0.145638
463.861000	-0.134327
464.047000	-0.174736
464.233000	-0.077244
464.418000	-0.121060
464.604000	-0.208400
464.789000	-0.011296
464.975000	0.010588
465.160000	-0.105551
465.346000	-0.113904
465.532000	-0.247179
465.717000	-0.255189
465.903000	-0.029727
466.088000	-0.071627
466.274000	-0.233144
466.459000	-0.281868
466.645000	0.084159
466.831000	0.057028
467.016000	0.032036
467.202000	-0.031179
467.387000	-0.139164
467.573000	-0.315789
467.758000	-0.035782
467.944000	-0.106639
468.130000	-0.243041
468.315000	-0.135427
468.501000	-0.014370
468.686000	-0.096720
468.872000	-0.068732
469.057000	-0.019279
469.243000	-0.090262
469.429000	-0.139662
469.614000	-0.247894
469.800000	-0.297251
469.985000	-0.125779
470.171000	-0.022382
470.356000	-0.117575
470.542000	-0.078519
470.728000	-0.088091
470.913000	-0.120298
471.099000	-0.002773
471.284000	-0.093145
471.470000	-0.136054
471.655000	-0.124557
471.841000	-0.122522
472.027000	-0.201807
472.212000	-0.024002
472.398000	0.054551
472.583000	-0.055265
472.769000	-0.057011
472.954000	-0.086450
473.140000	-0.254321
473.326000	-0.295535
473.511000	0.021708
473.697000	0.051148
473.882000	-0.071705
474.068000	-0.137600
474.253000	-0.263053
474.439000	-0.204449
474.625000	-0.078062
474.810000	-0.074843
474.996000	-0.065016
475.181000	-0.209992
475.367000	-0.090976
475.552000	0.115477
475.738000	-0.171016
475.924000	-0.179586
476.109000	-0.094420
476.295000	-0.171422
476.480000	-0.135542
476.666000	-0.164793
476.851000	-0.131993
477.037000	-0.101444
477.223000	-0.184568
477.408000	-0.246869
477.594000	-0.354652
477.779000	-0.204503
477.965000	-0.161921
478.151000	-0.307865
478.336000	-0.168603
478.522000	-0.178028
478.707000	-0.245152
478.893000	-0.199711
479.078000	-0.364711
479.264000	-0.341768
479.450000	-0.241490
479.635000	-0.098142
479.821000	-0.207003
480.006000	-0.145960
480.192000	-0.150754
480.377000	-0.131311
480.563000	-0.116369
480.749000	-0.304205
480.934000	-0.313751
481.120000	-0.199494
481.305000	-0.037159
481.491000	-0.047172
481.676000	-0.065399
481.862000	-0.083713
482.048000	-0.219566
482.233000	-0.179939
482.419000	-0.180346
482.604000	-0.256232
482.790000	-0.238135
482.975000	-0.172466
483.161000	-0.056988
483.347000	-0.076573
483.532000	-0.117588
483.718000	-0.300619
483.903000	-0.259848
484.089000	-0.213196
484.274000	-0.321177
484.460000	-0.198487
484.646000	-0.188636
484.831000	-0.307269
485.017000	-0.202946
485.202000	-0.174723
485.388000	0.034856
485.573000	0.067451
485.759000	-0.145232
485.945000	-0.015886
486.130000	-0.190973
486.316000	-0.191046
486.501000	-0.104006
486.687000	-0.253859
486.872000	-0.329158
487.058000	-0.139948
487.244000	-0.122061
487.429000	-0.313961
487.615000	-0.157580
487.800000	-0.067942
487.986000	-0.156954
488.171000	-0.075974
488.357000	-0.106523
488.543000	-0.102904
488.728000	-0.025371
488.914000	-0.119174
489.099000	-0.243538
489.285000	-0.246594
489.470000	-0.051064
489.656000	-0.012413
489.842000	-0.058936
490.027000	0.021293
490.213000	-0.129417
490.398000	-0.399829
490.584000	-0.159726
490.769000	-0.145307
490.955000	-0.076287
491.141000	-0.074523
491.326000	-0.098115
491.512000	0.038624
491.697000	-0.053455
491.883000	-0.196293
492.068000	-0.259799
492.254000	-0.231644
492.440000	-0.160005
492.625000	-0.208640
492.811000	-0.219285
492.996000	-0.103729
493.182000	-0.111268
493.367000	-0.307291
493.553000	-0.373682
493.739000	-0.232826
493.924000	-0.106841
494.110000	-0.128526
494.295000	-0.273994
494.481000	-0.154989
494.666000	-0.111099
494.852000	0.009884
495.038000	-0.159230
495.223000	-0.262958
495.409000	-0.188817
495.594000	-0.234570
495.780000	-0.183948
495.965000	-0.242018
496.151000	-0.008907
496.337000	0.020763
496.522000	-0.206355
496.708000	-0.135312
496.893000	0.037923
497.079000	-0.133407
497.264000	-0.182870
497.450000	-0.136312
497.636000	-0.060206
497.821000	-0.207458
498.007000	-0.005741
498.192000	0.058094
498.378000	-0.105257
498.563000	-0.158169
498.749000	-0.136534
498.935000	-0.142546
499.120000	-0.027448
499.306000	-0.175015
499.491000	-0.208614
499.677000	-0.093979
499.862000	-0.036833
500.048000	0.012922
500.234000	-0.070969
500.419000	-0.106881
500.605000	0.028496
500.790000	-0.074193
500.976000	-0.234778
501.161000	-0.276767
501.347000	-0.096094
501.533000	-0.012000
501.718000	-0.124134
501.904000	-0.183746
502.089000	-0.066760
502.275000	-0.007329
502.460000	-0.113035
502.646000	-0.063354
502.832000	-0.013550
503.017000	-0.029183
503.203000	-0.212069
503.388000	-0.283072
503.574000	-0.058903
503.759000	-0.019837
503.945000	0.022375
504.131000	-0.080893
504.316000	-0.135574
504.502000	-0.088696
504.687000	-0.159515
504.873000	-0.245919
505.058000	-0.247457
505.244000	-0.300736
505.430000	-0.233718
505.615000	-0.092378
505.801000	-0.070473
505.986000	-0.258410
506.172000	-0.132973
506.358000	-0.122261
506.543000	-0.174093
506.729000	0.022502
506.914000	0.002050
507.100000	0.095422
507.285000	-0.113653
507.471000	-0.233861
507.657000	0.021056
507.842000	-0.092804
508.028000	-0.252653
508.213000	-0.237424
508.399000	-0.190237
508.584000	-0.037703
508.770000	-0.128156
508.956000	-0.193418
509.141000	-0.136082
509.327000	-0.045666
509.512000	-0.132653
509.698000	-0.143966
509.883000	-0.050457
510.069000	-0.120817
510.255000	-0.103307
510.440000	-0.074658
510.626000	-0.120957
510.811000	-0.181937
510.997000	-0.089147
511.182000	0.152345
511.368000	0.058092
511.554000	-0.270133
511.739000	-0.228352
511.925000	-0.033145
512.110000	-0.044312
512.296000	0.101516
512.481000	0.099791
512.667000	-0.036400
512.853000	-0.219237
513.038000	-0.140849
513.224000	-0.169799
513.409000	-0.262945
513.595000	-0.149140
513.780000	-0.284139
513.966000	-0.208058
514.152000	-0.219315
514.337000	-0.264343
514.523000	-0.180900
514.708000	-0.124847
514.894000	-0.117135
515.079000	-0.240257
515.265000	-0.215316
515.451000	-0.186406
515.636000	-0.247446
515.822000	-0.128471
516.007000	-0.252630
516.193000	-0.092932
516.378000	-0.005969
516.564000	-0.097789
516.750000	-0.128442
516.935000	-0.031764
517.121000	-0.012413
517.306000	0.063413
517.492000	0.013413
517.677000	-0.199670
517.863000	-0.230382
518.049000	-0.078648
518.234000	-0.151207
518.420000	-0.075455
518.605000	0.128084
518.791000	0.090890
518.976000	-0.035171
519.162000	-0.153207
519.348000	-0.106313
519.533000	-0.159480
519.719000	0.091062
519.904000	0.060399
520.090000	-0.004363
520.275000	0.171894
520.461000	0.149551
520.647000	-0.065933
520.832000	-0.290272
521.018000	-0.211752
521.203000	-0.167458
521.389000	-0.333544
521.574000	-0.214353
521.760000	-0.059360
521.946000	-0.049807
522.131000	-0.155395
522.317000	-0.163261
522.502000	-0.190741
522.688000	-0.122731
522.873000	-0.140699
523.059000	-0.150542
523.245000	-0.117952
523.430000	-0.244814
523.616000	-0.249617
523.801000	-0.300360
523.987000	-0.229218
524.172000	-0.107022
524.358000	-0.053289
524.544000	-0.132924
524.729000	-0.028721
524.915000	0.054164
525.100000	-0.106822
525.286000	-0.102095
525.471000	-0.074624
525.657000	-0.024029
525.843000	-0.249897
526.028000	-0.112508
526.214000	-0.177948
526.399000	-0.260552
526.585000	-0.301658
526.770000	-0.327893
526.956000	-0.190446
527.142000	-0.272698
527.327000	-0.104954
527.513000	-0.174370
527.698000	-0.209247
527.884000	-0.188462
528.069000	-0.216204
528.255000	-0.093916
528.441000	-0.228355
528.626000	-0.169172
528.812000	0.050362
528.997000	-0.057792
529.183000	-0.170970
529.368000	-0.088140
529.554000	-0.100111
529.740000	-0.115528
529.925000	-0.171059
530.111000	-0.157777
530.296000	-0.098988
530.482000	-0.014707
530.667000	-0.121257
530.853000	-0.011367
531.039000	-0.093006
531.224000	-0.084958
531.410000	-0.014867
531.595000	-0.062775
531.781000	-0.054231
531.967000	-0.197320
532.152000	-0.025368
532.338000	-0.099770
532.523000	-0.229889
532.709000	-0.253344
532.894000	-0.175959
533.080000	-0.149910
533.266000	-0.297069
533.451000	-0.313987
533.637000	-0.239208
533.822000	-0.043714
534.008000	-0.204586
534.193000	-0.182272
534.379000	-0.077837
534.565000	-0.176511
534.750000	-0.220245
534.936000	0.022162
535.121000	-0.147588
535.307000	-0.122509
535.492000	-0.137206
535.678000	-0.314890
535.864000	-0.169859
536.049000	0.103757
536.235000	-0.102765
536.420000	-0.097675
536.606000	-0.146282
536.791000	-0.266815
536.977000	-0.286227
537.163000	-0.054005
537.348000	-0.071356
537.534000	-0.022293
537.719000	-0.178983
537.905000	-0.308160
538.090000	-0.064879
538.276000	0.039219
538.462000	-0.042061
538.647000	-0.034446
538.833000	-0.165739
539.018000	-0.068218
539.204000	-0.068265
539.389000	-0.223232
539.575000	0.044208
539.761000	-0.025302
539.946000	-0.305661
540.132000	-0.176233
540.317000	-0.315795
540.503000	-0.191258
540.688000	-0.149784
540.874000	0.049536
541.060000	0.151413
541.245000	-0.048524
541.431000	-0.243951
541.616000	-0.209585
541.802000	-0.232453
541.987000	-0.127625
542.173000	-0.107349
542.359000	-0.242599
542.544000	-0.146759
542.730000	-0.301565
542.915000	-0.319006
543.101000	-0.135243
543.286000	-0.305192
543.472000	-0.374545
543.658000	-0.252479
543.843000	-0.212926
544.029000	-0.001485
544.214000	-0.158661
544.400000	-0.528826
544.585000	-0.336064
544.771000	-0.302956
544.957000	-0.153627
545.142000	-0.031523
545.328000	-0.063856
545.513000	-0.081208
545.699000	-0.010168
545.884000	-0.114086
546.070000	-0.135796
546.261000	-0.118901
546.451000	-0.245736
546.642000	-0.434002
546.833000	-0.299096
547.023000	-0.325278
547.214000	-0.291453
547.405000	-0.102550
547.595000	0.145778
547.786000	0.049221
547.977000	-0.160903
548.167000	-0.309450
548.358000	-0.301916
548.549000	0.092226
548.740000	-0.084186
548.930000	-0.388018
549.121000	-0.286082
549.312000	-0.345646
549.502000	-0.402837
549.693000	-0.260608
549.884000	-0.139018
550.074000	-0.076198
550.265000	-0.291690
550.456000	-0.153811
550.646000	-0.081301
550.837000	-0.133726
551.028000	-0.225152
551.218000	-0.090539
551.409000	-0.251273
551.600000	-0.228562
551.790000	-0.105180
551.981000	-0.330715
552.172000	-0.292135
552.362000	0.062919
552.553000	0.118833
552.744000	-0.091901
552.934000	-0.152220
553.125000	-0.254616
553.316000	-0.264068
553.506000	0.119390
553.697000	-0.029667
553.888000	-0.036610
554.079000	0.084713
554.269000	0.042749
554.460000	-0.188993
554.651000	-0.266551
554.841000	-0.473383
555.032000	-0.356580
555.223000	-0.237033
555.413000	-0.083661
555.604000	-0.084016
555.795000	-0.159742
555.985000	-0.067858
556.176000	-0.166859
556.367000	-0.412220
556.557000	-0.316529
556.748000	-0.253100
556.939000	-0.264552
557.129000	-0.363718
557.320000	-0.224239
557.511000	-0.209640
557.701000	-0.251784
557.892000	-0.205410
558.083000	0.036209
558.273000	-0.063201
558.464000	-0.297558
558.655000	-0.264190
558.845000	-0.159651
559.036000	-0.105487
559.227000	-0.157521
559.418000	-0.020584
559.608000	0.024360
559.799000	-0.315813
559.990000	-0.370523
560.180000	-0.248672
560.371000	-0.388066
560.562000	-0.356890
560.752000	-0.171191
560.943000	-0.317332
561.134000	-0.530286
561.324000	-0.304364
561.515000	-0.008667
561.706000	-0.196271
561.896000	-0.368993
562.087000	-0.256392
562.278000	-0.349744
562.468000	-0.481054
562.659000	-0.349135
562.850000	0.005368
563.040000	0.059043
563.231000	-0.415027
563.422000	-0.273991
563.612000	-0.367511
563.803000	-0.324970
563.994000	-0.334986
564.185000	-0.396826
564.375000	-0.152019
564.566000	-0.165701
564.757000	-0.205559
564.947000	-0.330308
565.138000	-0.183857
565.329000	-0.284785
565.519000	-0.464117
565.710000	-0.294138
565.901000	-0.089201
566.091000	-0.010825
566.282000	-0.150976
566.473000	-0.171126
566.663000	-0.202962
566.854000	-0.373090
567.045000	-0.212998
567.235000	-0.160685
567.426000	-0.153811
567.617000	-0.139674
567.807000	-0.182764
567.998000	-0.177872
568.189000	-0.288547
568.379000	-0.202170
568.570000	-0.100606
568.761000	-0.205955
568.951000	-0.241506
569.142000	-0.253057
569.333000	-0.275507
569.524000	-0.359479
569.714000	-0.464574
569.905000	-0.568725
570.096000	-0.177930
570.286000	-0.066216
570.477000	0.069594
570.668000	-0.103737
570.858000	-0.152599
571.049000	-0.280443
571.240000	-0.395741
571.430000	-0.160788
571.621000	-0.199886
571.812000	-0.054212
572.002000	-0.065302
572.193000	-0.271540
572.384000	-0.192432
572.574000	-0.124511
572.765000	-0.161548
572.956000	-0.230966
573.146000	-0.025604
573.337000	-0.211197
573.528000	-0.241353
573.718000	-0.029791
573.909000	0.054937
574.100000	-0.020988
574.290000	-0.180523
574.481000	-0.203791
574.672000	-0.165245
574.863000	-0.059440
575.053000	-0.228527
575.244000	-0.155337
575.435000	-0.255516
575.625000	-0.284141
575.816000	-0.321996
576.007000	-0.228604
576.197000	-0.182193
576.388000	-0.158190
576.579000	-0.037470
576.769000	-0.083946
576.960000	-0.375463
577.155000	-0.498743
577.350000	-0.165623
577.545000	-0.022476
577.740000	-0.238126
577.935000	0.119758
578.130000	-0.011922
578.326000	-0.343442
578.521000	-0.126516
578.716000	-0.076141
578.911000	-0.297804
579.106000	-0.191390
579.301000	-0.042607
579.496000	-0.245605
579.691000	-0.483206
579.886000	-0.297919
580.081000	-0.164757
580.276000	-0.129731
580.471000	-0.270210
580.666000	-0.397802
580.861000	-0.424077
581.057000	-0.422319
581.252000	-0.265817
581.447000	-0.311894
581.642000	-0.318516
581.837000	-0.311997
582.032000	-0.236217
582.227000	-0.043669
582.422000	-0.065682
582.617000	-0.217347
582.812000	-0.356394
583.007000	-0.366167
583.202000	-0.439110
583.397000	-0.154053
583.592000	0.081741
583.788000	-0.184858
583.983000	-0.222132
584.178000	-0.147001
584.373000	-0.276049
584.568000	-0.316587
584.763000	-0.324733
584.958000	-0.359984
585.153000	-0.285538
585.348000	-0.289300
585.543000	-0.146465
585.738000	-0.187554
585.933000	-0.411078
586.128000	-0.173818
586.324000	-0.148731
586.519000	-0.193779
586.714000	-0.062287
586.909000	0.022243
587.104000	-0.013232
587.299000	-0.192398
587.494000	-0.221636
587.689000	-0.227984
587.884000	-0.195071
588.079000	-0.260311
588.274000	-0.189504
588.469000	-0.199005
588.664000	-0.161670
588.859000	-0.150013
589.055000	-0.152170
589.250000	-0.221715
589.445000	-0.351157
589.640000	-0.327573
589.835000	-0.075161
590.030000	0.056404
590.225000	0.098277
590.420000	-0.121170
590.615000	-0.229170
590.810000	-0.250867
591.005000	-0.241874
591.200000	-0.306127
591.395000	-0.366214
591.591000	-0.227514
591.786000	-0.111363
591.981000	-0.236017
592.176000	-0.214396
592.371000	-0.208448
592.566000	-0.250479
592.761000	-0.017473
592.956000	-0.097973
593.151000	-0.037639
593.346000	-0.100312
593.541000	-0.084078
593.736000	-0.138943
593.931000	-0.280638
594.126000	-0.177710
594.322000	-0.141231
594.517000	-0.210080
594.712000	-0.368258
594.907000	-0.430604
595.102000	-0.280454
595.297000	-0.121512
595.492000	0.012850
595.687000	-0.205811
595.882000	-0.283618
596.077000	-0.204265
596.272000	-0.079273
596.467000	-0.056759
596.662000	-0.198337
596.857000	-0.133233
597.053000	-0.100454
597.248000	-0.075669
597.443000	-0.057188
597.638000	-0.142177
597.833000	-0.339105
598.028000	-0.187647
598.223000	-0.076076
598.418000	-0.186273
598.613000	-0.256844
598.808000	-0.109508
599.003000	-0.130428
599.198000	-0.290969
599.393000	-0.282553
599.589000	-0.160139
599.784000	-0.314859
599.979000	-0.250459
600.174000	-0.060093
600.369000	-0.246702
600.564000	-0.190356
600.759000	0.038452
600.954000	0.151661
601.149000	0.002735
601.344000	-0.308984
601.539000	-0.159628
601.734000	-0.262610
601.929000	-0.461728
602.124000	-0.383933
602.320000	-0.145415
602.515000	0.098017
602.710000	0.004879
602.905000	-0.336616
603.100000	-0.384780
603.295000	-0.309111
603.490000	-0.184466
603.685000	-0.133426
603.880000	-0.167677
604.075000	-0.338980
604.270000	-0.299029
604.465000	-0.176886
604.660000	-0.356840
604.856000	-0.206844
605.051000	-0.082940
605.246000	-0.155679
605.441000	-0.340087
605.636000	-0.410921
605.831000	-0.239876
606.026000	-0.314908
606.221000	-0.375526
606.416000	-0.225345
606.611000	-0.046752
606.806000	-0.046709
607.001000	0.117030
607.196000	-0.165462
607.391000	-0.379559
607.587000	-0.166029
607.782000	-0.179253
607.977000	-0.362633
608.172000	-0.008026
608.367000	0.026680
608.562000	-0.207999
608.757000	-0.238350
608.952000	-0.317307
609.147000	0.089832
609.342000	-0.014596
609.537000	-0.287431
609.732000	-0.261655
609.927000	-0.313495
610.122000	-0.265954
610.318000	-0.060593
610.513000	0.020354
610.708000	-0.227205
610.903000	-0.249394
611.098000	-0.256521
611.293000	-0.280777
611.488000	-0.230237
611.683000	-0.228438
611.878000	-0.226305
612.073000	-0.160243
612.268000	-0.151592
612.463000	-0.041355
612.658000	-0.125395
612.854000	-0.156685
613.049000	-0.187796
613.244000	-0.088073
613.439000	-0.034843
613.634000	-0.306361
613.829000	-0.139538
614.024000	-0.244715
614.219000	-0.273675
614.414000	0.036380
614.609000	-0.173677
614.804000	-0.348117
614.999000	-0.370137
615.194000	-0.341985
615.389000	-0.250456
615.585000	-0.392435
615.780000	-0.224147
615.975000	-0.251627
616.170000	-0.231519
616.365000	-0.048969
616.560000	0.039077
616.755000	-0.049165
616.950000	-0.123985
617.145000	-0.003857
617.340000	-0.212783
617.535000	-0.485281
617.730000	-0.199425
617.925000	-0.379683
618.120000	-0.432205
618.316000	-0.008448
618.511000	-0.122729
618.706000	-0.331872
618.901000	-0.237715
619.096000	-0.059137
619.291000	-0.162543
619.486000	-0.160752
619.681000	-0.486326
619.876000	-0.539182
620.071000	-0.354921
620.266000	-0.131249
620.461000	-0.048002
620.656000	-0.099203
620.852000	-0.122282
621.047000	-0.269119
621.242000	-0.423193
621.437000	-0.081012
621.632000	-0.006317
621.827000	-0.153852
622.022000	-0.414102
622.217000	-0.255430
622.412000	-0.065162
622.607000	-0.060516
622.802000	-0.279647
622.997000	-0.334996
623.192000	-0.190769
623.387000	-0.164800
623.583000	-0.442311
623.778000	-0.061054
623.973000	-0.075358
624.168000	-0.116045
624.363000	-0.108729
624.558000	0.003098
624.753000	-0.281409
624.948000	-0.109469
625.143000	-0.071195
625.338000	-0.107332
625.533000	-0.244274
625.728000	-0.191638
625.923000	0.036813
626.119000	-0.088507
626.314000	-0.344470
626.509000	-0.393956
626.704000	-0.288175
626.899000	-0.217958
627.094000	-0.335056
627.289000	-0.372408
627.484000	-0.277947
627.679000	-0.265962
627.874000	-0.261406
628.069000	0.005643
628.264000	-0.107121
628.459000	-0.222852
628.654000	-0.252566
628.850000	-0.399056
629.045000	-0.226556
629.240000	-0.258933
629.435000	-0.323654
629.630000	-0.195254
629.825000	-0.229981
630.020000	-0.196017
630.215000	-0.397546
630.410000	-0.369131
630.605000	-0.361929
630.800000	-0.261839
630.995000	-0.086974
631.190000	0.199190
631.385000	-0.011813
631.581000	-0.167928
631.776000	-0.089938
631.971000	-0.294949
632.166000	-0.186414
632.361000	-0.341025
632.556000	-0.267979
632.751000	-0.072998
632.946000	-0.207870
633.141000	-0.305480
633.336000	-0.224165
633.531000	-0.153066
633.726000	-0.181046
633.921000	-0.358711
634.117000	-0.549938
634.312000	-0.581403
634.507000	-0.481459
634.702000	-0.378986
634.897000	-0.353655
635.092000	-0.232674
635.287000	-0.155170
635.482000	-0.306723
635.677000	-0.153020
635.872000	-0.074824
636.067000	0.026915
636.262000	-0.106769
636.457000	-0.493012
636.652000	-0.446650
636.848000	-0.421404
637.043000	-0.381020
637.238000	-0.405778
637.433000	-0.453643
637.628000	-0.390218
637.823000	-0.194999
638.018000	-0.068129
638.213000	-0.203782
638.408000	-0.339597
638.603000	-0.449274
638.798000	-0.455261
638.993000	-0.335889
639.188000	-0.309274
639.383000	-0.355017
639.579000	0.030199
639.774000	-0.170715
639.969000	-0.377231
640.164000	-0.490957
640.359000	-0.437684
640.554000	-0.150034
640.749000	-0.153148
640.944000	-0.137240
641.139000	-0.158571
641.334000	-0.326642
641.529000	-0.698784
641.724000	-0.555751
641.919000	-0.393682
642.115000	-0.108271
642.310000	-0.119009
642.505000	-0.135302
642.700000	-0.181911
642.895000	-0.352072
643.090000	-0.228898
643.285000	-0.015590
643.480000	-0.056746
643.675000	-0.015639
643.870000	0.283968
644.065000	0.124770
644.260000	-0.235983
644.455000	-0.156420
644.650000	-0.300618
644.846000	-0.148515
645.041000	-0.458072
645.236000	-0.628230
645.431000	-0.498699
645.626000	-0.650942
645.821000	-0.420577
646.016000	-0.268877
646.211000	0.092766
646.406000	-0.046610
646.601000	-0.105118
646.796000	-0.224966
646.991000	-0.453627
647.186000	-0.342860
647.381000	-0.164131
647.577000	-0.141898
647.772000	-0.029949
647.967000	-0.133770
648.162000	-0.145104
648.357000	-0.167783
648.552000	-0.035678
648.747000	-0.049754
648.942000	-0.055411
649.137000	-0.157148
649.332000	-0.332505
649.527000	-0.304127
649.722000	-0.041496
649.917000	0.054641
650.113000	-0.250821
650.308000	-0.389932
650.503000	-0.330289
650.698000	-0.160938
650.893000	-0.274670
651.088000	-0.181054
651.283000	-0.090297
651.478000	-0.372301
651.673000	-0.189804
651.868000	-0.338453
652.063000	-0.099138
652.258000	0.083774
652.453000	0.223280
652.648000	-0.196174
652.844000	-0.227750
653.039000	-0.105051
653.234000	-0.500222
653.429000	-0.658879
653.624000	-0.374626
653.819000	-0.125533
654.014000	-0.246230
654.209000	-0.388032
654.404000	-0.143023
654.599000	-0.299180
654.794000	-0.301544
654.989000	0.081747
655.184000	-0.048296
655.380000	-0.438360
655.575000	-0.426850
655.770000	-0.366768
655.965000	-0.216294
656.160000	-0.335186
656.355000	-0.178711
656.550000	-0.156017
656.745000	-0.060181
656.940000	-0.217354
657.135000	-0.231845
657.330000	-0.243581
657.525000	-0.424313
657.720000	-0.197504
657.915000	-0.063248
658.111000	-0.176986
658.306000	0.053401
658.501000	-0.151211
658.696000	-0.425971
658.891000	-0.130746
659.086000	-0.247645
659.281000	-0.183621
659.476000	-0.374508
659.671000	-0.761555
659.866000	-0.483186
660.061000	-0.104805
660.256000	-0.028489
660.451000	-0.196075
660.646000	-0.355284
660.842000	-0.246658
661.037000	-0.376465
661.232000	-0.377005
661.427000	-0.238059
661.622000	-0.365578
661.817000	-0.409798
662.012000	-0.212374
662.207000	-0.360720
662.402000	-0.483458
662.597000	-0.278618
662.792000	-0.578410
662.987000	-0.601682
663.182000	-0.278721
663.378000	-0.311692
663.573000	-0.637746
663.768000	-0.597708
663.963000	-0.407553
664.158000	-0.374416
664.353000	0.129503
664.548000	0.308845
664.743000	-0.133795
664.938000	-0.448032
665.133000	-0.427751
665.328000	-0.020113
665.523000	-0.071287
665.718000	-0.272847
665.913000	-0.300371
666.109000	-0.267829
666.304000	-0.077576
666.499000	-0.255506
666.694000	-0.017244
666.889000	0.242895
667.084000	-0.087105
667.279000	-0.229613
667.474000	-0.211533
667.669000	-0.144729
667.864000	-0.229958
668.059000	-0.205969
668.254000	-0.163583
668.449000	-0.319303
668.644000	-0.289070
668.840000	-0.038716
669.035000	-0.313525
669.230000	-0.547394
669.425000	-0.189127
669.620000	-0.354626
669.815000	-0.402052
670.010000	-0.429340
670.205000	-0.266676
670.400000	-0.260061
670.595000	-0.183859
670.790000	-0.245783
670.985000	-0.261476
671.180000	-0.042340
671.376000	-0.326959
671.571000	-0.402086
671.766000	-0.387481
671.961000	-0.508860
672.156000	-0.493931
672.351000	-0.329053
672.546000	-0.367182
672.741000	-0.266769
672.936000	-0.164261
673.131000	0.300972
673.326000	-0.014730
673.521000	-0.406840
673.716000	-0.522889
673.911000	-0.670792
674.107000	-0.087112
674.302000	0.139413
674.497000	-0.150285
674.692000	-0.459372
674.887000	-0.495738
675.082000	-0.290542
675.277000	-0.075196
675.472000	-0.199198
675.667000	-0.326778
675.862000	-0.393798
676.057000	-0.301679
676.252000	-0.257624
676.447000	-0.399063
676.643000	-0.261241
676.838000	0.039405
677.033000	-0.207567
677.228000	0.074937
677.423000	0.020274
677.618000	-0.424975
677.813000	-0.589199
678.008000	-0.335503
678.203000	-0.193353
678.398000	-0.394874
678.593000	-0.242458
678.788000	-0.194400
678.983000	-0.493375
679.178000	-0.301640
679.374000	-0.425908
679.569000	-0.322324
679.764000	-0.398613
679.959000	-0.609696
680.154000	-0.527722
680.349000	-0.681133
680.544000	-0.571622
680.739000	-0.466560
680.934000	-0.618643
681.129000	-0.541051
681.324000	-0.581429
681.519000	-0.364166
681.714000	-0.420748
681.909000	-0.506472
682.105000	-0.654247
682.300000	-0.185984
682.495000	0.011013
682.690000	-0.019066
682.885000	-0.193156
683.080000	-0.415246
683.275000	-0.341566
683.470000	-0.005716
683.665000	0.159403
683.860000	0.321718
684.055000	0.098969
684.250000	-0.428382
684.445000	-0.441204
684.641000	0.099206
684.836000	-0.178731
685.031000	-0.223625
685.226000	-0.271644
685.421000	0.028369
685.616000	-0.197214
685.811000	-0.382698
686.006000	-0.122302
686.201000	-0.211654
686.396000	-0.532713
686.591000	-0.519981
686.786000	-0.068082
686.981000	-0.216706
687.176000	-0.095971
687.372000	-0.255632
687.567000	-0.064891
687.762000	-0.078988
687.957000	-0.221646
688.152000	-0.379032
688.347000	-0.278411
688.542000	-0.569762
688.737000	-0.888044
688.932000	-0.861502
689.127000	-0.504560
689.322000	-0.108101
689.517000	-0.336908
689.712000	-0.543009
689.908000	-0.486975
690.103000	-0.505636
690.298000	-0.367507
690.493000	-0.332937
690.688000	-0.550362
690.883000	-0.370193
691.078000	-0.013213
691.273000	0.015357
691.468000	-0.285198
691.663000	-0.318611
691.858000	-0.128257
692.053000	-0.171361
692.248000	-0.149959
692.443000	-0.142761
692.639000	-0.171886
692.834000	-0.045878
693.029000	0.445578
693.224000	0.462216
693.419000	-0.209699
693.614000	-0.373948
693.809000	-0.519976
694.004000	-0.579368
694.199000	-0.539070
694.394000	-0.244265
694.589000	-0.563468
694.784000	-0.494315
694.979000	-0.090646
695.174000	-0.322663
695.370000	0.059869
695.565000	-0.072533
695.760000	-0.331021
695.955000	0.071395
696.150000	0.049215
696.345000	-0.452086
696.540000	-0.177504
696.740000	-0.307533
696.940000	-0.151464
697.140000	-0.036284
697.340000	-0.249935
697.539000	-0.032618
697.739000	-0.197659
697.939000	-0.205302
698.139000	-0.506087
698.339000	-0.858711
698.539000	-0.628305
698.739000	-0.629994
698.939000	-0.530262
699.138000	-0.588169
699.338000	0.133753
699.538000	0.214135
699.738000	-0.311654
699.938000	-0.361548
700.138000	-0.457768
700.338000	-0.558809
700.538000	-0.302591
700.737000	-0.275587
700.937000	-0.715475
701.137000	-0.716574
701.337000	-0.083719
701.537000	-0.041372
701.737000	-0.307774
701.937000	-0.409102
702.137000	-0.366546
702.337000	-0.483473
702.536000	-0.639860
702.736000	-0.551168
702.936000	-0.696112
703.136000	-0.139478
703.336000	-0.119916
703.536000	-0.402265
703.736000	-0.784326
703.936000	-0.672959
704.135000	-0.606025
704.335000	-0.273809
704.535000	-0.510904
704.735000	-0.744073
704.935000	-0.211298
705.135000	-0.240004
705.335000	-0.411394
705.535000	-0.252874
705.735000	-0.221078
705.934000	-0.209063
706.134000	-0.478984
706.334000	-0.543765
706.534000	-0.687953
706.734000	-0.560926
706.934000	-0.568868
707.134000	-0.628828
707.334000	-0.426371
707.533000	-0.423155
707.733000	-0.446851
707.933000	-0.563428
708.133000	-0.318769
708.333000	-0.151570
708.533000	-0.321020
708.733000	-0.063228
708.933000	-0.272885
709.132000	-0.426884
709.332000	-0.484243
709.532000	-0.529911
709.732000	-0.359101
709.932000	-0.802302
710.132000	-0.749076
710.332000	-1.000067
710.532000	-0.384248
710.732000	-0.072015
710.931000	-0.418160
711.131000	-0.481109
711.331000	-0.350575
711.531000	-0.523273
711.731000	-0.541022
711.931000	-0.546035
712.131000	-0.537160
712.331000	-0.257771
712.530000	-0.401175
712.730000	-0.641017
712.930000	-0.480293
713.130000	-0.465456
713.330000	-0.614897
713.530000	-0.430393
713.730000	0.291905
713.930000	-0.106679
714.129000	-0.521230
714.329000	-0.614421
714.529000	-0.410273
714.729000	-0.140371
714.929000	-0.186196
715.129000	-0.507776
715.329000	-0.441427
715.529000	-0.426462
715.729000	0.290052
715.928000	0.055806
716.128000	-0.305236
716.328000	-0.184022
716.528000	-0.293844
716.728000	-0.285481
716.928000	-0.437330
717.128000	-0.265013
717.328000	-0.324134
717.527000	-0.519159
717.727000	-0.443431
717.927000	-0.381124
718.127000	-0.377091
718.327000	-0.799416
718.527000	-0.833070
718.727000	-0.382195
718.927000	-0.412767
719.127000	-0.637283
719.326000	-0.468234
719.526000	-0.088516
719.726000	-0.242967
719.926000	-0.729903
720.126000	-0.665494
720.326000	-0.398720
720.526000	-0.596686
720.726000	-0.538079
720.925000	-0.339806
721.125000	-0.696431
721.325000	-0.392593
721.525000	-0.324121
721.725000	-0.536790
721.925000	-0.525247
722.125000	-0.538346
722.325000	-0.029155
722.524000	-0.321684
722.724000	-0.811546
722.924000	-0.846456
723.124000	-0.624364
723.324000	-0.252718
723.524000	-0.169654
723.724000	-0.674404
723.924000	-0.575542
724.124000	-0.421563
724.323000	-0.139821
724.523000	-0.320383
724.723000	0.098486
724.923000	-0.095864
725.123000	-0.140189
725.323000	-0.051834
725.523000	-0.309378
725.723000	-0.615004
725.922000	-0.526916
726.122000	-0.189761
726.322000	-0.475459
726.522000	-0.658801
726.722000	0.032523
726.922000	-0.230180
727.122000	-0.342674
727.322000	0.041603
727.521000	-0.092827
727.721000	-0.506136
727.921000	-0.389389
728.121000	-0.447662
728.321000	-0.803857
728.521000	-0.494734
728.721000	-0.418777
728.921000	-0.075416
729.121000	0.693437
729.320000	0.019472
729.520000	-0.492282
729.720000	-0.692691
729.920000	-0.509116
730.120000	-0.344157
730.320000	-0.363230
730.520000	-0.641498
730.720000	-0.588635
730.919000	-0.501641
731.119000	-0.177293
731.319000	-0.677750
731.519000	-0.746479
731.719000	-0.347580
731.919000	-0.655564
732.119000	-1.098407
732.319000	-0.935677
732.519000	-0.326530
732.718000	-0.646055
732.918000	-0.595696
733.118000	-0.434778
733.318000	-0.087020
733.518000	-0.431411
733.718000	-0.977267
733.918000	-0.833283
734.118000	-0.502033
734.317000	-0.307502
734.517000	-0.610880
734.717000	-0.533983
734.917000	-0.026830
735.117000	-0.078691
735.317000	-0.224708
735.517000	0.176193
735.717000	0.352008
735.916000	-0.429770
736.116000	-0.618766
736.316000	-0.384411
736.516000	-0.270004
736.716000	-0.336842
736.916000	-0.936193
737.116000	-0.710010
737.316000	0.035086
737.516000	-0.046714
737.715000	-0.152759
737.915000	-0.702433
738.115000	-0.830410
738.315000	-0.482546
738.515000	-0.777634
738.715000	-0.572900
738.915000	0.123312
739.115000	-0.462330
739.314000	-0.608242
739.514000	-0.023007
739.714000	0.055455
739.914000	-0.254460
740.114000	-0.412732
740.314000	-0.072541
740.514000	0.307906
740.714000	-0.494417
740.913000	-0.867609
741.113000	-0.655083
741.313000	-0.272081
741.513000	-0.362632
741.713000	-0.368608
741.913000	-0.305024
742.113000	-0.399891
742.313000	-0.953843
742.513000	-0.592367
742.712000	-0.407467
742.912000	-0.751007
743.112000	-0.677533
743.312000	-1.013674
743.512000	-0.547917
743.712000	-0.350628
743.912000	-0.898179
744.112000	-1.185209
744.311000	-1.126864
744.511000	-0.651033
744.711000	-0.359038
744.911000	-0.823822
745.111000	-0.721546
745.311000	-0.179569
745.511000	-0.449284
745.711000	-0.677933
745.911000	-0.398355
746.110000	-0.809041
746.310000	-1.059476
746.510000	-0.754687
746.710000	-0.087499
746.910000	-0.113797
747.110000	-0.760046
747.310000	-1.024462
747.510000	-0.753711
747.709000	-0.363153
747.909000	-0.401182
748.109000	-0.062215
748.309000	-0.387374
748.509000	-0.745545
748.709000	-0.903647
748.909000	-0.587430
749.109000	-0.568482
749.308000	0.012383
749.508000	-0.333394
749.708000	-0.506475
749.908000	-0.138947
750.108000	-0.177318
750.308000	-0.896212
750.508000	-0.243856
750.708000	-0.746003
750.908000	-1.026535
751.107000	-0.322021
751.307000	0.171505
751.507000	-0.405541
751.707000	-0.300610
751.907000	-0.422549
752.107000	-0.457145
752.307000	-0.824743
752.507000	-0.654515
752.706000	-0.631842
752.906000	0.319098
753.106000	-0.562734
753.306000	-1.203473
753.506000	-0.110727
753.706000	-0.544602
753.906000	-0.279947
754.106000	0.024253
754.305000	-0.263739
754.505000	-0.230456
754.705000	-0.265875
754.905000	-0.403109
755.105000	-0.306634
755.305000	-0.930333
755.505000	-0.732303
755.705000	-0.446132
755.905000	-0.499304
756.104000	-1.035784
756.304000	-1.402671
756.504000	-1.538765
756.704000	-0.429040
756.904000	-0.085527
757.104000	-0.387522
757.304000	-0.498386
757.504000	-0.191329
757.703000	-0.594940
757.903000	-0.033425
758.103000	0.219177
758.303000	-0.286969
758.503000	-0.600858
758.703000	-0.708855
758.903000	-0.721021
759.103000	-0.414085
759.303000	-0.511584
759.502000	-0.507211
759.702000	-0.135883
759.902000	-0.641971
760.102000	-0.498764
760.302000	-0.500444
760.502000	-0.287786
760.702000	-0.264032
760.902000	-0.585492
761.101000	-0.872566
761.301000	-1.117407
761.501000	-0.801360
761.701000	-0.949298
761.901000	-0.702964
762.101000	-0.151703
762.301000	-0.403523
762.501000	-0.914053
762.700000	-0.967664
762.900000	-0.968010
763.100000	-0.734101
763.300000	-0.507339
763.500000	-0.675671
763.703000	-0.797316
763.905000	-1.036658
764.108000	-0.272724
764.311000	-0.466253
764.513000	-0.529308
764.716000	-0.418510
764.919000	-0.463051
765.121000	-0.940917
765.324000	-1.126568
765.527000	-0.936105
765.729000	-0.860024
765.932000	0.122517
766.135000	-0.010789
766.337000	-0.467955
766.540000	-0.545936
766.743000	-0.357464
766.945000	-0.971631
767.148000	-1.391096
767.351000	-1.127740
767.553000	-0.120476
767.756000	-0.481773
767.958000	-1.016971
768.161000	-0.766133
768.364000	-0.969777
768.566000	-1.173162
768.769000	-0.766696
768.972000	-0.499553
769.174000	-0.977977
769.377000	-1.367322
769.580000	-1.337409
769.782000	-0.614660
769.985000	-1.110185
770.188000	-1.996751
770.390000	-1.118329
770.593000	0.518412
770.796000	0.194135
770.998000	-0.495234
771.201000	-0.880678
771.404000	-0.443287
771.606000	-0.751975
771.809000	-0.624996
772.012000	-0.472490
772.214000	-1.395847
772.417000	-1.355863
772.620000	-0.224723
772.822000	-0.643105
773.025000	-1.039775
773.228000	-1.068651
773.430000	-0.888317
773.633000	-0.538596
773.836000	-0.519031
774.038000	-0.378348
774.241000	-0.507270
774.444000	-0.822163
774.646000	0.076909
774.849000	-0.352671
775.052000	-0.407174
775.254000	-0.271305
775.457000	-0.680717
775.659000	-0.634440
775.862000	-0.792040
776.065000	-0.765916
776.267000	-0.107838
776.470000	0.284944
776.673000	-0.446698
776.875000	-0.177957
777.078000	-0.156934
777.281000	-0.872315
777.483000	-0.262458
777.686000	-0.151353
777.889000	-0.388914
778.091000	-0.180063
778.294000	-1.131311
778.497000	-0.985653
778.699000	-0.874265
778.902000	-0.884286
779.105000	-0.595896
779.307000	0.107795
779.510000	-0.838161
779.713000	-0.352305
779.915000	-0.716183
780.118000	0.244182
780.321000	0.422676
780.523000	-0.476526
780.726000	-0.927004
780.929000	-1.005262
781.131000	-1.028285
781.334000	-1.563598
781.537000	-1.459935
781.739000	-0.379916
781.942000	-0.805899
782.145000	-1.448257
782.347000	-1.492711
782.550000	-1.181429
782.753000	-1.163457
782.955000	-0.998602
783.158000	-0.910405
783.361000	-0.700407
783.563000	-0.627323
783.766000	-0.650966
783.968000	1.016537
784.171000	0.880906
784.374000	-0.492554
784.576000	-0.462878
784.779000	-0.100980
784.982000	0.172730
785.184000	-0.571683
785.387000	-0.087339
785.590000	0.375283
785.792000	0.211944
785.995000	0.054755
786.198000	-0.125465
786.400000	-0.480589
786.603000	-0.496937
786.806000	-0.781937
787.008000	-0.502893
787.211000	-0.519841
787.414000	-1.227743
787.616000	-0.866556
787.819000	-0.723449
788.022000	-1.374650
788.224000	-0.802915
788.427000	-1.432561
788.630000	-0.806189
788.832000	-0.566874
789.035000	-1.141927
789.238000	-1.648494
789.440000	-1.355507
789.643000	-0.253195
789.846000	-0.828529
790.048000	-0.347938
790.251000	-0.130022
790.454000	-0.502728
790.656000	0.142718
790.859000	-0.669905
791.062000	-1.062617
791.264000	-0.248026
791.467000	-1.136948
791.669000	-1.870404
791.872000	-0.820067
792.075000	-1.261461
792.277000	-0.937756
792.480000	-0.641013
792.683000	-1.067021
792.885000	-1.329715
793.088000	-1.215218
793.291000	-1.433667
793.493000	-1.388324
793.696000	-0.413382
793.899000	-0.173987
794.101000	-0.753013
794.304000	-0.931916
794.507000	-0.642903
794.709000	-0.232152
794.912000	-0.622917
795.115000	-1.112341
795.317000	-0.867989
795.520000	-0.724717
795.723000	-0.826079
795.925000	-1.361285
796.128000	-1.564658
796.331000	-1.059431
796.533000	-1.458017
796.736000	-0.752159
796.939000	-0.562768
797.141000	-0.955979
797.344000	-0.381255
797.547000	-0.055919
797.749000	-0.164656
797.952000	-0.929945
798.155000	-1.254821
798.357000	-1.481629
798.560000	-1.396709
798.763000	-0.497282
798.965000	-0.657619
799.168000	-0.693491
799.371000	-0.439355
799.573000	-0.747775
799.776000	-1.517432
799.978000	-1.634096
800.181000	-0.795861
800.384000	0.716265
800.586000	0.243913
800.789000	-1.298296
800.992000	-1.245761
801.194000	-1.231256
801.397000	-1.502607
801.600000	-1.542469
801.802000	-0.075630
802.005000	-0.232845
802.208000	-1.729029
802.410000	-0.810033
802.613000	-0.664403
802.816000	-0.770622
803.018000	-1.451077
803.221000	-1.136018
803.424000	0.161868
803.626000	-0.263111
803.829000	-0.886053
804.032000	-0.032970
804.234000	0.840019
804.437000	-0.498311
804.640000	-0.578343
804.842000	-0.490073
805.045000	-1.374888
805.248000	-1.061736
805.450000	-1.042677
805.653000	-1.139977
805.856000	-1.120614
806.058000	0.029987
806.261000	-1.026513
806.464000	-0.954600
806.666000	-0.472120
806.869000	-0.851954
807.072000	-2.322175
807.274000	-2.351286
807.477000	-1.112925
807.679000	-0.873917
807.882000	-1.477141
808.085000	-1.189121
808.287000	-0.519182
808.490000	-1.426054
808.693000	-1.399023
808.895000	-1.016999
809.098000	-0.886444
809.301000	-0.767315
809.503000	-1.110216
809.706000	-0.177352
809.909000	0.040775
810.111000	-0.244042
810.314000	-0.606264
810.517000	-1.126052
810.719000	-1.456758
810.922000	-1.050970
811.125000	-0.111850
811.327000	-0.285550
811.530000	-0.682437
811.735000	-1.047652
811.940000	-1.426719
812.146000	-1.364821
812.351000	-0.617952
812.556000	-0.756186
812.761000	-1.334603
812.967000	-0.350043
813.172000	-0.300701
813.377000	-0.684813
813.582000	-0.026640
813.788000	-0.404353
813.993000	-1.344792
814.198000	-0.631888
814.403000	-1.563474
814.609000	-0.795136
814.814000	-0.437944
815.019000	0.363119
815.224000	0.022996
815.429000	-1.134276
815.635000	-0.673415
815.840000	-0.532646
816.045000	-0.524920
816.250000	-0.190171
816.456000	-1.484239
816.661000	-2.381376
816.866000	-1.607142
817.071000	-1.729127
817.277000	-2.483016
817.482000	-1.443609
817.687000	-0.864375
817.892000	-0.900425
818.097000	-0.351077
818.303000	0.003125
818.508000	0.439805
818.713000	7.546232
818.918000	4.137589
819.124000	0.317162
819.329000	-1.184685
819.534000	-1.230388
819.739000	-1.346475
819.945000	-1.193920
820.150000	-0.870431
820.355000	-0.872124
820.560000	-0.305540
820.766000	-0.690559
820.971000	-0.812625
821.176000	-2.181232
821.381000	-2.775810
821.586000	-1.831768
821.792000	-0.321708
821.997000	-0.582216
822.202000	-0.680463
822.407000	-1.270348
822.613000	-1.829347
822.818000	-1.265403
823.023000	-0.609930
823.228000	-1.010624
823.434000	-0.492247
823.639000	0.003311
823.844000	-0.870812
824.049000	-0.162775
824.255000	-0.185520
824.460000	-0.688622
824.665000	-1.114282
824.870000	-0.232134
825.075000	-0.479453
825.281000	-0.278177
825.486000	0.671811
825.691000	-1.687173
825.896000	-2.690891
826.102000	-0.940748
826.307000	-0.874620
826.512000	-1.164035
826.717000	-1.052814
826.923000	-1.044307
827.128000	-0.631189
827.333000	-1.645658
827.538000	-0.591019
827.744000	0.050248
827.949000	-1.256143
828.154000	-0.851361
828.359000	-0.335926
828.564000	-0.937548
828.770000	-1.118606
828.975000	0.181135
829.180000	-0.591375
829.385000	-2.161208
829.591000	-1.226690
829.796000	-0.584599
830.001000	-1.054769
830.206000	-1.745803
830.412000	-1.261915
830.617000	-1.047491
830.822000	-0.093494
831.027000	-0.953453
831.232000	-1.410213
831.438000	-1.272878
831.643000	-0.806374
831.848000	-0.931387
832.053000	-0.885540
832.259000	-0.960832
832.464000	-2.637615
832.669000	-2.224002
832.874000	-1.797930
833.080000	-1.943161
833.285000	-0.021251
833.490000	-0.108831
833.695000	-1.796832
833.901000	-1.235995
834.106000	-1.960083
834.311000	-1.817544
834.516000	-0.978412
834.721000	-1.163528
834.927000	-0.112068
835.132000	-0.654364
835.337000	0.727723
835.542000	-0.373177
835.748000	-2.046544
835.953000	-0.022138
836.158000	-0.466037
836.363000	-0.848002
836.569000	-0.550785
836.774000	-1.729355
836.979000	-1.983162
837.184000	-2.107493
837.390000	-2.031516
837.595000	-1.396657
837.800000	-0.891795
838.005000	-1.072134
838.210000	-1.328301
838.416000	-1.400998
838.621000	-1.079652
838.826000	-1.241450
839.031000	-1.261432
839.237000	-1.682140
839.442000	-2.426320
839.647000	-2.559805
839.852000	-1.827268
840.058000	-1.585117
840.263000	-1.648453
840.468000	-2.289582
840.673000	-1.108064
840.878000	-1.067361
841.084000	-2.081649
841.289000	-1.244834
841.494000	1.473973
841.699000	1.493029
841.905000	0.956745
842.110000	0.676055
842.315000	-1.814769
842.520000	-1.111807
842.726000	-1.430014
842.931000	-2.145432
843.136000	-1.006133
843.341000	-2.278865
843.547000	-1.505007
843.752000	-1.361433
843.957000	-2.295450
844.162000	-2.188599
844.367000	-1.382103
844.573000	-0.617735
844.778000	-0.542230
844.983000	-0.587993
845.188000	-0.457027
845.394000	-2.293758
845.599000	-1.988438
845.804000	-1.198335
846.009000	-0.661596
846.215000	-2.094370
846.420000	-1.932264
846.625000	-0.683927
846.830000	0.080800
847.036000	-1.159665
847.241000	-2.026098
847.446000	-0.518384
847.651000	-0.891295
847.856000	-2.380132
848.062000	-1.855662
848.267000	0.098518
848.472000	-1.564500
848.677000	-2.843477
848.883000	-0.764726
849.088000	0.655093
849.293000	-0.950685
849.498000	-1.617443
849.704000	-0.553417
849.909000	-0.970590
850.114000	-1.930049
850.319000	-0.956766
850.524000	-1.348772
850.730000	-0.870250
850.935000	-1.378143
851.140000	-0.761853
851.345000	-0.598631
851.551000	-0.387745
851.756000	-0.176000
851.961000	-1.413392
852.166000	-1.777145
852.372000	-1.252356
852.577000	-1.094861
852.782000	-1.640475
852.987000	-0.212638
853.193000	-0.331029
853.398000	-0.885809
853.603000	-2.235473
853.808000	-3.011972
854.013000	-1.775934
854.219000	-0.113853
854.424000	1.369827
854.629000	1.099307
854.834000	-1.147951
855.040000	-0.878171
855.245000	-0.599027
855.450000	-2.765631
855.655000	-3.937397
855.861000	-3.666576
856.066000	-2.363068
856.271000	-2.700730
856.476000	-0.364981
856.682000	-1.215978
856.887000	-4.044388
857.092000	-2.617434
857.297000	-0.261551
857.502000	-0.672101
857.708000	-1.066383
857.913000	-0.173566
858.118000	-0.915556
858.323000	-1.244251
858.529000	-1.332743
858.734000	-1.807816
858.939000	-1.485797
859.144000	-2.257222
859.350000	-2.932795
859.555000	-2.337828
859.760000	-0.767572
859.965000	0.023922
860.171000	-2.101315
860.376000	-1.052260
860.581000	-2.599543
860.786000	-4.796746
860.991000	-4.160795
861.197000	-2.714027
861.402000	-1.179388
861.607000	-1.481294
861.812000	-2.905396
862.018000	-2.783712
862.223000	-1.857402
862.428000	-1.160787
862.633000	0.063136
862.839000	-0.879816
863.044000	-1.838407
863.249000	-2.898234
863.454000	-1.001920
863.659000	-1.588112
863.865000	-2.455546
864.070000	-2.599091
864.275000	-3.133152
864.480000	-2.398555
864.686000	-3.910815
864.891000	-3.557708
865.096000	-1.127702
865.301000	-0.791067
865.507000	-0.615331
865.712000	-0.234491
865.917000	-1.950521
866.122000	-1.470408
866.328000	-4.000955
866.533000	-3.550986
866.738000	-0.685866
866.943000	-0.891262
867.148000	0.231759
867.354000	-2.329581
867.559000	-3.860326
867.764000	-1.905313
867.969000	-0.661993
868.175000	-2.075013
868.380000	-2.896829
868.585000	-3.695287
868.790000	-1.357726
868.996000	-1.641308
869.201000	-2.979884
869.406000	-4.098794
869.611000	-3.359079
869.817000	-2.653213
870.022000	1.394633
870.227000	-0.957016
870.432000	-2.618396
870.637000	-0.812049
870.843000	-1.553375
871.048000	-1.684178
871.253000	0.028194
871.458000	-1.257745
871.664000	-3.744575
871.869000	-3.700501
872.074000	-2.937005
872.279000	-1.763124
872.485000	-2.420158
872.690000	-2.341207
872.895000	-2.552965
873.100000	-3.162944
873.306000	-3.040938
873.511000	-1.243491
873.716000	0.166314
873.921000	-1.765600
874.126000	-2.542232
874.332000	-2.015671
874.537000	-0.755285
874.742000	-0.752847
874.947000	-1.426536
875.153000	-0.133023
875.358000	-1.349726
875.563000	-1.745772
875.768000	-4.592789
875.974000	-4.965137
876.179000	-1.267906
876.384000	-0.941908
876.589000	-2.650228
876.794000	-2.533405
877.000000	-3.351074
877.205000	-4.544689
877.410000	-1.894718
877.615000	-3.718136
877.821000	-5.278713
878.026000	-3.389062
878.231000	-3.218515
878.436000	-3.491161
878.642000	-3.001579
878.847000	-1.267539
879.052000	-0.115067
879.257000	-2.610272
879.463000	-3.776148
879.668000	-2.812563
879.873000	-0.613428
880.078000	-3.029842
880.283000	-4.716166
880.489000	-4.666079
880.694000	-4.385142
880.899000	-2.142091
881.104000	-1.160461
881.310000	0.896351
881.515000	-0.322113
881.720000	0.770354
881.925000	2.513294
882.131000	4.354433
882.336000	0.935303
882.541000	-3.056497
882.746000	-3.358637
882.952000	-4.110655
883.157000	-3.676563
883.362000	-3.708382
883.567000	-3.934147
883.772000	-4.103296
883.978000	-3.948469
884.183000	-2.200944
884.388000	-2.594070
884.593000	-4.906021
884.799000	-0.045358
885.004000	-0.722443
885.209000	-2.834167
885.414000	-1.826318
885.620000	-4.121957
885.825000	-1.113838
886.030000	-1.466736
886.235000	-3.179583
886.440000	-2.568727
886.646000	-4.579017
886.851000	-5.105002
887.056000	-1.393166
887.261000	-1.394282
887.467000	-3.822418
887.672000	-1.296056
887.877000	-2.442856
888.082000	-4.831704
888.288000	-5.299191
888.493000	-7.535094
888.698000	-6.484800
888.903000	-2.942580
889.109000	-3.369596
889.314000	0.182010
889.519000	-1.516736
889.724000	-0.077819
889.929000	-1.260991
890.135000	-1.900915
890.340000	-2.527234
890.545000	-3.808062
890.750000	-5.685284
890.956000	-3.829175
891.161000	-0.781111
891.366000	-3.453059
891.571000	-2.461338
891.777000	-1.933820
891.982000	0.097607
892.187000	-0.793114
892.392000	-0.080012
892.598000	-0.318894
892.803000	-1.223711
893.008000	-4.015923
893.213000	-3.795613
893.418000	-3.460342
893.624000	-3.841543
893.829000	-6.209189
894.034000	-3.365034
894.239000	-1.579296
894.445000	-3.800428
894.650000	-3.911474
894.855000	-4.529720
895.060000	-4.369074
895.266000	-3.595857
895.471000	-4.892882
895.676000	-1.568590
895.881000	-1.457273
896.087000	-2.799627
896.292000	-4.577026
896.497000	-0.590327
896.702000	-1.814190
896.907000	-4.336212
897.113000	0.104302
897.318000	0.578109
897.523000	0.167872
897.728000	-1.707436
897.934000	-2.716121
898.139000	-3.645253
898.344000	-1.177313
898.549000	-1.119496
898.755000	-3.608781
898.960000	-4.281212
899.165000	-5.584013
899.370000	-2.178373
899.575000	1.221299
899.781000	-2.781174
899.986000	-3.766437
900.191000	-2.138144
900.396000	-2.802334
900.602000	-2.319897
900.807000	-3.710582
901.012000	-2.587672
901.217000	-1.579456
901.423000	-4.135650
901.628000	-5.434588
901.833000	-1.111364
902.038000	-0.880247
902.244000	-4.361827
902.449000	-3.528562
902.654000	-3.253272
902.859000	-1.444438
903.064000	-0.093973
903.270000	-0.757981
903.475000	-5.163117
903.680000	-7.462643
903.885000	-5.973353
904.091000	-4.588866
904.296000	-6.418691
904.501000	-6.087539
904.706000	-5.141150
904.912000	-0.531599
905.117000	-2.385878
905.322000	-5.334009
905.527000	-5.127074
905.733000	-4.619951
905.938000	-4.538788
906.143000	-5.076056
906.348000	-6.046357
906.553000	-1.822801
906.759000	-0.774300
906.964000	-2.206619
907.169000	-2.975113
907.374000	-5.608778
907.580000	-4.842335
907.785000	-4.540050
907.990000	24.993700
908.195000	17.158660
908.401000	-0.222236
908.606000	-8.848116
908.811000	-10.915017
909.016000	-3.430138
909.221000	-2.224682
909.427000	-3.144915
909.632000	-5.799716
909.837000	-5.319051
910.042000	-6.339443
910.248000	-7.663685
910.453000	-2.748180
910.658000	-3.996218
910.863000	-4.114633
911.069000	-5.154857
911.274000	-1.805263
911.479000	-0.943516
911.684000	-8.002403
911.890000	-4.546809
912.095000	-3.840445
912.300000	-6.820375
912.506000	-5.051507
912.711000	-5.584455
912.917000	-3.322873
913.123000	-2.555376
913.328000	-3.777072
913.534000	-4.072498
913.740000	6.184423
913.946000	2.520454
914.151000	-5.025426
914.357000	-6.156321
914.563000	-2.144050
914.768000	-5.932452
914.974000	-7.654353
915.180000	-6.596879
915.385000	-5.168638
915.591000	-7.920402
915.797000	-3.805228
916.002000	-0.217690
916.208000	-3.075438
916.414000	-5.626419
916.620000	-7.460321
916.825000	-4.437730
917.031000	-4.206627
917.237000	-9.920040
917.442000	-6.362747
917.648000	-7.084168
917.854000	-7.558806
918.059000	-0.805962
918.265000	-0.419346
918.471000	-3.667274
918.676000	-7.721352
918.882000	-9.743727
919.088000	-8.823429
919.294000	-12.722641
919.499000	-8.251487
919.705000	-2.251668
919.911000	-2.956759
920.116000	-1.002235
920.322000	-7.443968
920.528000	-6.559237
920.733000	-9.984008
920.939000	-9.606812
921.145000	-7.654479
921.350000	-7.488397
921.556000	-4.459661
921.762000	-5.033090
921.968000	-6.326638
922.173000	-7.764100
922.379000	-9.999652
922.585000	-5.817359
922.790000	-7.466188
922.996000	-8.294937
923.202000	-9.007975
923.407000	-8.279568
923.613000	-6.213816
923.819000	-4.435032
924.024000	-3.959615
924.230000	-1.504792
924.436000	-4.747111
924.642000	5.816769
924.847000	1.525847
925.053000	-6.531676
925.259000	-10.196791
925.464000	-3.487318
925.670000	-5.060395
925.876000	-8.422931
926.081000	-8.942831
926.287000	-4.026120
926.493000	-2.886756
926.698000	-5.922567
926.904000	-3.054582
927.110000	-4.406309
927.316000	-4.181435
927.521000	1.125184
927.727000	-4.974078
927.933000	-8.443093
928.138000	-6.780256
928.344000	-12.718058
928.550000	-8.973842
928.755000	-2.625654
928.961000	-7.062970
929.167000	-7.106027
929.372000	-0.045524
929.578000	-1.424230
929.784000	-6.988155
929.990000	-12.665777
930.195000	-8.903492
930.401000	-6.554566
930.607000	-3.880349
930.812000	-4.801074
931.018000	-8.094071
931.224000	-13.247011
931.429000	-9.003026
931.635000	-12.516017
931.841000	-13.198003
932.046000	-7.485682
932.252000	-3.576331
932.458000	3.010772
932.664000	-0.266318
932.869000	-7.111640
933.075000	-10.424541
933.281000	-9.395686
933.486000	-2.884975
933.692000	-4.994708
933.898000	-10.459614
934.103000	-4.432919
934.309000	-7.764458
934.515000	-5.384186
934.720000	-3.908493
934.926000	-0.134812
935.132000	0.023810
935.338000	-1.099082
935.543000	-10.879962
935.749000	-15.088971
935.955000	-14.003158
936.160000	-9.991734
936.366000	-2.495131
936.572000	-4.514640
936.777000	-2.246698
936.983000	0.639666
937.189000	-4.919010
937.394000	-10.445365
937.600000	-0.242789
937.806000	4.465428
938.012000	-6.964920
938.217000	1.603574
938.423000	-1.465647
938.629000	-8.468375
938.834000	-15.487641
939.040000	-14.862162
939.246000	-10.703068
939.451000	-13.554774
939.657000	-7.515604
939.863000	-10.304921
940.068000	-3.281004
940.274000	-8.657636
940.480000	-3.347385
940.686000	-2.678876
940.891000	-6.894093
941.097000	21.048047
941.303000	6.254054
941.508000	-7.818215
941.714000	-5.300931
941.920000	-14.987409
942.125000	-4.637465
942.331000	-3.895277
942.537000	1.122997
942.742000	1.354680
942.948000	-9.550220
943.154000	-12.509067
943.360000	-25.698382
943.565000	-10.639358
943.771000	3.209697
943.977000	4.426825
944.182000	-15.259320
944.388000	-15.438497
944.594000	-0.080113
944.799000	4.890231
945.005000	-5.194838
945.211000	1.630341
945.416000	-0.775651
945.622000	-17.490650
945.828000	-17.210103
946.034000	-5.687416
946.239000	-1.642612
946.445000	-7.755797
946.651000	-17.001374
946.856000	-14.688873
947.062000	-1.855934
947.268000	-1.035658
947.473000	-16.578099
947.679000	-18.122067
947.885000	-4.426972
948.090000	0.521877
948.296000	13.736614
948.502000	-1.788144
948.708000	-10.761189
948.913000	-15.110513
949.119000	-3.934491
949.325000	-9.649967
949.530000	-22.953885
949.736000	-27.333408
949.942000	-15.136735
950.147000	-16.116733
950.353000	-13.269360
950.559000	-7.976661
950.764000	10.863380
950.970000	6.301875
951.176000	-10.101145
951.382000	-15.819689
951.587000	-3.088105
951.793000	1.088637
951.999000	1.978234
952.204000	-14.583588
952.410000	-29.204884
952.616000	-10.874596
952.821000	-6.939265
953.027000	-15.365406
953.233000	-19.067688
953.438000	-17.081490
953.644000	2.693148
953.850000	-5.535925
954.056000	-12.302537
954.261000	-10.489070
954.467000	-1.853757
954.673000	3.146145
954.878000	-7.953361
955.084000	-5.656983
955.290000	-19.981425
955.495000	-24.001348
955.701000	-19.850100
955.907000	2.122647
956.112000	-0.929620
956.318000	4.029204
956.524000	6.440317
956.730000	-10.130322
956.935000	-16.396429
957.141000	-18.959316
957.347000	-3.813416
957.552000	-8.660387
957.758000	-25.370803
957.964000	-33.849310
958.169000	-0.681138
958.375000	0.770471
958.581000	-11.496645
958.786000	-27.659229
958.992000	-32.002082
959.198000	-9.214482
959.404000	-1.592301
959.609000	-9.972699
959.815000	-16.478921
960.021000	-0.257612
960.226000	-4.693358
960.432000	-28.350354
960.638000	-19.557604
960.843000	-16.844370
961.049000	-18.934575
961.255000	-2.931803
961.460000	-14.638227
961.666000	-36.081118
961.872000	-25.847676
962.078000	-20.922723
962.283000	-30.940038
962.489000	-32.711335
962.695000	-19.418987
962.900000	-16.182255
963.106000	-17.833935
963.312000	-17.899462
963.517000	-22.708894
963.723000	-29.243230
963.929000	-3.657062
964.134000	8.460377
964.340000	-17.297116
964.546000	-22.420510
964.752000	-25.134019
964.957000	-30.396436
965.163000	-4.156400
965.369000	-8.652896
965.574000	-6.767647
965.780000	-8.929251
966.000000	-20.264518
966.220000	-13.150336
966.440000	-13.947289
966.661000	-2.872187
966.881000	-21.598434
967.101000	-38.375234
967.321000	-38.177905
967.541000	-17.792225
967.761000	-19.502752
967.981000	-12.347676
968.202000	-14.755132
968.422000	-4.770734
968.642000	-1.290105
968.862000	-1.513645
969.082000	-13.802005
969.302000	-6.890542
969.522000	-10.188957
969.743000	1.624287
969.963000	-14.940912
970.183000	-28.296989
970.403000	-29.104185
970.623000	-26.455224
970.843000	0.888516
971.063000	-0.146874
971.284000	-22.312780
971.504000	-31.977375
971.724000	-9.370904
971.944000	-23.575071
972.164000	-40.575453
972.384000	-30.362294
972.604000	-44.805239
972.825000	-50.190981
973.045000	-32.682727
973.265000	19.663146
973.485000	5.738245
973.705000	-12.475964
973.925000	-14.980000
974.145000	-52.988970
974.365000	-21.507795
974.586000	-17.817508
974.806000	-34.693277
975.026000	-6.154487
975.246000	-23.571224
975.466000	-36.482453
975.686000	-17.565881
975.906000	-23.547752
976.127000	-49.318654
976.347000	-46.438085
976.567000	-13.619636
976.787000	-14.910454
977.007000	-25.858316
977.227000	-24.007060
977.447000	-29.846696
977.668000	-50.223458
977.888000	-34.167063
978.108000	-32.200810
978.328000	-22.507982
978.548000	9.084885
978.768000	13.031467
978.988000	-3.297778
979.209000	-20.398277
979.429000	-21.080049
979.649000	-7.089829
979.869000	-29.702190
980.089000	-43.688319
980.309000	-48.954830
980.529000	-57.330781
980.750000	-37.340083
980.970000	-58.615668
981.190000	-37.162061
981.410000	-30.045374
981.630000	-39.972226
981.850000	-27.352861
982.070000	-20.543294
982.291000	-50.542632
982.511000	-48.925637
982.731000	-9.267991
982.951000	-28.794150
983.171000	-37.524982
983.391000	-31.912784
983.611000	-0.556971
983.832000	-25.006206
984.052000	-52.160480
984.272000	-32.631710
984.492000	-29.122020
984.712000	-45.000244
984.932000	-61.572990
985.152000	-57.581416
985.373000	-43.030425
985.593000	-21.837361
985.813000	-36.968924
986.033000	-46.542052
986.253000	-0.634469
986.473000	5.784736
986.693000	-26.565747
986.914000	-41.189806
987.134000	0.114728
987.354000	-29.451732
987.574000	199.549028
987.794000	119.587841
988.014000	-41.382591
988.234000	-32.190395
988.455000	-18.466734
988.675000	-16.898406
988.895000	-32.096840
989.115000	-56.849873
989.335000	-26.519618
989.555000	-4.095333
989.775000	-54.861173
989.995000	-52.541915
990.216000	-35.148931
990.436000	-27.114990
990.656000	6.540586
990.876000	-34.685006
991.096000	-25.880704
991.316000	6.014270
991.536000	-25.075395
991.757000	-38.214749
991.977000	-85.215224
992.197000	-26.428283
992.417000	-44.866410
992.637000	-93.406129
992.857000	-94.525560
993.077000	-80.285248
993.298000	-38.929161
993.518000	-48.782082
993.738000	-88.884968
993.958000	-41.469230
994.178000	-40.105468
994.398000	-37.396889
994.618000	-88.314739
994.839000	-137.389479
995.059000	-39.443278
995.279000	21.401639
995.499000	-31.025048
995.719000	-13.192551
995.939000	-26.608777
996.159000	-30.799866
996.380000	-24.076833
996.600000	-80.259099
996.820000	-39.813393
997.040000	0.789323
997.260000	-59.695928
997.480000	-45.317364
997.700000	-110.745340
997.921000	-79.068041
998.141000	6.923586
998.361000	-16.521554
998.581000	-66.128612
998.801000	-100.719731
999.021000	-63.953411
999.241000	-34.587880
999.462000	-72.108287
999.682000	-125.620955
999.902000	-70.730635
1000.122000	-84.910061
1000.342000	-138.999622
1000.562000	-64.053599
1000.782000	-76.380436
1001.003000	-1092.403694
