Wavelength	Irradiance
(nm)	(mW/cm2/nm)

294.396000	0.000000
294.577000	0.000000
294.757000	-0.000000
294.938000	-0.000000
295.118000	0.000000
295.299000	0.000000
295.479000	-0.000000
295.660000	-0.000000
295.840000	-0.000000
296.021000	-0.000000
296.202000	-0.000000
296.382000	-0.000000
296.563000	-0.000000
296.743000	-0.000000
296.924000	0.000000
297.104000	-0.000000
297.285000	-0.000000
297.465000	-0.000000
297.646000	-0.000000
297.826000	-0.000000
298.007000	0.000000
298.187000	0.000000
298.368000	-0.000000
298.548000	0.000000
298.729000	0.000000
298.909000	-0.000000
299.090000	-0.000000
299.270000	-0.000000
299.451000	-0.000000
299.631000	-0.000000
299.812000	-0.000000
299.992000	0.000000
300.173000	0.000000
300.353000	-0.000000
300.534000	-0.000000
300.714000	0.000000
300.895000	0.000000
301.075000	-0.000000
301.256000	0.000000
301.436000	-0.000000
301.617000	-0.000000
301.797000	-0.000000
301.978000	-0.000000
302.159000	0.000000
302.339000	0.000000
302.520000	-0.000000
302.700000	-0.000000
302.881000	0.000000
303.061000	0.000000
303.242000	0.000000
303.422000	0.000000
303.603000	-0.000000
303.783000	-0.000000
303.964000	-0.000000
304.144000	-0.000000
304.325000	-0.000000
304.505000	-0.000000
304.686000	-0.000000
304.866000	0.000000
305.047000	-0.000000
305.227000	-0.000000
305.408000	-0.000000
305.588000	-0.000000
305.769000	-0.000000
305.949000	-0.000000
306.130000	-0.000000
306.310000	-0.000000
306.491000	-0.000000
306.671000	0.000000
306.852000	-0.000000
307.032000	-0.000000
307.213000	-0.000000
307.393000	-0.000000
307.574000	0.000000
307.755000	0.000000
307.935000	0.000000
308.116000	-0.000000
308.296000	-0.000000
308.477000	-0.000000
308.657000	0.000000
308.838000	0.000000
309.018000	0.000000
309.199000	-0.000000
309.379000	-0.000000
309.560000	0.000000
309.740000	-0.000000
309.921000	-0.000000
310.101000	-0.000000
310.282000	-0.000000
310.462000	-0.000000
310.643000	-0.000000
310.823000	-0.000000
311.004000	-0.000000
311.184000	-0.000000
311.365000	0.000000
311.545000	0.000000
311.726000	0.000000
311.906000	-0.000000
312.087000	0.000000
312.267000	-0.000000
312.448000	-0.000000
312.628000	-0.000000
312.809000	-0.000000
312.989000	-0.000000
313.170000	-0.000000
313.344000	-0.000000
313.518000	-0.000000
313.691000	-0.000000
313.865000	-0.000000
314.039000	-0.000000
314.213000	-0.000000
314.387000	-0.000000
314.560000	-0.000000
314.734000	-0.000000
314.908000	-0.000000
315.082000	-0.000000
315.255000	0.000000
315.429000	0.000000
315.603000	-0.000000
315.777000	-0.000000
315.951000	0.000000
316.124000	-0.000000
316.298000	-0.000000
316.472000	-0.000000
316.646000	-0.000000
316.820000	-0.000000
316.993000	-0.000000
317.167000	-0.000000
317.341000	-0.000000
317.515000	-0.000000
317.688000	-0.000000
317.862000	-0.000000
318.036000	-0.000000
318.210000	-0.000000
318.384000	-0.000000
318.557000	-0.000000
318.731000	-0.000000
318.905000	-0.000000
319.079000	-0.000000
319.253000	-0.000000
319.426000	0.000000
319.600000	0.000000
319.774000	-0.000000
319.948000	-0.000000
320.122000	0.000000
320.295000	0.000000
320.469000	-0.000000
320.643000	-0.000000
320.817000	-0.000000
320.990000	-0.000000
321.164000	-0.000000
321.338000	-0.000000
321.512000	-0.000000
321.686000	-0.000000
321.859000	-0.000000
322.033000	-0.000000
322.207000	-0.000000
322.381000	-0.000000
322.555000	0.000000
322.728000	-0.000000
322.902000	-0.000000
323.076000	-0.000000
323.250000	-0.000000
323.423000	-0.000000
323.597000	-0.000000
323.771000	-0.000000
323.945000	-0.000000
324.119000	-0.000000
324.292000	0.000000
324.466000	-0.000000
324.640000	0.000000
324.814000	0.000000
324.988000	-0.000000
325.161000	-0.000000
325.335000	-0.000000
325.509000	-0.000000
325.683000	-0.000000
325.856000	-0.000000
326.030000	-0.000000
326.204000	-0.000000
326.378000	-0.000000
326.552000	-0.000000
326.725000	-0.000000
326.899000	-0.000000
327.073000	-0.000000
327.247000	-0.000000
327.421000	0.000000
327.594000	-0.000000
327.768000	-0.000000
327.942000	-0.000000
328.116000	0.000000
328.289000	0.000000
328.463000	-0.000000
328.637000	0.000000
328.811000	-0.000000
328.985000	-0.000000
329.158000	-0.000000
329.332000	-0.000000
329.506000	0.000000
329.680000	-0.000000
329.854000	-0.000000
330.027000	-0.000000
330.201000	0.000000
330.375000	0.000000
330.549000	0.000000
330.723000	-0.000000
330.896000	-0.000000
331.070000	-0.000000
331.244000	-0.000000
331.418000	-0.000000
331.591000	-0.000000
331.765000	-0.000000
331.939000	-0.000000
332.113000	-0.000000
332.287000	-0.000000
332.460000	0.000000
332.634000	0.000000
332.808000	-0.000000
332.982000	-0.000000
333.156000	-0.000000
333.329000	-0.000000
333.503000	-0.000000
333.677000	-0.000000
333.851000	-0.000000
334.024000	-0.000000
334.198000	-0.000000
334.372000	-0.000000
334.546000	-0.000000
334.720000	-0.000000
334.893000	-0.000000
335.067000	-0.000000
335.241000	-0.000000
335.415000	-0.000000
335.589000	-0.000000
335.762000	-0.000000
335.936000	-0.000000
336.110000	-0.000000
336.284000	-0.000000
336.458000	-0.000000
336.631000	-0.000000
336.805000	-0.000000
336.979000	-0.000000
337.153000	-0.000000
337.326000	-0.000000
337.500000	-0.000000
337.674000	-0.000000
337.848000	-0.000000
338.022000	-0.000000
338.195000	-0.000000
338.369000	-0.000000
338.543000	-0.000000
338.717000	-0.000000
338.891000	0.000000
339.064000	0.000000
339.238000	-0.000000
339.412000	-0.000000
339.586000	-0.000000
339.759000	-0.000000
339.933000	-0.000000
340.107000	0.000000
340.281000	-0.000000
340.455000	-0.000000
340.628000	-0.000000
340.802000	-0.000000
340.976000	-0.000000
341.150000	-0.000000
341.324000	-0.000000
341.497000	-0.000000
341.671000	-0.000000
341.845000	-0.000000
342.019000	-0.000000
342.192000	-0.000000
342.366000	-0.000000
342.540000	-0.000000
342.714000	-0.000000
342.888000	-0.000000
343.061000	-0.000000
343.235000	-0.000000
343.409000	-0.000000
343.583000	-0.000000
343.757000	-0.000000
343.930000	-0.000000
344.104000	-0.000000
344.278000	0.000000
344.452000	0.000000
344.626000	-0.000000
344.799000	-0.000000
344.973000	-0.000000
345.147000	-0.000000
345.321000	-0.000000
345.494000	-0.000000
345.668000	0.000000
345.842000	0.000000
346.016000	-0.000000
346.190000	-0.000000
346.363000	0.000000
346.537000	-0.000000
346.711000	-0.000000
346.885000	-0.000000
347.059000	-0.000000
347.232000	0.000000
347.406000	0.000000
347.580000	-0.000000
347.754000	-0.000000
347.927000	-0.000000
348.101000	0.000000
348.275000	-0.000000
348.449000	-0.000000
348.623000	-0.000000
348.796000	-0.000000
348.970000	0.000000
349.144000	-0.000000
349.318000	-0.000000
349.492000	-0.000000
349.665000	-0.000000
349.839000	-0.000000
350.013000	-0.000000
350.187000	-0.000000
350.361000	-0.000000
350.534000	-0.000000
350.708000	-0.000000
350.882000	-0.000000
351.056000	0.000000
351.229000	-0.000000
351.403000	-0.000000
351.577000	-0.000000
351.751000	-0.000000
351.925000	-0.000000
352.098000	-0.000000
352.272000	-0.000000
352.446000	-0.000000
352.620000	-0.000000
352.794000	-0.000000
352.967000	-0.000000
353.141000	0.000000
353.315000	0.000000
353.489000	-0.000000
353.662000	-0.000000
353.836000	-0.000000
354.010000	-0.000000
354.184000	-0.000000
354.358000	-0.000000
354.531000	-0.000000
354.705000	-0.000000
354.879000	-0.000000
355.053000	-0.000000
355.227000	-0.000000
355.400000	-0.000000
355.574000	-0.000000
355.748000	0.000000
355.922000	-0.000000
356.095000	-0.000000
356.269000	-0.000000
356.443000	-0.000000
356.617000	-0.000000
356.791000	-0.000000
356.964000	-0.000000
357.138000	-0.000000
357.312000	-0.000000
357.486000	-0.000000
357.660000	-0.000000
357.833000	-0.000000
358.007000	-0.000000
358.181000	-0.000000
358.355000	-0.000000
358.529000	-0.000000
358.702000	-0.000000
358.876000	-0.000000
359.050000	-0.000000
359.224000	-0.000000
359.397000	-0.000000
359.571000	-0.000000
359.745000	-0.000000
359.919000	-0.000000
360.093000	-0.129558
360.266000	-0.046322
360.440000	0.073326
360.614000	0.090169
360.788000	-0.027701
360.962000	-0.236455
361.135000	-0.114748
361.309000	-0.242314
361.483000	-0.394798
361.657000	-0.332756
361.830000	-0.289119
362.004000	-0.093726
362.178000	-0.386524
362.352000	-0.278308
362.526000	-0.074003
362.699000	-0.052766
362.873000	-0.431975
363.047000	-0.397640
363.221000	-0.396636
363.395000	-0.260598
363.568000	-0.283542
363.742000	-0.304310
363.916000	-0.262146
364.090000	-0.331332
364.263000	-0.315752
364.437000	-0.402832
364.611000	-0.088609
364.785000	-0.095178
364.959000	-0.306783
365.132000	-0.286929
365.306000	-0.342371
365.480000	-0.199053
365.656000	-0.226221
365.831000	-0.198458
366.007000	-0.175410
366.183000	-0.133321
366.358000	-0.335626
366.534000	-0.233930
366.710000	-0.434112
366.886000	-0.416425
367.061000	-0.159637
367.237000	-0.026843
367.413000	-0.184586
367.588000	-0.355072
367.764000	-0.373140
367.940000	-0.428463
368.115000	-0.336278
368.291000	-0.386609
368.467000	-0.284007
368.643000	0.064441
368.818000	-0.263156
368.994000	-0.407827
369.170000	-0.278776
369.345000	-0.260397
369.521000	-0.337481
369.697000	-0.186253
369.872000	-0.269941
370.048000	-0.398105
370.224000	-0.306908
370.399000	-0.585650
370.575000	-0.517321
370.751000	-0.569277
370.927000	-0.473501
371.102000	-0.434068
371.278000	-0.418267
371.454000	-0.371276
371.629000	-0.112131
371.805000	-0.055199
371.981000	0.037236
372.156000	0.194667
372.332000	0.036194
372.508000	-0.022746
372.683000	-0.124899
372.859000	-0.212539
373.035000	-0.244961
373.211000	0.158367
373.386000	-0.116300
373.562000	-0.525791
373.738000	-0.541591
373.913000	-0.664495
374.089000	-0.508181
374.265000	-0.099642
374.440000	-0.070147
374.616000	-0.025904
374.792000	-0.263798
374.968000	0.079469
375.143000	-0.133510
375.319000	-0.335212
375.495000	-0.422508
375.670000	-0.275767
375.846000	-0.164047
376.022000	-0.344150
376.197000	-0.281436
376.373000	-0.423964
376.549000	-0.414507
376.724000	-0.481086
376.900000	-0.456336
377.076000	-0.222792
377.252000	0.095845
377.427000	0.128074
377.603000	-0.283842
377.779000	-0.299958
377.954000	-0.442572
378.130000	-0.323537
378.306000	-0.231374
378.481000	-0.198787
378.657000	-0.258104
378.833000	-0.323135
379.009000	-0.157732
379.184000	-0.024848
379.360000	-0.158263
379.536000	-0.217698
379.711000	-0.291149
379.887000	-0.360968
380.063000	-0.328335
380.238000	-0.404474
380.414000	-0.134755
380.590000	-0.371654
380.765000	-0.391615
380.941000	-0.175877
381.117000	-0.125492
381.293000	-0.197628
381.468000	-0.371923
381.644000	-0.317761
381.820000	-0.185522
381.995000	-0.032535
382.171000	0.199297
382.347000	0.080570
382.522000	-0.336182
382.698000	-0.006252
382.874000	-0.003642
383.050000	-0.422612
383.225000	-0.063787
383.401000	0.185169
383.577000	-0.170107
383.752000	-0.298939
383.928000	-0.236237
384.104000	-0.202415
384.279000	-0.329850
384.455000	-0.212314
384.631000	-0.261651
384.806000	-0.486580
384.982000	-0.259374
385.158000	-0.256402
385.334000	-0.137017
385.509000	-0.189119
385.685000	-0.456424
385.861000	-0.304662
386.036000	-0.506969
386.212000	-0.646944
386.388000	-0.384956
386.563000	-0.328022
386.739000	-0.372798
386.915000	-0.586557
387.090000	-0.305037
387.266000	-0.104605
387.442000	-0.013969
387.618000	-0.137043
387.793000	-0.472127
387.969000	-0.611588
388.145000	-0.514387
388.320000	-0.435082
388.496000	-0.407999
388.672000	-0.670139
388.847000	-0.266638
389.023000	-0.178389
389.199000	-0.476464
389.375000	-0.242986
389.550000	-0.392805
389.726000	-0.259493
389.902000	-0.424237
390.077000	-0.284134
390.253000	-0.238066
390.429000	-0.283049
390.604000	-0.204706
390.780000	-0.216356
390.956000	-0.363002
391.131000	-0.442598
391.307000	-0.016069
391.483000	-0.221872
391.659000	-0.436636
391.834000	-0.151439
392.010000	-0.243878
392.186000	-0.344393
392.361000	-0.327553
392.537000	-0.483618
392.713000	-0.092359
392.888000	0.224068
393.064000	-0.085381
393.240000	-0.367401
393.416000	-0.377445
393.591000	-0.442128
393.767000	-0.550437
393.943000	-0.423236
394.118000	-0.054686
394.294000	0.113691
394.470000	-0.039908
394.645000	0.023287
394.821000	0.191767
394.997000	-0.158567
395.172000	-0.184261
395.348000	-0.288535
395.524000	-0.592820
395.700000	-0.446186
395.875000	-0.194879
396.051000	-0.216143
396.227000	-0.268339
396.402000	-0.320617
396.578000	-0.186951
396.754000	-0.310856
396.929000	-0.321425
397.105000	-0.079758
397.281000	-0.191933
397.457000	-0.348472
397.632000	-0.321248
397.808000	-0.579275
397.984000	-0.699818
398.159000	-0.577221
398.335000	-0.373986
398.511000	0.112890
398.686000	-0.124144
398.862000	-0.422155
399.038000	-0.540769
399.213000	-0.241547
399.389000	-0.504507
399.565000	-0.233242
399.741000	-0.026720
399.916000	-0.062476
400.092000	0.185099
400.268000	-0.194787
400.443000	-0.357822
400.619000	0.017928
400.795000	-0.086184
400.970000	-0.299988
401.146000	-0.366836
401.322000	-0.100121
401.497000	0.369515
401.673000	0.065461
401.849000	-0.301163
402.025000	-0.137468
402.200000	-0.216909
402.376000	-0.350563
402.552000	0.088592
402.727000	-0.057222
402.903000	-0.440896
403.079000	-0.382648
403.254000	-0.068908
403.430000	-0.077760
403.606000	-0.206149
403.782000	-0.219865
403.957000	-0.435374
404.133000	-0.539535
404.309000	-0.333361
404.484000	-0.161887
404.660000	-0.162339
404.841000	-0.286490
405.023000	-0.038176
405.204000	-0.117669
405.385000	-0.413725
405.566000	-0.414200
405.748000	-0.253377
405.929000	-0.034142
406.110000	-0.061870
406.292000	-0.228304
406.473000	-0.156765
406.654000	-0.378383
406.835000	-0.232235
407.017000	-0.270926
407.198000	-0.214967
407.379000	-0.207489
407.560000	-0.261094
407.742000	-0.290962
407.923000	-0.224916
408.104000	-0.358528
408.286000	-0.216442
408.467000	-0.151181
408.648000	-0.364975
408.829000	-0.483844
409.011000	-0.396535
409.192000	-0.530464
409.373000	-0.311727
409.555000	-0.167953
409.736000	-0.155306
409.917000	-0.280775
410.098000	-0.294999
410.280000	-0.171978
410.461000	-0.198994
410.642000	-0.213048
410.823000	0.037851
411.005000	-0.014612
411.186000	-0.265930
411.367000	-0.359909
411.549000	-0.350510
411.730000	-0.103707
411.911000	0.037855
412.092000	-0.194169
412.274000	-0.276197
412.455000	-0.224762
412.636000	-0.200071
412.818000	-0.332277
412.999000	-0.394961
413.180000	-0.343286
413.361000	-0.346825
413.543000	-0.403442
413.724000	-0.445027
413.905000	-0.480932
414.087000	-0.517903
414.268000	-0.494441
414.449000	-0.426317
414.630000	-0.477167
414.812000	-0.592237
414.993000	-0.250878
415.174000	-0.109341
415.355000	-0.328267
415.537000	-0.544099
415.718000	-0.249469
415.899000	-0.335027
416.081000	-0.461467
416.262000	-0.247193
416.443000	-0.367228
416.624000	-0.329172
416.806000	-0.220162
416.987000	-0.128677
417.168000	-0.202372
417.350000	-0.355600
417.531000	-0.444876
417.712000	-0.451369
417.893000	-0.168385
418.075000	-0.050716
418.256000	-0.294313
418.437000	-0.197290
418.618000	-0.079154
418.800000	-0.063831
418.981000	-0.314115
419.162000	-0.241261
419.344000	-0.041914
419.525000	-0.139890
419.706000	-0.266173
419.887000	-0.118062
420.069000	0.055500
420.250000	-0.072391
420.431000	-0.139241
420.613000	-0.213761
420.794000	-0.427462
420.975000	-0.106407
421.156000	-0.274947
421.338000	-0.332946
421.519000	-0.302695
421.700000	-0.286294
421.882000	-0.288405
422.063000	-0.149672
422.244000	0.325297
422.425000	0.042217
422.607000	-0.366521
422.788000	-0.351823
422.969000	-0.345087
423.150000	-0.388565
423.332000	-0.466910
423.513000	-0.257253
423.694000	-0.234780
423.876000	-0.221112
424.057000	-0.141240
424.238000	-0.115758
424.419000	-0.105224
424.601000	-0.213901
424.782000	-0.189797
424.963000	0.005599
425.145000	-0.130431
425.326000	-0.132021
425.507000	-0.048093
425.688000	-0.160550
425.870000	-0.367010
426.051000	-0.435505
426.232000	-0.349408
426.413000	-0.342807
426.595000	-0.345317
426.776000	-0.351614
426.957000	-0.322875
427.139000	-0.248341
427.320000	-0.253762
427.501000	-0.167954
427.682000	-0.160655
427.864000	-0.143299
428.045000	0.007792
428.226000	-0.050828
428.408000	-0.384974
428.589000	-0.242881
428.770000	-0.192743
428.951000	-0.321554
429.133000	-0.457932
429.314000	-0.283717
429.495000	-0.312675
429.677000	-0.292350
429.858000	-0.305540
430.039000	-0.247898
430.220000	-0.162000
430.402000	-0.056544
430.583000	-0.316443
430.764000	-0.336566
430.945000	-0.148686
431.127000	-0.077429
431.308000	-0.257053
431.489000	-0.064726
431.671000	-0.000855
431.852000	-0.149499
432.033000	-0.217476
432.214000	-0.144983
432.396000	-0.098091
432.577000	-0.312296
432.758000	-0.491568
432.940000	-0.414649
433.121000	-0.276422
433.302000	-0.239590
433.483000	-0.072536
433.665000	0.068777
433.846000	-0.055686
434.027000	-0.239794
434.208000	-0.314841
434.390000	-0.355923
434.571000	-0.000841
434.752000	0.416457
434.934000	0.181773
435.115000	0.086537
435.296000	0.192566
435.477000	-0.063033
435.659000	-0.324979
435.840000	-0.186035
436.026000	-0.189588
436.211000	-0.263164
436.397000	-0.513309
436.582000	-0.421447
436.768000	-0.204837
436.953000	-0.304394
437.139000	-0.291533
437.325000	0.074081
437.510000	-0.012952
437.696000	0.092040
437.881000	0.112047
438.067000	-0.257275
438.252000	-0.211348
438.438000	-0.257285
438.624000	-0.273328
438.809000	-0.186398
438.995000	-0.084519
439.180000	-0.191567
439.366000	-0.300551
439.551000	-0.272394
439.737000	-0.206553
439.923000	-0.135504
440.108000	-0.224357
440.294000	-0.156609
440.479000	0.003145
440.665000	0.016793
440.850000	-0.121168
441.036000	-0.115606
441.222000	-0.121958
441.407000	-0.289052
441.593000	-0.152049
441.778000	-0.004644
441.964000	0.010882
442.149000	-0.281466
442.335000	-0.305090
442.521000	-0.218176
442.706000	-0.065916
442.892000	-0.147990
443.077000	-0.250162
443.263000	-0.109660
443.448000	-0.133890
443.634000	-0.229145
443.820000	0.105144
444.005000	-0.032883
444.191000	-0.332169
444.376000	-0.289140
444.562000	0.062944
444.747000	0.055740
444.933000	-0.036428
445.119000	-0.148736
445.304000	-0.198943
445.490000	-0.049382
445.675000	-0.064316
445.861000	-0.238827
446.046000	-0.258881
446.232000	-0.163259
446.418000	-0.086577
446.603000	-0.071642
446.789000	-0.079019
446.974000	-0.122251
447.160000	-0.350906
447.345000	-0.237898
447.531000	-0.293225
447.717000	-0.129257
447.902000	-0.038153
448.088000	0.032724
448.273000	-0.122824
448.459000	-0.124323
448.644000	-0.148382
448.830000	-0.250820
449.016000	-0.357964
449.201000	-0.281678
449.387000	-0.143378
449.572000	-0.037676
449.758000	-0.144701
449.943000	-0.305712
450.129000	-0.322902
450.315000	-0.287383
450.500000	-0.293150
450.686000	-0.219989
450.871000	-0.330854
451.057000	-0.170115
451.243000	-0.188308
451.428000	-0.230914
451.614000	-0.200974
451.799000	-0.228394
451.985000	-0.063129
452.170000	0.034101
452.356000	-0.158293
452.542000	-0.206174
452.727000	-0.093986
452.913000	-0.191212
453.098000	-0.017215
453.284000	0.151212
453.469000	-0.013563
453.655000	0.098069
453.841000	0.015710
454.026000	-0.188061
454.212000	-0.162132
454.397000	-0.149639
454.583000	-0.315809
454.768000	-0.361456
454.954000	-0.080403
455.140000	-0.067612
455.325000	-0.222573
455.511000	-0.337837
455.696000	-0.328806
455.882000	-0.161684
456.067000	0.075271
456.253000	-0.116534
456.439000	-0.277541
456.624000	-0.301874
456.810000	-0.324422
456.995000	-0.299649
457.181000	-0.352739
457.366000	-0.159747
457.552000	-0.087910
457.738000	-0.027374
457.923000	-0.063037
458.109000	0.117168
458.294000	0.029619
458.480000	-0.054310
458.665000	-0.100459
458.851000	-0.173183
459.037000	-0.380446
459.222000	-0.249763
459.408000	-0.233872
459.593000	-0.132544
459.779000	0.009813
459.964000	0.120416
460.150000	0.264822
460.336000	0.204826
460.521000	-0.011165
460.707000	-0.167780
460.892000	-0.276890
461.078000	-0.075566
461.263000	0.023574
461.449000	-0.134641
461.635000	-0.129283
461.820000	-0.116885
462.006000	-0.042134
462.191000	-0.038539
462.377000	-0.228836
462.562000	0.073310
462.748000	0.270524
462.934000	-0.162231
463.119000	-0.346231
463.305000	-0.125025
463.490000	-0.163405
463.676000	-0.114539
463.861000	-0.147470
464.047000	-0.145302
464.233000	-0.071666
464.418000	-0.108734
464.604000	-0.261806
464.789000	-0.046195
464.975000	-0.019159
465.160000	-0.170700
465.346000	-0.175651
465.532000	-0.268578
465.717000	-0.246274
465.903000	-0.009069
466.088000	-0.059381
466.274000	-0.279373
466.459000	-0.288050
466.645000	0.059564
466.831000	0.027600
467.016000	0.080672
467.202000	-0.024010
467.387000	-0.138665
467.573000	-0.288797
467.758000	-0.012202
467.944000	-0.140757
468.130000	-0.269051
468.315000	-0.144875
468.501000	0.025767
468.686000	-0.055033
468.872000	-0.081424
469.057000	-0.036911
469.243000	-0.101318
469.429000	-0.119380
469.614000	-0.242465
469.800000	-0.300048
469.985000	-0.105608
470.171000	-0.026794
470.356000	-0.153159
470.542000	-0.082964
470.728000	-0.054791
470.913000	-0.093692
471.099000	-0.003915
471.284000	-0.132079
471.470000	-0.127335
471.655000	-0.101028
471.841000	-0.138432
472.027000	-0.235577
472.212000	-0.013716
472.398000	0.089444
472.583000	-0.041654
472.769000	-0.087735
472.954000	-0.138452
473.140000	-0.275065
473.326000	-0.290138
473.511000	0.017301
473.697000	0.054906
473.882000	-0.082698
474.068000	-0.173274
474.253000	-0.252741
474.439000	-0.174445
474.625000	-0.082481
474.810000	-0.090728
474.996000	-0.107105
475.181000	-0.261715
475.367000	-0.070886
475.552000	0.168534
475.738000	-0.137858
475.924000	-0.143079
476.109000	0.010800
476.295000	-0.139823
476.480000	-0.151440
476.666000	-0.157756
476.851000	-0.129867
477.037000	-0.117393
477.223000	-0.218469
477.408000	-0.284055
477.594000	-0.365617
477.779000	-0.251570
477.965000	-0.189318
478.151000	-0.315574
478.336000	-0.189453
478.522000	-0.202103
478.707000	-0.256124
478.893000	-0.171321
479.078000	-0.318156
479.264000	-0.337983
479.450000	-0.265688
479.635000	-0.140391
479.821000	-0.196628
480.006000	-0.140530
480.192000	-0.122313
480.377000	-0.119284
480.563000	-0.124105
480.749000	-0.315240
480.934000	-0.295160
481.120000	-0.166218
481.305000	-0.074318
481.491000	-0.110781
481.676000	-0.056668
481.862000	0.009246
482.048000	-0.158311
482.233000	-0.167965
482.419000	-0.155193
482.604000	-0.222824
482.790000	-0.226121
482.975000	-0.148910
483.161000	-0.051568
483.347000	-0.089198
483.532000	-0.138416
483.718000	-0.336325
483.903000	-0.265945
484.089000	-0.225853
484.274000	-0.337097
484.460000	-0.179905
484.646000	-0.137160
484.831000	-0.260693
485.017000	-0.195891
485.202000	-0.154581
485.388000	0.059893
485.573000	0.063042
485.759000	-0.138192
485.945000	-0.002293
486.130000	-0.144661
486.316000	-0.174184
486.501000	-0.106781
486.687000	-0.251740
486.872000	-0.325404
487.058000	-0.123128
487.244000	-0.075818
487.429000	-0.284145
487.615000	-0.132647
487.800000	-0.016945
487.986000	-0.124005
488.171000	-0.038068
488.357000	-0.089823
488.543000	-0.094342
488.728000	-0.041046
488.914000	-0.110604
489.099000	-0.233357
489.285000	-0.223501
489.470000	-0.024807
489.656000	0.034820
489.842000	0.021840
490.027000	0.081011
490.213000	-0.103277
490.398000	-0.389700
490.584000	-0.119194
490.769000	-0.082346
490.955000	-0.027828
491.141000	-0.016596
491.326000	-0.067424
491.512000	0.089963
491.697000	0.002538
491.883000	-0.151385
492.068000	-0.206950
492.254000	-0.164393
492.440000	-0.100738
492.625000	-0.187570
492.811000	-0.209324
492.996000	-0.095361
493.182000	-0.087188
493.367000	-0.251578
493.553000	-0.330583
493.739000	-0.248117
493.924000	-0.142665
494.110000	-0.112323
494.295000	-0.204516
494.481000	-0.152948
494.666000	-0.121628
494.852000	0.054284
495.038000	-0.100830
495.223000	-0.249944
495.409000	-0.183654
495.594000	-0.216864
495.780000	-0.166288
495.965000	-0.239984
496.151000	-0.024063
496.337000	0.060258
496.522000	-0.184118
496.708000	-0.139526
496.893000	0.032149
497.079000	-0.125156
497.264000	-0.171528
497.450000	-0.148280
497.636000	-0.073741
497.821000	-0.197682
498.007000	-0.034758
498.192000	0.053889
498.378000	-0.072140
498.563000	-0.181031
498.749000	-0.134511
498.935000	-0.138971
499.120000	-0.034736
499.306000	-0.179208
499.491000	-0.228283
499.677000	-0.147703
499.862000	-0.051908
500.048000	0.000934
500.234000	-0.109326
500.419000	-0.103302
500.605000	0.032077
500.790000	-0.087725
500.976000	-0.251448
501.161000	-0.301220
501.347000	-0.092512
501.533000	0.021195
501.718000	-0.106534
501.904000	-0.161422
502.089000	-0.058474
502.275000	-0.024015
502.460000	-0.117233
502.646000	-0.062887
502.832000	-0.011525
503.017000	-0.064608
503.203000	-0.252232
503.388000	-0.282602
503.574000	-0.083434
503.759000	-0.059981
503.945000	-0.025661
504.131000	-0.110152
504.316000	-0.172634
504.502000	-0.119513
504.687000	-0.141791
504.873000	-0.273696
505.058000	-0.300338
505.244000	-0.298696
505.430000	-0.250535
505.615000	-0.121807
505.801000	-0.062117
505.986000	-0.239112
506.172000	-0.132502
506.358000	-0.135951
506.543000	-0.168903
506.729000	0.019827
506.914000	-0.049520
507.100000	0.072160
507.285000	-0.135369
507.471000	-0.261886
507.657000	0.007283
507.842000	-0.116044
508.028000	-0.280655
508.213000	-0.233776
508.399000	-0.156385
508.584000	-0.019727
508.770000	-0.119739
508.956000	-0.204066
509.141000	-0.170539
509.327000	-0.089742
509.512000	-0.132178
509.698000	-0.146664
509.883000	-0.078630
510.069000	-0.142682
510.255000	-0.080474
510.440000	-0.056593
510.626000	-0.154032
510.811000	-0.248663
510.997000	-0.106272
511.182000	0.141634
511.368000	0.034567
511.554000	-0.300076
511.739000	-0.237473
511.925000	-0.027861
512.110000	-0.061429
512.296000	0.069923
512.481000	0.079448
512.667000	-0.043936
512.853000	-0.255643
513.038000	-0.151610
513.224000	-0.154860
513.409000	-0.241582
513.595000	-0.147049
513.780000	-0.333506
513.966000	-0.249285
514.152000	-0.226855
514.337000	-0.292751
514.523000	-0.241413
514.708000	-0.154894
514.894000	-0.134375
515.079000	-0.254220
515.265000	-0.211612
515.451000	-0.181089
515.636000	-0.266282
515.822000	-0.150555
516.007000	-0.260207
516.193000	-0.129493
516.378000	-0.032913
516.564000	-0.090861
516.750000	-0.066719
516.935000	-0.007095
517.121000	-0.023214
517.306000	0.046148
517.492000	-0.010342
517.677000	-0.244382
517.863000	-0.246042
518.049000	-0.105618
518.234000	-0.202363
518.420000	-0.065276
518.605000	0.138260
518.791000	0.060701
518.976000	-0.110862
519.162000	-0.214199
519.348000	-0.110682
519.533000	-0.108905
519.719000	0.102869
519.904000	-0.013602
520.090000	-0.070134
520.275000	0.109314
520.461000	0.088467
520.647000	-0.146445
520.832000	-0.336891
521.018000	-0.230707
521.203000	-0.168589
521.389000	-0.350810
521.574000	-0.291403
521.760000	-0.110634
521.946000	-0.114215
522.131000	-0.195502
522.317000	-0.177366
522.502000	-0.201599
522.688000	-0.123866
522.873000	-0.172668
523.059000	-0.202022
523.245000	-0.209945
523.430000	-0.275192
523.616000	-0.179296
523.801000	-0.281984
523.987000	-0.262941
524.172000	-0.116307
524.358000	-0.069097
524.544000	-0.132436
524.729000	-0.005517
524.915000	0.025374
525.100000	-0.151860
525.286000	-0.098350
525.471000	-0.070868
525.657000	-0.046423
525.843000	-0.277227
526.028000	-0.131669
526.214000	-0.190554
526.399000	-0.292896
526.585000	-0.311018
526.770000	-0.317549
526.956000	-0.201474
527.142000	-0.282079
527.327000	-0.140708
527.513000	-0.231614
527.698000	-0.279767
527.884000	-0.237690
528.069000	-0.220670
528.255000	-0.111639
528.441000	-0.216249
528.626000	-0.203605
528.812000	0.062495
528.997000	-0.083939
529.183000	-0.195442
529.368000	-0.116070
529.554000	-0.154946
529.740000	-0.157065
529.925000	-0.227742
530.111000	-0.206104
530.296000	-0.125464
530.482000	-0.000676
530.667000	-0.070015
530.853000	-0.054969
531.039000	-0.150306
531.224000	-0.101540
531.410000	-0.016064
531.595000	-0.115287
531.781000	-0.063982
531.967000	-0.179601
532.152000	-0.038655
532.338000	-0.121730
532.523000	-0.279609
532.709000	-0.280643
532.894000	-0.170193
533.080000	-0.163379
533.266000	-0.308797
533.451000	-0.301160
533.637000	-0.242205
533.822000	-0.046722
534.008000	-0.196982
534.193000	-0.215461
534.379000	-0.128957
534.565000	-0.218895
534.750000	-0.205346
534.936000	0.017297
535.121000	-0.170530
535.307000	-0.118347
535.492000	-0.114913
535.678000	-0.334400
535.864000	-0.191298
536.049000	0.141168
536.235000	-0.091142
536.420000	-0.132334
536.606000	-0.212638
536.791000	-0.314867
536.977000	-0.289413
537.163000	-0.036505
537.348000	-0.000757
537.534000	0.046873
537.719000	-0.157398
537.905000	-0.305667
538.090000	-0.066227
538.276000	0.030139
538.462000	-0.020158
538.647000	-0.006617
538.833000	-0.114276
539.018000	-0.004718
539.204000	-0.061773
539.389000	-0.254330
539.575000	0.090398
539.761000	0.005180
539.946000	-0.305061
540.132000	-0.149507
540.317000	-0.238609
540.503000	-0.101789
540.688000	-0.078042
540.874000	0.113342
541.060000	0.270220
541.245000	0.083125
541.431000	-0.113857
541.616000	-0.039980
541.802000	-0.118392
541.987000	-0.019444
542.173000	-0.002907
542.359000	-0.083985
542.544000	0.048989
542.730000	-0.155055
542.915000	-0.149162
543.101000	-0.000836
543.286000	-0.183073
543.472000	-0.283280
543.658000	-0.142164
543.843000	-0.136171
544.029000	0.052183
544.214000	-0.039081
544.400000	-0.355953
544.585000	-0.220349
544.771000	-0.109894
544.957000	0.026997
545.142000	0.157828
545.328000	0.196943
545.513000	0.218851
545.699000	0.241429
545.884000	0.105210
546.070000	0.035952
546.261000	0.012173
546.451000	-0.153503
546.642000	-0.378742
546.833000	-0.219673
547.023000	-0.293997
547.214000	-0.249064
547.405000	-0.075540
547.595000	0.179418
547.786000	0.096235
547.977000	-0.146959
548.167000	-0.291065
548.358000	-0.274550
548.549000	0.121925
548.740000	-0.029923
548.930000	-0.324801
549.121000	-0.247325
549.312000	-0.335976
549.502000	-0.384127
549.693000	-0.239660
549.884000	-0.136089
550.074000	-0.075519
550.265000	-0.288744
550.456000	-0.155401
550.646000	-0.107945
550.837000	-0.137598
551.028000	-0.244998
551.218000	-0.110380
551.409000	-0.273491
551.600000	-0.255384
551.790000	-0.095284
551.981000	-0.304709
552.172000	-0.309889
552.362000	0.065915
552.553000	0.128794
552.744000	-0.100466
552.934000	-0.163109
553.125000	-0.216784
553.316000	-0.307499
553.506000	0.073543
553.697000	-0.106052
553.888000	-0.070888
554.079000	0.129753
554.269000	0.150907
554.460000	-0.181265
554.651000	-0.265847
554.841000	-0.449209
555.032000	-0.320616
555.223000	-0.189250
555.413000	-0.104049
555.604000	-0.165678
555.795000	-0.168472
555.985000	-0.097886
556.176000	-0.246394
556.367000	-0.453984
556.557000	-0.311083
556.748000	-0.242900
556.939000	-0.285157
557.129000	-0.379573
557.320000	-0.192746
557.511000	-0.218385
557.701000	-0.251076
557.892000	-0.138362
558.083000	0.044019
558.273000	-0.081427
558.464000	-0.285012
558.655000	-0.223272
558.845000	-0.206108
559.036000	-0.149617
559.227000	-0.182790
559.418000	-0.026972
559.608000	0.006149
559.799000	-0.305656
559.990000	-0.372168
560.180000	-0.278550
560.371000	-0.479251
560.562000	-0.433820
560.752000	-0.217579
560.943000	-0.354318
561.134000	-0.618863
561.324000	-0.345900
561.515000	-0.005622
561.706000	-0.141634
561.896000	-0.389350
562.087000	-0.325807
562.278000	-0.318671
562.468000	-0.461643
562.659000	-0.371757
562.850000	-0.047608
563.040000	0.027071
563.231000	-0.409656
563.422000	-0.250014
563.612000	-0.343507
563.803000	-0.287053
563.994000	-0.382908
564.185000	-0.460846
564.375000	-0.246192
564.566000	-0.252827
564.757000	-0.251213
564.947000	-0.382852
565.138000	-0.233916
565.329000	-0.293303
565.519000	-0.472631
565.710000	-0.337210
565.901000	-0.141524
566.091000	-0.058502
566.282000	-0.203139
566.473000	-0.188766
566.663000	-0.177105
566.854000	-0.374685
567.045000	-0.266872
567.235000	-0.150912
567.426000	-0.166761
567.617000	-0.184270
567.807000	-0.254556
567.998000	-0.165893
568.189000	-0.274312
568.379000	-0.210509
568.570000	-0.104433
568.761000	-0.155870
568.951000	-0.256530
569.142000	-0.281574
569.333000	-0.301777
569.524000	-0.461708
569.714000	-0.510875
569.905000	-0.581452
570.096000	-0.190655
570.286000	-0.058859
570.477000	0.056920
570.668000	-0.129727
570.858000	-0.163039
571.049000	-0.308554
571.240000	-0.428295
571.430000	-0.199934
571.621000	-0.258728
571.812000	-0.115009
572.002000	-0.080034
572.193000	-0.299418
572.384000	-0.213716
572.574000	-0.154596
572.765000	-0.226650
572.956000	-0.254347
573.146000	-0.105919
573.337000	-0.221462
573.528000	-0.242879
573.718000	-0.076979
573.909000	-0.000869
574.100000	-0.104722
574.290000	-0.292029
574.481000	-0.259096
574.672000	-0.285247
574.863000	-0.176817
575.053000	-0.240735
575.244000	-0.139740
575.435000	-0.310376
575.625000	-0.300505
575.816000	-0.302256
576.007000	-0.219477
576.197000	-0.219822
576.388000	-0.221085
576.579000	-0.127865
576.769000	-0.098113
576.960000	-0.309329
577.155000	-0.487576
577.350000	-0.247066
577.545000	-0.068058
577.740000	-0.239592
577.935000	0.089035
578.130000	-0.030120
578.326000	-0.328220
578.521000	-0.002918
578.716000	-0.011203
578.911000	-0.261952
579.106000	-0.118509
579.301000	-0.039931
579.496000	-0.224471
579.691000	-0.488741
579.886000	-0.362737
580.081000	-0.231517
580.276000	-0.186145
580.471000	-0.263490
580.666000	-0.397192
580.861000	-0.433627
581.057000	-0.383076
581.252000	-0.212328
581.447000	-0.303168
581.642000	-0.301645
581.837000	-0.321538
582.032000	-0.282165
582.227000	-0.071238
582.422000	-0.044993
582.617000	-0.196752
582.812000	-0.371751
583.007000	-0.349623
583.202000	-0.422596
583.397000	-0.139580
583.592000	0.074418
583.788000	-0.233588
583.983000	-0.203802
584.178000	-0.110989
584.373000	-0.259765
584.568000	-0.290547
584.763000	-0.339824
584.958000	-0.433862
585.153000	-0.316307
585.348000	-0.263249
585.543000	-0.155680
585.738000	-0.200685
585.933000	-0.375204
586.128000	-0.159513
586.324000	-0.159930
586.519000	-0.155887
586.714000	-0.040083
586.909000	-0.004724
587.104000	-0.042263
587.299000	-0.144545
587.494000	-0.138449
587.689000	-0.174190
587.884000	-0.178667
588.079000	-0.253788
588.274000	-0.226533
588.469000	-0.228056
588.664000	-0.129415
588.859000	-0.119693
589.055000	-0.131735
589.250000	-0.205240
589.445000	-0.346586
589.640000	-0.313054
589.835000	-0.028709
590.030000	0.068960
590.225000	0.080934
590.420000	-0.146522
590.615000	-0.294504
590.810000	-0.238294
591.005000	-0.239269
591.200000	-0.327578
591.395000	-0.381648
591.591000	-0.252927
591.786000	-0.146751
591.981000	-0.265494
592.176000	-0.199727
592.371000	-0.163623
592.566000	-0.243850
592.761000	-0.044987
592.956000	-0.081275
593.151000	0.001208
593.346000	-0.097688
593.541000	-0.083473
593.736000	-0.091820
593.931000	-0.288124
594.126000	-0.233840
594.322000	-0.191279
594.517000	-0.241886
594.712000	-0.351436
594.907000	-0.413722
595.102000	-0.265586
595.297000	-0.065946
595.492000	-0.006935
595.687000	-0.211329
595.882000	-0.338215
596.077000	-0.238480
596.272000	-0.047932
596.467000	-0.002869
596.662000	-0.166956
596.857000	-0.212926
597.053000	-0.157591
597.248000	-0.101854
597.443000	-0.081343
597.638000	-0.156043
597.833000	-0.350912
598.028000	-0.164269
598.223000	-0.056798
598.418000	-0.158654
598.613000	-0.289443
598.808000	-0.108884
599.003000	-0.115242
599.198000	-0.327835
599.393000	-0.275682
599.589000	-0.138634
599.784000	-0.335125
599.979000	-0.295864
600.174000	-0.057371
600.369000	-0.254458
600.564000	-0.183430
600.759000	0.049588
600.954000	0.114532
601.149000	-0.032403
601.344000	-0.348370
601.539000	-0.180082
601.734000	-0.261979
601.929000	-0.477985
602.124000	-0.410768
602.320000	-0.174414
602.515000	0.054195
602.710000	0.016122
602.905000	-0.280831
603.100000	-0.346027
603.295000	-0.308475
603.490000	-0.171062
603.685000	-0.154067
603.880000	-0.149994
604.075000	-0.327660
604.270000	-0.315511
604.465000	-0.231855
604.660000	-0.437541
604.856000	-0.302459
605.051000	-0.095156
605.246000	-0.137905
605.441000	-0.397303
605.636000	-0.431714
605.831000	-0.280034
606.026000	-0.348610
606.221000	-0.372732
606.416000	-0.224700
606.611000	-0.065495
606.806000	-0.091266
607.001000	0.061640
607.196000	-0.143242
607.391000	-0.348667
607.587000	-0.106934
607.782000	-0.141755
607.977000	-0.331711
608.172000	0.053361
608.367000	0.079389
608.562000	-0.150837
608.757000	-0.215971
608.952000	-0.299231
609.147000	0.131811
609.342000	0.012199
609.537000	-0.260587
609.732000	-0.219467
609.927000	-0.245211
610.122000	-0.197553
610.318000	0.086624
610.513000	0.196099
610.708000	-0.031550
610.903000	-0.025005
611.098000	0.034291
611.293000	-0.009674
611.488000	0.018912
611.683000	0.005727
611.878000	-0.025120
612.073000	-0.033944
612.268000	-0.049427
612.463000	0.083153
612.658000	0.043346
612.854000	-0.071805
613.049000	-0.096226
613.244000	0.023516
613.439000	0.012428
613.634000	-0.278996
613.829000	-0.056527
614.024000	-0.181584
614.219000	-0.255162
614.414000	0.115167
614.609000	-0.099244
614.804000	-0.336267
614.999000	-0.358298
615.194000	-0.245011
615.389000	-0.225119
615.585000	-0.380529
615.780000	-0.178508
615.975000	-0.259962
616.170000	-0.271421
616.365000	-0.064088
616.560000	0.121071
616.755000	0.085189
616.950000	-0.012240
617.145000	0.014974
617.340000	-0.171225
617.535000	-0.461891
617.730000	-0.219209
617.925000	-0.347113
618.120000	-0.411016
618.316000	-0.019180
618.511000	-0.101474
618.706000	-0.322009
618.901000	-0.246196
619.096000	-0.090662
619.291000	-0.210133
619.486000	-0.190042
619.681000	-0.478709
619.876000	-0.577711
620.071000	-0.398103
620.266000	-0.086573
620.461000	-0.007884
620.656000	-0.119416
620.852000	-0.158711
621.047000	-0.268421
621.242000	-0.366596
621.437000	-0.068638
621.632000	0.062234
621.827000	-0.125049
622.022000	-0.396994
622.217000	-0.210078
622.412000	-0.045637
622.607000	-0.048036
622.802000	-0.318991
622.997000	-0.367385
623.192000	-0.301164
623.387000	-0.223202
623.583000	-0.429755
623.778000	-0.091225
623.973000	-0.074645
624.168000	-0.077205
624.363000	-0.000952
624.558000	0.077694
624.753000	-0.259174
624.948000	-0.113542
625.143000	-0.132801
625.338000	-0.142629
625.533000	-0.241151
625.728000	-0.157254
625.923000	0.078437
626.119000	-0.102253
626.314000	-0.392025
626.509000	-0.415022
626.704000	-0.348141
626.899000	-0.294984
627.094000	-0.341626
627.289000	-0.357044
627.484000	-0.306549
627.679000	-0.289696
627.874000	-0.241072
628.069000	0.055449
628.264000	-0.037750
628.459000	-0.197545
628.654000	-0.286258
628.850000	-0.410655
629.045000	-0.255463
629.240000	-0.322491
629.435000	-0.293195
629.630000	-0.132485
629.825000	-0.157290
630.020000	-0.150438
630.215000	-0.379374
630.410000	-0.335891
630.605000	-0.361179
630.800000	-0.221076
630.995000	-0.061158
631.190000	0.179848
631.385000	-0.031166
631.581000	-0.141996
631.776000	-0.096740
631.971000	-0.370014
632.166000	-0.271653
632.361000	-0.383305
632.556000	-0.246936
632.751000	-0.079865
632.946000	-0.222372
633.141000	-0.281746
633.336000	-0.271963
633.531000	-0.195884
633.726000	-0.213568
633.921000	-0.375914
634.117000	-0.551739
634.312000	-0.678518
634.507000	-0.560628
634.702000	-0.349793
634.897000	-0.295963
635.092000	-0.229302
635.287000	-0.159588
635.482000	-0.272064
635.677000	-0.199161
635.872000	-0.149648
636.067000	-0.071599
636.262000	-0.247640
636.457000	-0.560157
636.652000	-0.479880
636.848000	-0.473063
637.043000	-0.419728
637.238000	-0.391786
637.433000	-0.466060
637.628000	-0.415845
637.823000	-0.154517
638.018000	-0.083240
638.213000	-0.253465
638.408000	-0.346777
638.603000	-0.437823
638.798000	-0.459795
638.993000	-0.356464
639.188000	-0.353914
639.383000	-0.386318
639.579000	0.001604
639.774000	-0.236910
639.969000	-0.384470
640.164000	-0.388036
640.359000	-0.407286
640.554000	-0.219260
640.749000	-0.236070
640.944000	-0.217634
641.139000	-0.249607
641.334000	-0.385367
641.529000	-0.735933
641.724000	-0.525072
641.919000	-0.398308
642.115000	-0.107452
642.310000	-0.044663
642.505000	-0.218878
642.700000	-0.235639
642.895000	-0.392286
643.090000	-0.239016
643.285000	-0.042121
643.480000	-0.044958
643.675000	-0.050484
643.870000	0.188579
644.065000	0.012670
644.260000	-0.383851
644.455000	-0.263183
644.650000	-0.366162
644.846000	-0.274904
645.041000	-0.476594
645.236000	-0.624627
645.431000	-0.503417
645.626000	-0.655657
645.821000	-0.475194
646.016000	-0.329215
646.211000	0.057387
646.406000	-0.104384
646.601000	-0.162836
646.796000	-0.307760
646.991000	-0.516918
647.186000	-0.372759
647.381000	-0.166088
647.577000	-0.166247
647.772000	-0.093484
647.967000	-0.166582
648.162000	-0.158295
648.357000	-0.228769
648.552000	-0.088212
648.747000	-0.051721
648.942000	0.007313
649.137000	-0.102696
649.332000	-0.334483
649.527000	-0.314575
649.722000	-0.071701
649.917000	0.032841
650.113000	-0.331977
650.308000	-0.420232
650.503000	-0.346421
650.698000	-0.199824
650.893000	-0.279498
651.088000	-0.168832
651.283000	-0.012533
651.478000	-0.323022
651.673000	-0.151957
651.868000	-0.380368
652.063000	-0.143993
652.258000	0.038885
652.453000	0.207026
652.648000	-0.169618
652.844000	-0.198317
653.039000	-0.141403
653.234000	-0.570946
653.429000	-0.775624
653.624000	-0.540012
653.819000	-0.182123
654.014000	-0.262607
654.209000	-0.421736
654.404000	-0.205469
654.599000	-0.332935
654.794000	-0.312201
654.989000	-0.006933
655.184000	-0.134188
655.380000	-0.483728
655.575000	-0.437543
655.770000	-0.432480
655.965000	-0.293604
656.160000	-0.290862
656.355000	-0.154670
656.550000	-0.195820
656.745000	-0.140714
656.940000	-0.292133
657.135000	-0.251336
657.330000	-0.239797
657.525000	-0.443825
657.720000	-0.190794
657.915000	-0.039056
658.111000	-0.205269
658.306000	0.106802
658.501000	-0.118161
658.696000	-0.445559
658.891000	-0.156193
659.086000	-0.264310
659.281000	-0.258885
659.476000	-0.426417
659.671000	-0.778270
659.866000	-0.476438
660.061000	-0.194931
660.256000	-0.074601
660.451000	-0.145219
660.646000	-0.354401
660.842000	-0.254615
661.037000	-0.422750
661.232000	-0.429260
661.427000	-0.293222
661.622000	-0.450397
661.817000	-0.533003
662.012000	-0.229257
662.207000	-0.374651
662.402000	-0.458795
662.597000	-0.265832
662.792000	-0.589401
662.987000	-0.574077
663.182000	-0.301626
663.378000	-0.331637
663.573000	-0.612976
663.768000	-0.644464
663.963000	-0.430510
664.158000	-0.430117
664.353000	-0.028114
664.548000	0.157263
664.743000	-0.201740
664.938000	-0.459105
665.133000	-0.450832
665.328000	-0.070247
665.523000	-0.133550
665.718000	-0.293002
665.913000	-0.302480
666.109000	-0.309196
666.304000	-0.121948
666.499000	-0.251585
666.694000	-0.073814
666.889000	0.174231
667.084000	-0.155999
667.279000	-0.252968
667.474000	-0.353262
667.669000	-0.298561
667.864000	-0.286764
668.059000	-0.302413
668.254000	-0.263196
668.449000	-0.415978
668.644000	-0.379728
668.840000	-0.046947
669.035000	-0.309556
669.230000	-0.583233
669.425000	-0.255643
669.620000	-0.365966
669.815000	-0.351910
670.010000	-0.413051
670.205000	-0.253450
670.400000	-0.228436
670.595000	-0.179855
670.790000	-0.325038
670.985000	-0.334640
671.180000	-0.100132
671.376000	-0.415736
671.571000	-0.549962
671.766000	-0.560558
671.961000	-0.566988
672.156000	-0.542795
672.351000	-0.390381
672.546000	-0.356887
672.741000	-0.222256
672.936000	-0.157092
673.131000	0.326913
673.326000	-0.070203
673.521000	-0.553327
673.716000	-0.634869
673.911000	-0.694962
674.107000	-0.149066
674.302000	0.096299
674.497000	-0.130436
674.692000	-0.452120
674.887000	-0.529589
675.082000	-0.390980
675.277000	-0.064726
675.472000	-0.176006
675.667000	-0.414916
675.862000	-0.421495
676.057000	-0.329394
676.252000	-0.275820
676.447000	-0.356501
676.643000	-0.237899
676.838000	-0.010892
677.033000	-0.238686
677.228000	0.014794
677.423000	-0.033469
677.618000	-0.378831
677.813000	-0.552757
678.008000	-0.379827
678.203000	-0.221531
678.398000	-0.478261
678.593000	-0.306399
678.788000	-0.186911
678.983000	-0.479390
679.178000	-0.382012
679.374000	-0.424931
679.569000	-0.327876
679.764000	-0.430385
679.959000	-0.569312
680.154000	-0.493898
680.349000	-0.742754
680.544000	-0.748341
680.739000	-0.554473
680.934000	-0.597878
681.129000	-0.616077
681.324000	-0.663166
681.519000	-0.349891
681.714000	-0.383222
681.909000	-0.578446
682.105000	-0.719771
682.300000	-0.198338
682.495000	-0.024696
682.690000	-0.141824
682.885000	-0.218932
683.080000	-0.464592
683.275000	-0.417805
683.470000	-0.088774
683.665000	0.133453
683.860000	0.373368
684.055000	-0.014862
684.250000	-0.511895
684.445000	-0.470572
684.641000	0.002032
684.836000	-0.265892
685.031000	-0.341735
685.226000	-0.379688
685.421000	0.036230
685.616000	-0.244039
685.811000	-0.484453
686.006000	-0.128125
686.201000	-0.196904
686.396000	-0.659090
686.591000	-0.608657
686.786000	-0.139619
686.981000	-0.181107
687.176000	-0.185012
687.372000	-0.275403
687.567000	0.026373
687.762000	-0.147538
687.957000	-0.220603
688.152000	-0.377986
688.347000	-0.343735
688.542000	-0.572213
688.737000	-0.928998
688.932000	-0.986678
689.127000	-0.517551
689.322000	-0.128172
689.517000	-0.406261
689.712000	-0.591410
689.908000	-0.439940
690.103000	-0.462053
690.298000	-0.352268
690.493000	-0.360296
690.688000	-0.645350
690.883000	-0.494067
691.078000	-0.072849
691.273000	-0.037143
691.468000	-0.370006
691.663000	-0.425294
691.858000	-0.166698
692.053000	-0.152321
692.248000	-0.080554
692.443000	-0.105722
692.639000	-0.214046
692.834000	-0.080918
693.029000	0.490027
693.224000	0.325331
693.419000	-0.332174
693.614000	-0.463885
693.809000	-0.518883
694.004000	-0.581924
694.199000	-0.516076
694.394000	-0.213869
694.589000	-0.577033
694.784000	-0.665693
694.979000	-0.361115
695.174000	-0.350993
695.370000	0.134430
695.565000	-0.159794
695.760000	-0.492287
695.955000	-0.042171
696.150000	0.020722
696.345000	-0.402679
696.540000	-0.213601
696.740000	-0.373353
696.940000	-0.224778
697.140000	-0.027681
697.340000	-0.293777
697.539000	-0.140218
697.739000	-0.267795
697.939000	-0.219189
698.139000	-0.550045
698.339000	-0.929233
698.539000	-0.668634
698.739000	-0.704444
698.939000	-0.620221
699.138000	-0.689682
699.338000	0.085632
699.538000	0.234294
699.738000	-0.333398
699.938000	-0.482573
700.138000	-0.586647
700.338000	-0.603682
700.538000	-0.389870
700.737000	-0.347462
700.937000	-0.787137
701.137000	-0.857432
701.337000	-0.225309
701.537000	-0.117542
701.737000	-0.395434
701.937000	-0.407941
702.137000	-0.508597
702.337000	-0.621886
702.536000	-0.704740
702.736000	-0.682250
702.936000	-0.804015
703.136000	-0.235979
703.336000	-0.212489
703.536000	-0.444176
703.736000	-0.794930
703.936000	-0.722735
704.135000	-0.675364
704.335000	-0.241203
704.535000	-0.513661
704.735000	-0.774435
704.935000	-0.261270
705.135000	-0.179509
705.335000	-0.422106
705.535000	-0.267562
705.735000	-0.152413
705.934000	-0.164236
706.134000	-0.553193
706.334000	-0.610194
706.534000	-0.698709
706.734000	-0.679330
706.934000	-0.671320
707.134000	-0.691432
707.334000	-0.429168
707.533000	-0.353897
707.733000	-0.401646
707.933000	-0.594262
708.133000	-0.301571
708.333000	-0.214690
708.533000	-0.464814
708.733000	-0.114374
708.933000	-0.356323
709.132000	-0.506445
709.332000	-0.430438
709.532000	-0.557075
709.732000	-0.495535
709.932000	-0.939063
710.132000	-0.881696
710.332000	-0.986690
710.532000	-0.334340
710.732000	-0.087069
710.931000	-0.490229
711.131000	-0.643386
711.331000	-0.414800
711.531000	-0.595802
711.731000	-0.634274
711.931000	-0.548915
712.131000	-0.515378
712.331000	-0.314094
712.530000	-0.445111
712.730000	-0.664484
712.930000	-0.479058
713.130000	-0.427046
713.330000	-0.539224
713.530000	-0.462351
713.730000	0.222562
713.930000	-0.068076
714.129000	-0.524132
714.329000	-0.750451
714.529000	-0.463063
714.729000	-0.118295
714.929000	-0.214104
715.129000	-0.573282
715.329000	-0.519522
715.529000	-0.479718
715.729000	0.161558
715.928000	-0.026854
716.128000	-0.371153
716.328000	-0.288034
716.528000	-0.385327
716.728000	-0.301083
716.928000	-0.482455
717.128000	-0.284879
717.328000	-0.360900
717.527000	-0.615206
717.727000	-0.467572
717.927000	-0.375601
718.127000	-0.494852
718.327000	-0.955721
718.527000	-0.925444
718.727000	-0.380916
718.927000	-0.505394
719.127000	-0.833140
719.326000	-0.671832
719.526000	-0.228346
719.726000	-0.250252
719.926000	-0.741516
720.126000	-0.720127
720.326000	-0.509261
720.526000	-0.591094
720.726000	-0.472060
720.925000	-0.342829
721.125000	-0.777472
721.325000	-0.417266
721.525000	-0.361870
721.725000	-0.565864
721.925000	-0.576161
722.125000	-0.593616
722.325000	-0.088772
722.524000	-0.446953
722.724000	-0.919490
722.924000	-1.037422
723.124000	-0.850571
723.324000	-0.391560
723.524000	-0.269168
723.724000	-0.778395
723.924000	-0.635870
724.124000	-0.429052
724.323000	-0.089980
724.523000	-0.244143
724.723000	-0.010599
724.923000	-0.107792
725.123000	-0.085794
725.323000	0.007088
725.523000	-0.259221
725.723000	-0.560465
725.922000	-0.547780
726.122000	-0.401742
726.322000	-0.621172
726.522000	-0.608399
726.722000	0.163063
726.922000	-0.206583
727.122000	-0.372608
727.322000	0.038471
727.521000	-0.239467
727.721000	-0.450897
727.921000	-0.437445
728.121000	-0.513667
728.321000	-0.878980
728.521000	-0.660246
728.721000	-0.376763
728.921000	-0.006322
729.121000	0.667654
729.320000	0.002717
729.520000	-0.509039
729.720000	-0.759375
729.920000	-0.708296
730.120000	-0.483729
730.320000	-0.430224
730.520000	-0.635571
730.720000	-0.555247
730.919000	-0.472832
731.119000	-0.125525
731.319000	-0.630487
731.519000	-0.795571
731.719000	-0.359978
731.919000	-0.622028
732.119000	-1.166051
732.319000	-1.058926
732.519000	-0.426753
732.718000	-0.737160
732.918000	-0.714651
733.118000	-0.540109
733.318000	-0.239188
733.518000	-0.499822
733.718000	-1.059754
733.918000	-0.990427
734.118000	-0.687091
734.317000	-0.465231
734.517000	-0.712304
734.717000	-0.584235
734.917000	-0.114852
735.117000	-0.265760
735.317000	-0.378753
735.517000	0.073689
735.717000	0.282364
735.916000	-0.527854
736.116000	-0.735702
736.316000	-0.525886
736.516000	-0.344767
736.716000	-0.416407
736.916000	-0.953893
737.116000	-0.708568
737.316000	-0.117274
737.516000	-0.180112
737.715000	-0.319975
737.915000	-0.835977
738.115000	-0.882159
738.315000	-0.563373
738.515000	-0.824572
738.715000	-0.478958
738.915000	-0.036067
739.115000	-0.573152
739.314000	-0.718964
739.514000	-0.163498
739.714000	0.056927
739.914000	-0.159468
740.114000	-0.485219
740.314000	-0.204299
740.514000	0.225370
740.714000	-0.611947
740.913000	-1.044905
741.113000	-0.867475
741.313000	-0.564059
741.513000	-0.590587
741.713000	-0.502147
741.913000	-0.363817
742.113000	-0.568980
742.313000	-1.093123
742.513000	-0.691514
742.712000	-0.501886
742.912000	-0.890906
743.112000	-0.681080
743.312000	-1.032455
743.512000	-0.643052
743.712000	-0.420550
743.912000	-1.050006
744.112000	-1.219482
744.311000	-1.181745
744.511000	-0.813919
744.711000	-0.429609
744.911000	-0.879019
745.111000	-0.890440
745.311000	-0.431587
745.511000	-0.618737
745.711000	-0.785302
745.911000	-0.547413
746.110000	-0.906209
746.310000	-1.141537
746.510000	-0.893942
746.710000	-0.232632
746.910000	-0.180398
747.110000	-0.832006
747.310000	-1.154427
747.510000	-0.894735
747.709000	-0.567724
747.909000	-0.510884
748.109000	-0.294591
748.309000	-0.630882
748.509000	-0.978761
748.709000	-0.966318
748.909000	-0.537630
749.109000	-0.513086
749.308000	-0.115211
749.508000	-0.331773
749.708000	-0.602149
749.908000	-0.310333
750.108000	-0.392593
750.308000	-1.150329
750.508000	-0.296774
750.708000	-0.717079
750.908000	-1.035833
751.107000	-0.358776
751.307000	0.184107
751.507000	-0.370875
751.707000	-0.342926
751.907000	-0.442932
752.107000	-0.328349
752.307000	-0.861903
752.507000	-0.741821
752.706000	-0.763545
752.906000	0.348613
753.106000	-0.471646
753.306000	-1.145737
753.506000	-0.272039
753.706000	-0.655549
753.906000	-0.492302
754.106000	-0.227864
754.305000	-0.250750
754.505000	-0.189121
754.705000	-0.406498
754.905000	-0.407100
755.105000	-0.156457
755.305000	-0.997235
755.505000	-0.919823
755.705000	-0.450151
755.905000	-0.503335
756.104000	-1.120514
756.304000	-1.499188
756.504000	-1.589150
756.704000	-0.415651
756.904000	-0.176871
757.104000	-0.496167
757.304000	-0.636213
757.504000	-0.294892
757.703000	-0.657535
757.903000	-0.260364
758.103000	-0.049359
758.303000	-0.461979
758.503000	-0.723156
758.703000	-0.819595
758.903000	-0.896980
759.103000	-0.453889
759.303000	-0.497854
759.502000	-0.697041
759.702000	-0.247822
759.902000	-0.519834
760.102000	-0.635668
760.302000	-0.559142
760.502000	-0.147211
760.702000	-0.232010
760.902000	-0.480745
761.101000	-0.846456
761.301000	-1.188576
761.501000	-0.933399
761.701000	-1.136475
761.901000	-0.762412
762.101000	-0.254272
762.301000	-0.518377
762.501000	-0.961384
762.700000	-1.039915
762.900000	-1.083528
763.100000	-0.719877
763.300000	-0.437168
763.500000	-0.717318
763.703000	-0.764482
763.905000	-1.065886
764.108000	-0.351983
764.311000	-0.470622
764.513000	-0.589925
764.716000	-0.535843
764.919000	-0.624522
765.121000	-1.215587
765.324000	-1.357934
765.527000	-1.137015
765.729000	-0.991214
765.932000	-0.154893
766.135000	-0.186578
766.337000	-0.529544
766.540000	-0.652320
766.743000	-0.182262
766.945000	-0.790371
767.148000	-1.344234
767.351000	-1.350464
767.553000	-0.311821
767.756000	-0.563680
767.958000	-1.079524
768.161000	-0.654473
768.364000	-0.961356
768.566000	-1.352999
768.769000	-0.719144
768.972000	-0.406416
769.174000	-0.786563
769.377000	-1.345702
769.580000	-1.414226
769.782000	-0.704530
769.985000	-0.943690
770.188000	-1.902422
770.390000	-1.215777
770.593000	0.480673
770.796000	0.090110
770.998000	-0.559541
771.201000	-0.918507
771.404000	-0.527691
771.606000	-0.923455
771.809000	-0.743058
772.012000	-0.630878
772.214000	-1.688125
772.417000	-1.755197
772.620000	-0.482788
772.822000	-0.728449
773.025000	-1.024316
773.228000	-1.154170
773.430000	-1.115624
773.633000	-0.779850
773.836000	-0.692943
774.038000	-0.552918
774.241000	-0.688584
774.444000	-0.956352
774.646000	0.024502
774.849000	-0.350625
775.052000	-0.568816
775.254000	-0.351261
775.457000	-0.801566
775.659000	-0.824019
775.862000	-1.015892
776.065000	-0.757002
776.267000	0.024727
776.470000	0.314612
776.673000	-0.589614
776.875000	-0.023543
777.078000	0.011061
777.281000	-0.918810
777.483000	-0.378719
777.686000	-0.149260
777.889000	-0.498535
778.091000	-0.304075
778.294000	-1.157197
778.497000	-1.158685
778.699000	-0.830096
778.902000	-0.762582
779.105000	-0.783740
779.307000	0.123999
779.510000	-0.751308
779.713000	-0.562838
779.915000	-0.842067
780.118000	0.224961
780.321000	0.303642
780.523000	-0.624414
780.726000	-1.096395
780.929000	-1.067421
781.131000	-1.126319
781.334000	-1.568625
781.537000	-1.702658
781.739000	-0.644487
781.942000	-1.135618
782.145000	-1.699907
782.347000	-1.737263
782.550000	-1.135683
782.753000	-1.197697
782.955000	-1.054851
783.158000	-0.879011
783.361000	-0.786037
783.563000	-0.932566
783.766000	-0.971678
783.968000	0.974641
784.171000	0.801898
784.374000	-0.601108
784.576000	-0.586165
784.779000	-0.216702
784.982000	-0.069685
785.184000	-0.778145
785.387000	-0.421019
785.590000	0.399903
785.792000	0.356485
785.995000	0.004500
786.198000	-0.243417
786.400000	-0.583950
786.603000	-0.577869
786.806000	-0.719352
787.008000	-0.417695
787.211000	-0.510005
787.414000	-1.316578
787.616000	-0.993833
787.819000	-0.935060
788.022000	-1.487100
788.224000	-0.815952
788.427000	-1.338183
788.630000	-0.873179
788.832000	-0.687633
789.035000	-1.162661
789.238000	-1.754176
789.440000	-1.360939
789.643000	-0.305073
789.846000	-0.958206
790.048000	-0.462361
790.251000	0.066957
790.454000	-0.453776
790.656000	-0.026516
790.859000	-0.675377
791.062000	-1.248203
791.264000	-0.496053
791.467000	-1.268165
791.669000	-1.820831
791.872000	-0.849327
792.075000	-1.188000
792.277000	-0.887985
792.480000	-0.638630
792.683000	-1.175545
792.885000	-1.581068
793.088000	-1.499326
793.291000	-1.694551
793.493000	-1.585743
793.696000	-0.602882
793.899000	-0.347974
794.101000	-0.678275
794.304000	-1.042264
794.507000	-0.713082
794.709000	-0.407682
794.912000	-1.042797
795.115000	-1.435384
795.317000	-1.109595
795.520000	-0.861163
795.723000	-1.094329
795.925000	-1.514912
796.128000	-1.652450
796.331000	-1.081657
796.533000	-1.587564
796.736000	-0.956992
796.939000	-0.668339
797.141000	-1.070163
797.344000	-0.337039
797.547000	-0.120185
797.749000	-0.195581
797.952000	-0.986229
798.155000	-1.344511
798.357000	-1.521262
798.560000	-1.572252
798.763000	-0.757360
798.965000	-0.866669
799.168000	-0.877686
799.371000	-0.717245
799.573000	-1.086278
799.776000	-1.805206
799.978000	-1.708646
800.181000	-0.861969
800.384000	0.701647
800.586000	-0.003448
800.789000	-1.717852
800.992000	-1.587549
801.194000	-1.496144
801.397000	-1.612469
801.600000	-1.383621
801.802000	-0.125181
802.005000	-0.282554
802.208000	-1.743897
802.410000	-0.955962
802.613000	-0.591556
802.816000	-0.636181
803.018000	-1.439623
803.221000	-1.142197
803.424000	0.314890
803.626000	-0.260453
803.829000	-0.856726
804.032000	0.192471
804.234000	0.905047
804.437000	-0.629822
804.640000	-0.968970
804.842000	-1.024942
805.045000	-1.426210
805.248000	-1.104134
805.450000	-1.157128
805.653000	-1.128187
805.856000	-1.136015
806.058000	-0.049069
806.261000	-1.160406
806.464000	-1.188920
806.666000	-0.451117
806.869000	-0.904340
807.072000	-1.942651
807.274000	-2.302550
807.477000	-1.359115
807.679000	-0.963431
807.882000	-1.650106
808.085000	-1.204951
808.287000	-0.581633
808.490000	-1.320524
808.693000	-1.031744
808.895000	-0.845784
809.098000	-0.687064
809.301000	-0.745713
809.503000	-0.947032
809.706000	-0.060698
809.909000	0.109997
810.111000	0.024689
810.314000	-0.546304
810.517000	-1.123206
810.719000	-1.348956
810.922000	-0.952292
811.125000	0.177812
811.327000	0.255745
811.530000	-0.476837
811.735000	-1.112227
811.940000	-1.414162
812.146000	-1.148506
812.351000	-0.343414
812.556000	-0.665677
812.761000	-1.458593
812.967000	-0.494179
813.172000	-0.219404
813.377000	-0.819417
813.582000	-0.280218
813.788000	-0.580202
813.993000	-1.668850
814.198000	-0.936424
814.403000	-1.481186
814.609000	-0.562681
814.814000	-0.745607
815.019000	0.096031
815.224000	0.015997
815.429000	-1.201709
815.635000	-0.720867
815.840000	-0.913684
816.045000	-0.938154
816.250000	-0.360002
816.456000	-1.470995
816.661000	-2.480643
816.866000	-2.065593
817.071000	-2.033543
817.277000	-2.840975
817.482000	-1.884856
817.687000	-0.902586
817.892000	-0.803840
818.097000	-0.420876
818.303000	-0.150013
818.508000	0.453321
818.713000	7.434598
818.918000	3.931910
819.124000	0.037683
819.329000	-1.297162
819.534000	-1.364287
819.739000	-1.322224
819.945000	-1.497962
820.150000	-1.229471
820.355000	-0.943644
820.560000	-0.525911
820.766000	-0.794090
820.971000	-0.970427
821.176000	-2.317895
821.381000	-2.772591
821.586000	-1.904089
821.792000	-0.350954
821.997000	-0.839172
822.202000	-1.024493
822.407000	-1.691621
822.613000	-1.902433
822.818000	-1.305869
823.023000	-1.033705
823.228000	-1.271822
823.434000	-0.588054
823.639000	0.061801
823.844000	-0.889622
824.049000	-0.070868
824.255000	0.028883
824.460000	-0.763400
824.665000	-1.345632
824.870000	-0.239984
825.075000	-0.330115
825.281000	-0.319847
825.486000	0.720526
825.691000	-1.695115
825.896000	-2.869374
826.102000	-0.925960
826.307000	-0.951021
826.512000	-1.538312
826.717000	-1.198624
826.923000	-1.248102
827.128000	-0.939282
827.333000	-1.851221
827.538000	-0.704094
827.744000	-0.028045
827.949000	-1.112684
828.154000	-1.093770
828.359000	-0.262186
828.564000	-0.875202
828.770000	-1.008754
828.975000	-0.052091
829.180000	-0.611603
829.385000	-1.812703
829.591000	-1.366439
829.796000	-0.821079
830.001000	-0.978999
830.206000	-1.609469
830.412000	-1.583721
830.617000	-1.672119
830.822000	-0.405545
831.027000	-1.143659
831.232000	-1.674704
831.438000	-1.293745
831.643000	-0.741324
831.848000	-1.136858
832.053000	-0.980640
832.259000	-1.167343
832.464000	-3.191924
832.669000	-2.593632
832.874000	-1.906029
833.080000	-1.827095
833.285000	-0.030001
833.490000	-0.455338
833.695000	-1.918971
833.901000	-1.308105
834.106000	-1.766228
834.311000	-1.253303
834.516000	-0.961829
834.721000	-1.518873
834.927000	-0.211254
835.132000	-0.805371
835.337000	0.925488
835.542000	-0.252252
835.748000	-2.224335
835.953000	-0.356812
836.158000	-0.579609
836.363000	-0.975136
836.569000	-0.863821
836.774000	-1.659228
836.979000	-1.767226
837.184000	-2.302705
837.390000	-2.253692
837.595000	-1.592749
837.800000	-1.355742
838.005000	-1.095003
838.210000	-1.189684
838.416000	-1.815758
838.621000	-1.739364
838.826000	-1.548766
839.031000	-1.379818
839.237000	-2.116728
839.442000	-2.738021
839.647000	-2.747643
839.852000	-2.208695
840.058000	-1.926463
840.263000	-1.935926
840.468000	-2.354919
840.673000	-1.451466
840.878000	-1.355423
841.084000	-1.951459
841.289000	-1.423069
841.494000	1.294496
841.699000	1.312958
841.905000	0.136475
842.110000	0.065747
842.315000	-2.039645
842.520000	-0.964425
842.726000	-1.339652
842.931000	-2.212790
843.136000	-1.391553
843.341000	-2.667160
843.547000	-1.805428
843.752000	-1.298955
843.957000	-2.173866
844.162000	-2.154747
844.367000	-1.466180
844.573000	-0.791057
844.778000	-0.537798
844.983000	-0.553928
845.188000	-0.571656
845.394000	-2.184102
845.599000	-2.088834
845.804000	-1.720070
846.009000	-1.353472
846.215000	-2.226694
846.420000	-1.897188
846.625000	-1.077147
846.830000	-0.204288
847.036000	-1.721881
847.241000	-2.421471
847.446000	-0.359946
847.651000	-1.133814
847.856000	-2.609260
848.062000	-2.069838
848.267000	0.071934
848.472000	-1.324411
848.677000	-3.059058
848.883000	-1.183991
849.088000	0.342615
849.293000	-1.566957
849.498000	-2.105698
849.704000	-0.771913
849.909000	-1.509452
850.114000	-2.612841
850.319000	-0.855801
850.524000	-0.828278
850.730000	-0.897800
850.935000	-1.308178
851.140000	-0.528566
851.345000	-1.034147
851.551000	-0.824571
851.756000	-0.384896
851.961000	-1.424937
852.166000	-1.788696
852.372000	-1.528635
852.577000	-1.339830
852.782000	-1.601856
852.987000	-0.257845
853.193000	-0.729272
853.398000	-1.065660
853.603000	-2.331496
853.808000	-3.108045
854.013000	-1.601224
854.219000	-0.091762
854.424000	1.494357
854.629000	1.036050
854.834000	-1.418158
855.040000	-1.098146
855.245000	-0.766479
855.450000	-3.156296
855.655000	-4.122421
855.861000	-3.661355
856.066000	-2.340262
856.271000	-2.748173
856.476000	-0.624171
856.682000	-1.458466
856.887000	-4.534242
857.092000	-2.877937
857.297000	-0.096080
857.502000	-0.488477
857.708000	-1.328960
857.913000	-0.508171
858.118000	-1.108780
858.323000	-1.528599
858.529000	-1.182651
858.734000	-1.439725
858.939000	-1.898619
859.144000	-2.561956
859.350000	-3.201071
859.555000	-3.320924
859.760000	-1.148597
859.965000	0.176656
860.171000	-1.504371
860.376000	-0.638408
860.581000	-2.687001
860.786000	-5.239609
860.991000	-4.586821
861.197000	-3.402381
861.402000	-1.079695
861.607000	-1.663868
861.812000	-3.315592
862.018000	-3.024702
862.223000	-2.022800
862.428000	-1.135927
862.633000	-0.294633
862.839000	-1.047309
863.044000	-2.104364
863.249000	-2.795625
863.454000	-1.034865
863.659000	-1.660034
863.865000	-2.449686
864.070000	-2.573629
864.275000	-2.989933
864.480000	-2.570021
864.686000	-4.320294
864.891000	-3.769547
865.096000	-1.758180
865.301000	-0.824941
865.507000	-0.028061
865.712000	-0.669403
865.917000	-1.924299
866.122000	-0.857569
866.328000	-3.811789
866.533000	-3.565214
866.738000	-0.333775
866.943000	-0.721984
867.148000	0.319951
867.354000	-2.199356
867.559000	-3.523297
867.764000	-1.525081
867.969000	-0.781026
868.175000	-2.734772
868.380000	-3.538016
868.585000	-4.609175
868.790000	-1.855070
868.996000	-1.465982
869.201000	-3.460647
869.406000	-4.985767
869.611000	-3.842599
869.817000	-2.880874
870.022000	1.443755
870.227000	-0.715086
870.432000	-2.418305
870.637000	-1.365621
870.843000	-2.196823
871.048000	-2.176209
871.253000	-0.095427
871.458000	-1.643570
871.664000	-3.211516
871.869000	-3.782146
872.074000	-3.439416
872.279000	-2.110439
872.485000	-2.346685
872.690000	-2.736998
872.895000	-3.152474
873.100000	-3.381001
873.306000	-3.192195
873.511000	-1.918659
873.716000	-0.441986
873.921000	-2.554098
874.126000	-3.058872
874.332000	-2.031760
874.537000	-0.956232
874.742000	-1.298489
874.947000	-1.812648
875.153000	0.154027
875.358000	-0.945042
875.563000	-1.878984
875.768000	-5.148993
875.974000	-5.782841
876.179000	-1.355266
876.384000	-1.029693
876.589000	-2.834571
876.794000	-2.478279
877.000000	-3.367866
877.205000	-4.465630
877.410000	-1.983797
877.615000	-3.879167
877.821000	-5.610906
878.026000	-4.109572
878.231000	-4.739245
878.436000	-4.892971
878.642000	-3.777048
878.847000	-2.142803
879.052000	-0.719778
879.257000	-3.047375
879.463000	-4.164396
879.668000	-3.349349
879.873000	-0.978505
880.078000	-3.470501
880.283000	-5.308499
880.489000	-5.958186
880.694000	-4.980035
880.899000	-2.690891
881.104000	-1.203629
881.310000	0.751615
881.515000	-0.923221
881.720000	0.422042
881.925000	1.856207
882.131000	3.722874
882.336000	0.427714
882.541000	-3.464204
882.746000	-3.194228
882.952000	-3.816106
883.157000	-3.224505
883.362000	-3.491166
883.567000	-4.714670
883.772000	-4.811493
883.978000	-3.887396
884.183000	-2.059892
884.388000	-2.161283
884.593000	-4.287124
884.799000	0.229456
885.004000	-0.335517
885.209000	-2.528283
885.414000	-2.438688
885.620000	-4.657240
885.825000	-1.160362
886.030000	-1.048839
886.235000	-3.006451
886.440000	-2.698964
886.646000	-5.432543
886.851000	-5.152504
887.056000	-1.076410
887.261000	-1.610298
887.467000	-4.546339
887.672000	-1.996551
887.877000	-3.260942
888.082000	-5.195442
888.288000	-5.690138
888.493000	-8.014104
888.698000	-6.360703
888.903000	-2.731362
889.109000	-3.389808
889.314000	-0.560474
889.519000	-2.572984
889.724000	-0.674434
889.929000	-2.118003
890.135000	-2.933832
890.340000	-2.635086
890.545000	-4.411175
890.750000	-6.143728
890.956000	-4.347740
891.161000	-1.620733
891.366000	-3.943000
891.571000	-3.011242
891.777000	-2.248765
891.982000	-0.396343
892.187000	-0.903021
892.392000	-0.100756
892.598000	-0.250346
892.803000	-0.823825
893.008000	-3.406176
893.213000	-3.666796
893.418000	-3.933990
893.624000	-4.287247
893.829000	-6.928084
894.034000	-3.599097
894.239000	-1.845058
894.445000	-4.278910
894.650000	-4.331107
894.855000	-3.999157
895.060000	-4.237420
895.266000	-4.819127
895.471000	-6.055212
895.676000	-2.209020
895.881000	-1.884781
896.087000	-3.664172
896.292000	-3.939321
896.497000	-0.454583
896.702000	-3.125311
896.907000	-4.830609
897.113000	0.303423
897.318000	0.650767
897.523000	0.019004
897.728000	-2.302018
897.934000	-3.182014
898.139000	-3.254349
898.344000	-0.846896
898.549000	-2.432564
898.755000	-3.372934
898.960000	-4.368981
899.165000	-6.842611
899.370000	-2.821760
899.575000	0.838211
899.781000	-3.559377
899.986000	-4.610355
900.191000	-3.350970
900.396000	-3.851141
900.602000	-3.008876
900.807000	-3.901642
901.012000	-2.678763
901.217000	-1.095811
901.423000	-3.855896
901.628000	-5.796443
901.833000	-0.829274
902.038000	0.123303
902.244000	-4.214953
902.449000	-3.964909
902.654000	-4.562219
902.859000	-2.819598
903.064000	-0.535995
903.270000	-0.572852
903.475000	-4.907933
903.680000	-7.871220
903.885000	-6.913180
904.091000	-5.038200
904.296000	-6.976375
904.501000	-6.112503
904.706000	-4.772647
904.912000	-0.810056
905.117000	-2.193410
905.322000	-5.359636
905.527000	-4.861064
905.733000	-4.171447
905.938000	-4.307629
906.143000	-5.696174
906.348000	-7.967664
906.553000	-2.635015
906.759000	-1.099730
906.964000	-2.270525
907.169000	-3.152788
907.374000	-6.238681
907.580000	-4.830960
907.785000	-4.489905
907.990000	25.934886
908.195000	17.441219
908.401000	-1.380202
908.606000	-9.110776
908.811000	-10.824939
909.016000	-3.496629
909.221000	-3.076104
909.427000	-4.632535
909.632000	-6.544086
909.837000	-6.068608
910.042000	-6.769577
910.248000	-8.297949
910.453000	-4.684490
910.658000	-5.538259
910.863000	-5.287324
911.069000	-6.864941
911.274000	-2.949559
911.479000	-1.263564
911.684000	-7.367028
911.890000	-4.827063
912.095000	-5.042417
912.300000	-8.494889
912.506000	-7.106715
912.711000	-6.084364
912.917000	-3.267278
913.123000	-3.355804
913.328000	-2.644381
913.534000	-3.233659
913.740000	5.541033
913.946000	1.389989
914.151000	-6.974061
914.357000	-7.573572
914.563000	-2.747201
914.768000	-5.919141
914.974000	-8.403198
915.180000	-7.986888
915.385000	-7.155177
915.591000	-9.282510
915.797000	-4.895722
916.002000	-0.064844
916.208000	-3.199931
916.414000	-5.892123
916.620000	-6.558729
916.825000	-3.908201
917.031000	-5.505663
917.237000	-11.224194
917.442000	-5.967753
917.648000	-7.741264
917.854000	-9.174100
918.059000	-1.949752
918.265000	-1.417101
918.471000	-4.088744
918.676000	-7.021191
918.882000	-9.630371
919.088000	-8.660489
919.294000	-14.150641
919.499000	-8.987959
919.705000	-2.286929
919.911000	-4.100174
920.116000	-3.225467
920.322000	-9.829921
920.528000	-7.622480
920.733000	-8.666348
920.939000	-9.068161
921.145000	-8.891093
921.350000	-7.631083
921.556000	-6.201966
921.762000	-6.824169
921.968000	-7.163439
922.173000	-9.357699
922.379000	-11.715889
922.585000	-6.346210
922.790000	-6.903630
922.996000	-8.388510
923.202000	-8.879846
923.407000	-9.103600
923.613000	-7.993201
923.819000	-5.545199
924.024000	-6.071036
924.230000	-1.769680
924.436000	-4.730096
924.642000	4.341044
924.847000	0.266878
925.053000	-7.267721
925.259000	-11.456156
925.464000	-5.514285
925.670000	-5.860019
925.876000	-8.700351
926.081000	-9.340422
926.287000	-5.138210
926.493000	-3.957942
926.698000	-7.116780
926.904000	-4.422216
927.110000	-5.963973
927.316000	-6.536916
927.521000	0.282833
927.727000	-5.392225
927.933000	-7.672120
928.138000	-6.257729
928.344000	-13.590554
928.550000	-8.635808
928.755000	-3.509474
928.961000	-9.039571
929.167000	-9.353785
929.372000	-0.351183
929.578000	-1.142009
929.784000	-7.365000
929.990000	-9.922743
930.195000	-7.485059
930.401000	-7.138237
930.607000	-5.675936
930.812000	-4.373256
931.018000	-9.232833
931.224000	-14.953851
931.429000	-10.925800
931.635000	-13.949784
931.841000	-13.806497
932.046000	-10.621670
932.252000	-5.389185
932.458000	2.462712
932.664000	-3.411749
932.869000	-9.683935
933.075000	-11.708566
933.281000	-10.845138
933.486000	-3.831723
933.692000	-4.522944
933.898000	-9.768253
934.103000	-3.277491
934.309000	-8.820794
934.515000	-5.047185
934.720000	-3.255767
934.926000	-0.824733
935.132000	-1.539683
935.338000	-3.481765
935.543000	-11.018301
935.749000	-13.996520
935.955000	-16.783985
936.160000	-13.973403
936.366000	-4.570207
936.572000	-6.030942
936.777000	-3.794036
936.983000	-2.313312
937.189000	-5.422392
937.394000	-11.940117
937.600000	-3.183227
937.806000	3.224528
938.012000	-8.685448
938.217000	4.226762
938.423000	-1.157581
938.629000	-11.428105
938.834000	-16.023643
939.040000	-15.601908
939.246000	-9.141206
939.451000	-10.711862
939.657000	-8.074130
939.863000	-12.361930
940.068000	-4.856287
940.274000	-11.253916
940.480000	-7.923169
940.686000	-5.045042
940.891000	-7.586603
941.097000	18.137258
941.303000	4.598259
941.508000	-7.574227
941.714000	-5.482251
941.920000	-18.628906
942.125000	-9.492142
942.331000	-7.899666
942.537000	0.065417
942.742000	-1.696103
942.948000	-12.821749
943.154000	-15.006480
943.360000	-27.321786
943.565000	-13.077310
943.771000	-0.499034
943.977000	1.757213
944.182000	-18.261707
944.388000	-20.373846
944.594000	-3.593646
944.799000	3.884439
945.005000	-4.819719
945.211000	0.980485
945.416000	-2.708991
945.622000	-17.339769
945.828000	-13.772775
946.034000	-1.955422
946.239000	-1.966338
946.445000	-10.553550
946.651000	-21.430896
946.856000	-15.713678
947.062000	-0.047285
947.268000	-2.071317
947.473000	-17.498440
947.679000	-23.016348
947.885000	-7.165180
948.090000	-2.475883
948.296000	10.071049
948.502000	-2.116579
948.708000	-12.442241
948.913000	-15.445751
949.119000	-5.386654
949.325000	-12.841783
949.530000	-26.520623
949.736000	-27.791648
949.942000	-18.430548
950.147000	-19.310257
950.353000	-15.080498
950.559000	-10.035551
950.764000	10.527399
950.970000	4.209602
951.176000	-11.457258
951.382000	-16.292873
951.587000	-4.482313
951.793000	-0.052464
951.999000	-1.215386
952.204000	-14.544420
952.410000	-30.460035
952.616000	-15.201324
952.821000	-8.968063
953.027000	-17.527177
953.233000	-22.322504
953.438000	-24.208732
953.644000	-2.441080
953.850000	-6.425390
954.056000	-14.677181
954.261000	-11.663522
954.467000	-1.407232
954.673000	3.726764
954.878000	-6.828780
955.084000	-7.108535
955.290000	-23.481920
955.495000	-26.282637
955.701000	-21.989060
955.907000	-1.026640
956.112000	-1.026745
956.318000	5.033067
956.524000	2.169956
956.730000	-11.783387
956.935000	-16.212200
957.141000	-21.450629
957.347000	-10.768972
957.552000	-15.037970
957.758000	-31.038901
957.964000	-36.546293
958.169000	-1.507198
958.375000	-0.930380
958.581000	-15.835277
958.786000	-29.550840
958.992000	-34.640354
959.198000	-15.591442
959.404000	-7.053743
959.609000	-14.053110
959.815000	-20.489743
960.021000	-0.060615
960.226000	-2.965836
960.432000	-29.215898
960.638000	-25.286599
960.843000	-20.052083
961.049000	-19.361670
961.255000	-5.550044
961.460000	-17.749048
961.666000	-38.102425
961.872000	-22.100005
962.078000	-21.199092
962.283000	-32.658037
962.489000	-31.172562
962.695000	-21.005880
962.900000	-19.217442
963.106000	-17.292518
963.312000	-19.012985
963.517000	-22.491344
963.723000	-29.023102
963.929000	-10.010575
964.134000	1.446506
964.340000	-21.668167
964.546000	-24.284530
964.752000	-27.497341
964.957000	-34.172067
965.163000	-7.435923
965.369000	-7.711205
965.574000	-6.534280
965.780000	-11.031308
966.000000	-22.188478
966.220000	-14.362265
966.440000	-12.619842
966.661000	-6.293199
966.881000	-27.232010
967.101000	-42.199824
967.321000	-41.982828
967.541000	-15.319533
967.761000	-20.386676
967.981000	-12.855115
968.202000	-14.312671
968.422000	-2.588172
968.642000	-0.654680
968.862000	-6.172526
969.082000	-19.485184
969.302000	-9.078340
969.522000	-10.128668
969.743000	2.074390
969.963000	-18.481129
970.183000	-34.968305
970.403000	-33.766605
970.623000	-32.019459
970.843000	-6.488233
971.063000	-2.811597
971.284000	-27.949026
971.504000	-41.655024
971.724000	-19.599558
971.944000	-32.881581
972.164000	-40.725971
972.384000	-31.808118
972.604000	-50.430518
972.825000	-55.369589
973.045000	-42.441698
973.265000	16.612352
973.485000	10.342450
973.705000	-9.670583
973.925000	-16.531251
974.145000	-51.983886
974.365000	-20.725262
974.586000	-16.791868
974.806000	-36.971712
975.026000	-10.632654
975.246000	-26.910684
975.466000	-34.957307
975.686000	-14.395919
975.906000	-20.851809
976.127000	-49.975588
976.347000	-43.876156
976.567000	-13.295951
976.787000	-13.836502
977.007000	-26.847724
977.227000	-32.857464
977.447000	-34.004577
977.668000	-49.624008
977.888000	-35.932054
978.108000	-37.816284
978.328000	-22.158396
978.548000	0.688650
978.768000	1.241092
978.988000	-8.568586
979.209000	-18.630613
979.429000	-27.768096
979.649000	-15.559002
979.869000	-32.959131
980.089000	-49.496593
980.309000	-57.863623
980.529000	-61.637181
980.750000	-42.851208
980.970000	-55.561842
981.190000	-43.233527
981.410000	-43.623273
981.630000	-53.759015
981.850000	-38.108887
982.070000	-25.845813
982.291000	-50.141255
982.511000	-47.227497
982.731000	-16.275496
982.951000	-34.539995
983.171000	-39.755838
983.391000	-34.402434
983.611000	-8.649427
983.832000	-39.969759
984.052000	-60.882174
984.272000	-34.595815
984.492000	-25.282127
984.712000	-34.988800
984.932000	-55.828057
985.152000	-64.366372
985.373000	-57.896777
985.593000	-29.517600
985.813000	-41.998460
986.033000	-56.134118
986.253000	-8.733278
986.473000	0.922719
986.693000	-36.322355
986.914000	-52.166106
987.134000	-2.829953
987.354000	-44.897356
987.574000	184.055000
987.794000	120.471400
988.014000	-51.145246
988.234000	-39.021140
988.455000	-23.713435
988.675000	-18.849819
988.895000	-28.960201
989.115000	-50.194915
989.335000	-30.199373
989.555000	-9.035065
989.775000	-51.623610
989.995000	-46.956214
990.216000	-32.896339
990.436000	-36.499285
990.656000	-8.415858
990.876000	-46.918687
991.096000	-24.830870
991.316000	14.741744
991.536000	-30.166605
991.757000	-51.016930
991.977000	-88.446361
992.197000	-23.384441
992.417000	-39.986537
992.637000	-86.683897
992.857000	-105.777422
993.077000	-101.248898
993.298000	-59.859371
993.518000	-52.425783
993.738000	-92.802622
993.958000	-46.834656
994.178000	-46.660674
994.398000	-59.668119
994.618000	-101.339377
994.839000	-144.152024
995.059000	-53.986926
995.279000	6.655738
995.499000	-39.517939
995.719000	-26.385102
995.939000	-32.577622
996.159000	-47.301922
996.380000	-44.111991
996.600000	-98.602383
996.820000	-53.363078
997.040000	-15.422149
997.260000	-81.166076
997.480000	-59.664703
997.700000	-112.447175
997.921000	-63.524751
998.141000	23.650481
998.361000	-8.291716
998.581000	-64.716394
998.801000	-95.872967
999.021000	-76.718175
999.241000	-58.260453
999.462000	-87.647015
999.682000	-124.048129
999.902000	-72.455772
1000.122000	-96.679114
1000.342000	-142.304115
1000.562000	-79.047807
1000.782000	-107.472586
1001.003000	-1162.399323
