Wavelength	Irradiance
(nm)	(mW/cm2/nm)

294.396000	0.000000
294.577000	0.000000
294.757000	-0.000000
294.938000	-0.000000
295.118000	-0.000000
295.299000	0.000000
295.479000	-0.000000
295.660000	-0.000000
295.840000	-0.000000
296.021000	-0.000000
296.202000	-0.000000
296.382000	-0.000000
296.563000	-0.000000
296.743000	-0.000000
296.924000	0.000000
297.104000	-0.000000
297.285000	-0.000000
297.465000	-0.000000
297.646000	-0.000000
297.826000	-0.000000
298.007000	0.000000
298.187000	0.000000
298.368000	-0.000000
298.548000	0.000000
298.729000	0.000000
298.909000	-0.000000
299.090000	-0.000000
299.270000	-0.000000
299.451000	-0.000000
299.631000	-0.000000
299.812000	-0.000000
299.992000	0.000000
300.173000	0.000000
300.353000	-0.000000
300.534000	0.000000
300.714000	0.000000
300.895000	0.000000
301.075000	-0.000000
301.256000	0.000000
301.436000	-0.000000
301.617000	-0.000000
301.797000	-0.000000
301.978000	-0.000000
302.159000	0.000000
302.339000	0.000000
302.520000	-0.000000
302.700000	-0.000000
302.881000	0.000000
303.061000	0.000000
303.242000	0.000000
303.422000	0.000000
303.603000	-0.000000
303.783000	-0.000000
303.964000	-0.000000
304.144000	-0.000000
304.325000	-0.000000
304.505000	-0.000000
304.686000	-0.000000
304.866000	0.000000
305.047000	-0.000000
305.227000	-0.000000
305.408000	-0.000000
305.588000	-0.000000
305.769000	-0.000000
305.949000	-0.000000
306.130000	-0.000000
306.310000	-0.000000
306.491000	-0.000000
306.671000	0.000000
306.852000	-0.000000
307.032000	-0.000000
307.213000	-0.000000
307.393000	-0.000000
307.574000	0.000000
307.755000	0.000000
307.935000	0.000000
308.116000	-0.000000
308.296000	-0.000000
308.477000	0.000000
308.657000	0.000000
308.838000	0.000000
309.018000	0.000000
309.199000	-0.000000
309.379000	-0.000000
309.560000	0.000000
309.740000	-0.000000
309.921000	0.000000
310.101000	0.000000
310.282000	-0.000000
310.462000	-0.000000
310.643000	-0.000000
310.823000	-0.000000
311.004000	-0.000000
311.184000	-0.000000
311.365000	0.000000
311.545000	0.000000
311.726000	0.000000
311.906000	-0.000000
312.087000	0.000000
312.267000	-0.000000
312.448000	-0.000000
312.628000	-0.000000
312.809000	-0.000000
312.989000	-0.000000
313.170000	-0.000000
313.344000	-0.000000
313.518000	-0.000000
313.691000	-0.000000
313.865000	-0.000000
314.039000	-0.000000
314.213000	-0.000000
314.387000	-0.000000
314.560000	-0.000000
314.734000	-0.000000
314.908000	-0.000000
315.082000	-0.000000
315.255000	0.000000
315.429000	0.000000
315.603000	0.000000
315.777000	-0.000000
315.951000	0.000000
316.124000	-0.000000
316.298000	-0.000000
316.472000	-0.000000
316.646000	-0.000000
316.820000	-0.000000
316.993000	-0.000000
317.167000	-0.000000
317.341000	-0.000000
317.515000	-0.000000
317.688000	-0.000000
317.862000	-0.000000
318.036000	-0.000000
318.210000	-0.000000
318.384000	-0.000000
318.557000	-0.000000
318.731000	-0.000000
318.905000	0.000000
319.079000	0.000000
319.253000	-0.000000
319.426000	0.000000
319.600000	0.000000
319.774000	-0.000000
319.948000	-0.000000
320.122000	0.000000
320.295000	0.000000
320.469000	-0.000000
320.643000	-0.000000
320.817000	-0.000000
320.990000	-0.000000
321.164000	-0.000000
321.338000	-0.000000
321.512000	-0.000000
321.686000	-0.000000
321.859000	-0.000000
322.033000	-0.000000
322.207000	-0.000000
322.381000	-0.000000
322.555000	0.000000
322.728000	-0.000000
322.902000	-0.000000
323.076000	-0.000000
323.250000	-0.000000
323.423000	-0.000000
323.597000	-0.000000
323.771000	-0.000000
323.945000	-0.000000
324.119000	-0.000000
324.292000	0.000000
324.466000	-0.000000
324.640000	0.000000
324.814000	0.000000
324.988000	-0.000000
325.161000	-0.000000
325.335000	-0.000000
325.509000	-0.000000
325.683000	-0.000000
325.856000	-0.000000
326.030000	-0.000000
326.204000	-0.000000
326.378000	-0.000000
326.552000	-0.000000
326.725000	-0.000000
326.899000	-0.000000
327.073000	-0.000000
327.247000	-0.000000
327.421000	0.000000
327.594000	0.000000
327.768000	-0.000000
327.942000	-0.000000
328.116000	0.000000
328.289000	0.000000
328.463000	-0.000000
328.637000	0.000000
328.811000	-0.000000
328.985000	-0.000000
329.158000	-0.000000
329.332000	-0.000000
329.506000	0.000000
329.680000	-0.000000
329.854000	-0.000000
330.027000	-0.000000
330.201000	0.000000
330.375000	0.000000
330.549000	0.000000
330.723000	-0.000000
330.896000	-0.000000
331.070000	-0.000000
331.244000	-0.000000
331.418000	-0.000000
331.591000	-0.000000
331.765000	-0.000000
331.939000	-0.000000
332.113000	-0.000000
332.287000	-0.000000
332.460000	0.000000
332.634000	0.000000
332.808000	-0.000000
332.982000	-0.000000
333.156000	-0.000000
333.329000	-0.000000
333.503000	-0.000000
333.677000	-0.000000
333.851000	-0.000000
334.024000	-0.000000
334.198000	-0.000000
334.372000	-0.000000
334.546000	-0.000000
334.720000	-0.000000
334.893000	-0.000000
335.067000	-0.000000
335.241000	0.000000
335.415000	-0.000000
335.589000	-0.000000
335.762000	-0.000000
335.936000	-0.000000
336.110000	-0.000000
336.284000	-0.000000
336.458000	-0.000000
336.631000	-0.000000
336.805000	-0.000000
336.979000	-0.000000
337.153000	-0.000000
337.326000	-0.000000
337.500000	-0.000000
337.674000	-0.000000
337.848000	-0.000000
338.022000	-0.000000
338.195000	-0.000000
338.369000	-0.000000
338.543000	-0.000000
338.717000	-0.000000
338.891000	0.000000
339.064000	0.000000
339.238000	-0.000000
339.412000	-0.000000
339.586000	-0.000000
339.759000	-0.000000
339.933000	-0.000000
340.107000	0.000000
340.281000	0.000000
340.455000	-0.000000
340.628000	-0.000000
340.802000	-0.000000
340.976000	-0.000000
341.150000	-0.000000
341.324000	-0.000000
341.497000	-0.000000
341.671000	-0.000000
341.845000	-0.000000
342.019000	-0.000000
342.192000	-0.000000
342.366000	-0.000000
342.540000	-0.000000
342.714000	-0.000000
342.888000	-0.000000
343.061000	-0.000000
343.235000	-0.000000
343.409000	-0.000000
343.583000	-0.000000
343.757000	-0.000000
343.930000	-0.000000
344.104000	-0.000000
344.278000	0.000000
344.452000	0.000000
344.626000	-0.000000
344.799000	-0.000000
344.973000	-0.000000
345.147000	-0.000000
345.321000	-0.000000
345.494000	-0.000000
345.668000	0.000000
345.842000	0.000000
346.016000	-0.000000
346.190000	0.000000
346.363000	0.000000
346.537000	-0.000000
346.711000	-0.000000
346.885000	-0.000000
347.059000	-0.000000
347.232000	0.000000
347.406000	0.000000
347.580000	-0.000000
347.754000	-0.000000
347.927000	0.000000
348.101000	0.000000
348.275000	-0.000000
348.449000	-0.000000
348.623000	-0.000000
348.796000	0.000000
348.970000	0.000000
349.144000	-0.000000
349.318000	-0.000000
349.492000	-0.000000
349.665000	-0.000000
349.839000	-0.000000
350.013000	-0.000000
350.187000	-0.000000
350.361000	-0.000000
350.534000	-0.000000
350.708000	-0.000000
350.882000	-0.000000
351.056000	0.000000
351.229000	-0.000000
351.403000	-0.000000
351.577000	-0.000000
351.751000	-0.000000
351.925000	-0.000000
352.098000	-0.000000
352.272000	-0.000000
352.446000	-0.000000
352.620000	-0.000000
352.794000	-0.000000
352.967000	-0.000000
353.141000	0.000000
353.315000	0.000000
353.489000	-0.000000
353.662000	-0.000000
353.836000	-0.000000
354.010000	-0.000000
354.184000	-0.000000
354.358000	-0.000000
354.531000	-0.000000
354.705000	-0.000000
354.879000	-0.000000
355.053000	-0.000000
355.227000	0.000000
355.400000	-0.000000
355.574000	0.000000
355.748000	0.000000
355.922000	-0.000000
356.095000	-0.000000
356.269000	-0.000000
356.443000	-0.000000
356.617000	-0.000000
356.791000	-0.000000
356.964000	-0.000000
357.138000	-0.000000
357.312000	-0.000000
357.486000	-0.000000
357.660000	-0.000000
357.833000	-0.000000
358.007000	-0.000000
358.181000	-0.000000
358.355000	-0.000000
358.529000	-0.000000
358.702000	-0.000000
358.876000	-0.000000
359.050000	-0.000000
359.224000	-0.000000
359.397000	-0.000000
359.571000	-0.000000
359.745000	-0.000000
359.919000	-0.000000
360.093000	-0.096862
360.266000	0.039362
360.440000	0.112874
360.614000	0.149459
360.788000	0.011754
360.962000	-0.191393
361.135000	-0.083047
361.309000	-0.217278
361.483000	-0.366321
361.657000	-0.338209
361.830000	-0.270859
362.004000	-0.026340
362.178000	-0.369292
362.352000	-0.280157
362.526000	-0.074619
362.699000	-0.059362
362.873000	-0.424478
363.047000	-0.406537
363.221000	-0.330270
363.395000	-0.187560
363.568000	-0.243826
363.742000	-0.262901
363.916000	-0.232656
364.090000	-0.305616
364.263000	-0.343044
364.437000	-0.433819
364.611000	-0.058457
364.785000	-0.089971
364.959000	-0.328851
365.132000	-0.319240
365.306000	-0.313468
365.480000	-0.134913
365.656000	-0.243238
365.831000	-0.233307
366.007000	-0.173865
366.183000	-0.182683
366.358000	-0.321724
366.534000	-0.220473
366.710000	-0.340992
366.886000	-0.256342
367.061000	-0.115918
367.237000	0.039789
367.413000	-0.100944
367.588000	-0.342147
367.764000	-0.336939
367.940000	-0.359178
368.115000	-0.327092
368.291000	-0.373575
368.467000	-0.252335
368.643000	0.081488
368.818000	-0.296433
368.994000	-0.381180
369.170000	-0.264480
369.345000	-0.259470
369.521000	-0.278716
369.697000	-0.201837
369.872000	-0.268783
370.048000	-0.392163
370.224000	-0.337533
370.399000	-0.517655
370.575000	-0.380957
370.751000	-0.477325
370.927000	-0.482991
371.102000	-0.468723
371.278000	-0.383324
371.454000	-0.295419
371.629000	-0.030752
371.805000	-0.035717
371.981000	0.118028
372.156000	0.257743
372.332000	0.036112
372.508000	-0.070738
372.683000	-0.122497
372.859000	-0.228471
373.035000	-0.215748
373.211000	0.230190
373.386000	-0.028611
373.562000	-0.416984
373.738000	-0.479824
373.913000	-0.653285
374.089000	-0.458772
374.265000	-0.116992
374.440000	-0.067045
374.616000	0.022130
374.792000	-0.225936
374.968000	0.170255
375.143000	-0.068106
375.319000	-0.319285
375.495000	-0.379783
375.670000	-0.221989
375.846000	-0.123599
376.022000	-0.307290
376.197000	-0.246974
376.373000	-0.445458
376.549000	-0.471014
376.724000	-0.477736
376.900000	-0.339886
377.076000	-0.200476
377.252000	0.054872
377.427000	0.181712
377.603000	-0.254374
377.779000	-0.266785
377.954000	-0.381600
378.130000	-0.220962
378.306000	-0.149797
378.481000	-0.151615
378.657000	-0.218638
378.833000	-0.273865
379.009000	-0.164963
379.184000	-0.095894
379.360000	-0.141009
379.536000	-0.132424
379.711000	-0.218919
379.887000	-0.298757
380.063000	-0.382595
380.238000	-0.404758
380.414000	-0.109627
380.590000	-0.320830
380.765000	-0.361248
380.941000	-0.106706
381.117000	-0.082092
381.293000	-0.201289
381.468000	-0.335994
381.644000	-0.206808
381.820000	-0.151824
381.995000	-0.068542
382.171000	0.208544
382.347000	0.118364
382.522000	-0.370501
382.698000	-0.041601
382.874000	0.068911
383.050000	-0.331854
383.225000	0.025820
383.401000	0.209904
383.577000	-0.171408
383.752000	-0.292443
383.928000	-0.191582
384.104000	-0.105895
384.279000	-0.186749
384.455000	-0.167203
384.631000	-0.248432
384.806000	-0.439428
384.982000	-0.181951
385.158000	-0.270112
385.334000	-0.074134
385.509000	-0.143415
385.685000	-0.500794
385.861000	-0.285817
386.036000	-0.381954
386.212000	-0.554354
386.388000	-0.326756
386.563000	-0.316703
386.739000	-0.372481
386.915000	-0.575125
387.090000	-0.326902
387.266000	-0.093929
387.442000	-0.017431
387.618000	-0.121527
387.793000	-0.378227
387.969000	-0.526095
388.145000	-0.374569
388.320000	-0.373262
388.496000	-0.378727
388.672000	-0.554703
388.847000	-0.182238
389.023000	-0.164429
389.199000	-0.446729
389.375000	-0.261677
389.550000	-0.336690
389.726000	-0.199532
389.902000	-0.389046
390.077000	-0.178784
390.253000	-0.113641
390.429000	-0.270505
390.604000	-0.228679
390.780000	-0.159724
390.956000	-0.346449
391.131000	-0.364315
391.307000	-0.009966
391.483000	-0.206890
391.659000	-0.358653
391.834000	-0.141873
392.010000	-0.289602
392.186000	-0.363944
392.361000	-0.306762
392.537000	-0.402556
392.713000	0.010714
392.888000	0.273265
393.064000	-0.080876
393.240000	-0.309202
393.416000	-0.348183
393.591000	-0.442204
393.767000	-0.510161
393.943000	-0.401783
394.118000	-0.000676
394.294000	0.141203
394.470000	-0.063569
394.645000	0.053067
394.821000	0.296603
394.997000	-0.061099
395.172000	-0.103076
395.348000	-0.261655
395.524000	-0.558280
395.700000	-0.404903
395.875000	-0.192927
396.051000	-0.201503
396.227000	-0.236358
396.402000	-0.289025
396.578000	-0.185725
396.754000	-0.346595
396.929000	-0.258950
397.105000	-0.040338
397.281000	-0.132877
397.457000	-0.299475
397.632000	-0.270231
397.808000	-0.481987
397.984000	-0.647960
398.159000	-0.561175
398.335000	-0.366931
398.511000	0.019046
398.686000	-0.204039
398.862000	-0.404670
399.038000	-0.425293
399.213000	-0.192562
399.389000	-0.493718
399.565000	-0.158768
399.741000	0.062095
399.916000	0.008083
400.092000	0.188469
400.268000	-0.166652
400.443000	-0.314807
400.619000	0.062496
400.795000	-0.031253
400.970000	-0.283166
401.146000	-0.314585
401.322000	-0.033350
401.497000	0.387049
401.673000	0.102242
401.849000	-0.288689
402.025000	-0.109294
402.200000	-0.208675
402.376000	-0.349372
402.552000	0.110269
402.727000	-0.035285
402.903000	-0.348440
403.079000	-0.242753
403.254000	-0.039592
403.430000	-0.114545
403.606000	-0.170703
403.782000	-0.174789
403.957000	-0.369328
404.133000	-0.538887
404.309000	-0.326950
404.484000	-0.123380
404.660000	-0.115087
404.841000	-0.238309
405.023000	0.029438
405.204000	-0.052369
405.385000	-0.422818
405.566000	-0.414451
405.748000	-0.257623
405.929000	-0.057560
406.110000	-0.097997
406.292000	-0.221236
406.473000	-0.202460
406.654000	-0.418309
406.835000	-0.211998
407.017000	-0.224089
407.198000	-0.198219
407.379000	-0.193435
407.560000	-0.191915
407.742000	-0.174128
407.923000	-0.123406
408.104000	-0.345738
408.286000	-0.240222
408.467000	-0.171345
408.648000	-0.396617
408.829000	-0.431481
409.011000	-0.269719
409.192000	-0.452999
409.373000	-0.216881
409.555000	-0.107710
409.736000	-0.172925
409.917000	-0.273908
410.098000	-0.250887
410.280000	-0.141695
410.461000	-0.135138
410.642000	-0.145915
410.823000	0.066722
411.005000	0.005690
411.186000	-0.236827
411.367000	-0.296131
411.549000	-0.304354
411.730000	-0.122930
411.911000	0.011999
412.092000	-0.158036
412.274000	-0.204753
412.455000	-0.148821
412.636000	-0.151046
412.818000	-0.331480
412.999000	-0.387107
413.180000	-0.341622
413.361000	-0.332459
413.543000	-0.355593
413.724000	-0.425081
413.905000	-0.387824
414.087000	-0.394860
414.268000	-0.409002
414.449000	-0.401542
414.630000	-0.450575
414.812000	-0.560893
414.993000	-0.235459
415.174000	-0.070079
415.355000	-0.271974
415.537000	-0.522507
415.718000	-0.211635
415.899000	-0.286582
416.081000	-0.401355
416.262000	-0.195495
416.443000	-0.340802
416.624000	-0.337994
416.806000	-0.259701
416.987000	-0.096202
417.168000	-0.146169
417.350000	-0.356342
417.531000	-0.422508
417.712000	-0.344127
417.893000	-0.113060
418.075000	-0.016605
418.256000	-0.293544
418.437000	-0.234290
418.618000	-0.127061
418.800000	-0.070746
418.981000	-0.253858
419.162000	-0.222504
419.344000	-0.000598
419.525000	-0.108878
419.706000	-0.233453
419.887000	-0.092753
420.069000	0.061437
420.250000	-0.016606
420.431000	-0.086419
420.613000	-0.128939
420.794000	-0.386343
420.975000	-0.060245
421.156000	-0.211764
421.338000	-0.291212
421.519000	-0.295133
421.700000	-0.341916
421.882000	-0.339860
422.063000	-0.171803
422.244000	0.334144
422.425000	0.084899
422.607000	-0.307990
422.788000	-0.298563
422.969000	-0.379906
423.150000	-0.416135
423.332000	-0.460533
423.513000	-0.231299
423.694000	-0.202525
423.876000	-0.205898
424.057000	-0.158085
424.238000	-0.048624
424.419000	0.001405
424.601000	-0.167148
424.782000	-0.162970
424.963000	-0.020475
425.145000	-0.148105
425.326000	-0.129606
425.507000	-0.075905
425.688000	-0.169912
425.870000	-0.358577
426.051000	-0.427627
426.232000	-0.322332
426.413000	-0.304251
426.595000	-0.338428
426.776000	-0.413753
426.957000	-0.369655
427.139000	-0.233012
427.320000	-0.184161
427.501000	-0.070707
427.682000	-0.102253
427.864000	-0.102195
428.045000	0.027371
428.226000	-0.040703
428.408000	-0.387211
428.589000	-0.210036
428.770000	-0.153836
428.951000	-0.280727
429.133000	-0.406662
429.314000	-0.202353
429.495000	-0.219425
429.677000	-0.249879
429.858000	-0.254111
430.039000	-0.248460
430.220000	-0.153307
430.402000	-0.067813
430.583000	-0.307757
430.764000	-0.267056
430.945000	-0.133096
431.127000	-0.037896
431.308000	-0.201903
431.489000	-0.022208
431.671000	0.027036
431.852000	-0.139763
432.033000	-0.208393
432.214000	-0.117982
432.396000	-0.039614
432.577000	-0.235273
432.758000	-0.426106
432.940000	-0.347298
433.121000	-0.233439
433.302000	-0.199512
433.483000	-0.041458
433.665000	0.013048
433.846000	-0.055102
434.027000	-0.182458
434.208000	-0.274971
434.390000	-0.326411
434.571000	0.077029
434.752000	0.471283
434.934000	0.235022
435.115000	0.105035
435.296000	0.103082
435.477000	-0.040767
435.659000	-0.227826
435.840000	-0.110747
436.026000	-0.125571
436.211000	-0.274894
436.397000	-0.473635
436.582000	-0.332295
436.768000	-0.153110
436.953000	-0.271388
437.139000	-0.250154
437.325000	0.124621
437.510000	0.040538
437.696000	0.176442
437.881000	0.140819
438.067000	-0.220653
438.252000	-0.196756
438.438000	-0.204016
438.624000	-0.209574
438.809000	-0.171875
438.995000	-0.081513
439.180000	-0.156470
439.366000	-0.225940
439.551000	-0.254918
439.737000	-0.166740
439.923000	-0.073695
440.108000	-0.186827
440.294000	-0.155304
440.479000	-0.024129
440.665000	0.049927
440.850000	-0.038179
441.036000	-0.075993
441.222000	-0.123221
441.407000	-0.227083
441.593000	-0.113321
441.778000	-0.004108
441.964000	0.055067
442.149000	-0.266783
442.335000	-0.311668
442.521000	-0.165696
442.706000	-0.018218
442.892000	-0.079952
443.077000	-0.168762
443.263000	-0.093994
443.448000	-0.140971
443.634000	-0.216613
443.820000	0.086757
444.005000	-0.019713
444.191000	-0.278473
444.376000	-0.261505
444.562000	0.110152
444.747000	0.100298
444.933000	0.006413
445.119000	-0.130205
445.304000	-0.238697
445.490000	-0.064403
445.675000	-0.060922
445.861000	-0.211631
446.046000	-0.240521
446.232000	-0.136734
446.418000	-0.057354
446.603000	-0.083180
446.789000	-0.055566
446.974000	-0.093694
447.160000	-0.344373
447.345000	-0.277576
447.531000	-0.249993
447.717000	-0.074443
447.902000	-0.009150
448.088000	0.037243
448.273000	-0.084178
448.459000	-0.117994
448.644000	-0.191312
448.830000	-0.298043
449.016000	-0.376387
449.201000	-0.278607
449.387000	-0.128758
449.572000	-0.034608
449.758000	-0.145326
449.943000	-0.217191
450.129000	-0.228221
450.315000	-0.236272
450.500000	-0.268732
450.686000	-0.175685
450.871000	-0.306936
451.057000	-0.182351
451.243000	-0.171955
451.428000	-0.139891
451.614000	-0.109036
451.799000	-0.164898
451.985000	0.002880
452.170000	0.057033
452.356000	-0.169624
452.542000	-0.222316
452.727000	-0.052830
452.913000	-0.145903
453.098000	0.016398
453.284000	0.175236
453.469000	0.004568
453.655000	0.158250
453.841000	0.077061
454.026000	-0.144886
454.212000	-0.116012
454.397000	-0.106111
454.583000	-0.260910
454.768000	-0.335165
454.954000	-0.092438
455.140000	-0.003838
455.325000	-0.198626
455.511000	-0.351835
455.696000	-0.294980
455.882000	-0.125708
456.067000	0.091361
456.253000	-0.107403
456.439000	-0.239323
456.624000	-0.236871
456.810000	-0.219620
456.995000	-0.228228
457.181000	-0.305545
457.366000	-0.087915
457.552000	-0.080983
457.738000	-0.020182
457.923000	-0.025149
458.109000	0.162727
458.294000	0.065388
458.480000	-0.000495
458.665000	-0.051463
458.851000	-0.162979
459.037000	-0.351018
459.222000	-0.214083
459.408000	-0.170064
459.593000	-0.107582
459.779000	0.018924
459.964000	0.122657
460.150000	0.290062
460.336000	0.197340
460.521000	-0.024638
460.707000	-0.164353
460.892000	-0.273068
461.078000	-0.032626
461.263000	0.045921
461.449000	-0.122517
461.635000	-0.128802
461.820000	-0.090125
462.006000	0.037777
462.191000	-0.022710
462.377000	-0.249078
462.562000	0.059887
462.748000	0.248288
462.934000	-0.160698
463.119000	-0.327335
463.305000	-0.099527
463.490000	-0.147550
463.676000	-0.102434
463.861000	-0.148572
464.047000	-0.212495
464.233000	-0.114365
464.418000	-0.143853
464.604000	-0.246177
464.789000	-0.020698
464.975000	0.042972
465.160000	-0.120119
465.346000	-0.132476
465.532000	-0.224433
465.717000	-0.222516
465.903000	-0.002015
466.088000	-0.065498
466.274000	-0.234621
466.459000	-0.244146
466.645000	0.107647
466.831000	0.060929
467.016000	0.089942
467.202000	-0.008157
467.387000	-0.130915
467.573000	-0.278658
467.758000	0.005632
467.944000	-0.105434
468.130000	-0.240556
468.315000	-0.087675
468.501000	0.084923
468.686000	0.010190
468.872000	-0.014150
469.057000	0.013233
469.243000	-0.067477
469.429000	-0.108523
469.614000	-0.188739
469.800000	-0.232780
469.985000	-0.097333
470.171000	-0.004977
470.356000	-0.115494
470.542000	-0.041482
470.728000	-0.015597
470.913000	-0.071268
471.099000	0.028156
471.284000	-0.076275
471.470000	-0.124981
471.655000	-0.103737
471.841000	-0.144286
472.027000	-0.196222
472.212000	0.038735
472.398000	0.135640
472.583000	-0.023161
472.769000	-0.074768
472.954000	-0.067081
473.140000	-0.207015
473.326000	-0.251062
473.511000	0.064333
473.697000	0.065917
473.882000	-0.094361
474.068000	-0.170416
474.253000	-0.246747
474.439000	-0.169955
474.625000	-0.089581
474.810000	-0.073016
474.996000	-0.068481
475.181000	-0.227877
475.367000	-0.059252
475.552000	0.163303
475.738000	-0.158765
475.924000	-0.172723
476.109000	-0.024622
476.295000	-0.153098
476.480000	-0.129049
476.666000	-0.118279
476.851000	-0.097079
477.037000	-0.085446
477.223000	-0.178837
477.408000	-0.245420
477.594000	-0.307128
477.779000	-0.176056
477.965000	-0.157946
478.151000	-0.286605
478.336000	-0.150482
478.522000	-0.186406
478.707000	-0.254411
478.893000	-0.147388
479.078000	-0.251012
479.264000	-0.238925
479.450000	-0.202552
479.635000	-0.085433
479.821000	-0.181351
480.006000	-0.102227
480.192000	-0.115788
480.377000	-0.108435
480.563000	-0.088578
480.749000	-0.264993
480.934000	-0.273822
481.120000	-0.133610
481.305000	-0.033696
481.491000	-0.059626
481.676000	-0.026307
481.862000	0.007163
482.048000	-0.118695
482.233000	-0.106442
482.419000	-0.153726
482.604000	-0.216166
482.790000	-0.223766
482.975000	-0.173796
483.161000	-0.008035
483.347000	-0.033752
483.532000	-0.076147
483.718000	-0.292075
483.903000	-0.240772
484.089000	-0.190120
484.274000	-0.273142
484.460000	-0.152252
484.646000	-0.143156
484.831000	-0.267833
485.017000	-0.182185
485.202000	-0.136493
485.388000	0.075074
485.573000	0.083972
485.759000	-0.134967
485.945000	-0.015571
486.130000	-0.148488
486.316000	-0.140990
486.501000	-0.039638
486.687000	-0.227710
486.872000	-0.280639
487.058000	-0.086373
487.244000	-0.075869
487.429000	-0.239578
487.615000	-0.102738
487.800000	0.007069
487.986000	-0.112818
488.171000	-0.039495
488.357000	-0.085757
488.543000	-0.092901
488.728000	-0.004922
488.914000	-0.054183
489.099000	-0.169014
489.285000	-0.162930
489.470000	0.021858
489.656000	0.015922
489.842000	0.011414
490.027000	0.080839
490.213000	-0.095185
490.398000	-0.347703
490.584000	-0.096568
490.769000	-0.087695
490.955000	-0.021111
491.141000	-0.003388
491.326000	-0.072366
491.512000	0.078788
491.697000	-0.006296
491.883000	-0.173284
492.068000	-0.217254
492.254000	-0.158938
492.440000	-0.085509
492.625000	-0.143748
492.811000	-0.174105
492.996000	-0.076221
493.182000	-0.052734
493.367000	-0.229166
493.553000	-0.331239
493.739000	-0.228885
493.924000	-0.118434
494.110000	-0.112250
494.295000	-0.233518
494.481000	-0.135239
494.666000	-0.070061
494.852000	0.057494
495.038000	-0.118944
495.223000	-0.258073
495.409000	-0.180935
495.594000	-0.201484
495.780000	-0.176434
495.965000	-0.206939
496.151000	0.022645
496.337000	0.086028
496.522000	-0.195649
496.708000	-0.122887
496.893000	0.032701
497.079000	-0.129754
497.264000	-0.130941
497.450000	-0.080776
497.636000	0.003877
497.821000	-0.153687
498.007000	0.039676
498.192000	0.071452
498.378000	-0.080799
498.563000	-0.132507
498.749000	-0.105338
498.935000	-0.116658
499.120000	-0.007587
499.306000	-0.195382
499.491000	-0.217728
499.677000	-0.107616
499.862000	-0.011907
500.048000	0.054179
500.234000	-0.067803
500.419000	-0.128242
500.605000	0.009630
500.790000	-0.069348
500.976000	-0.190258
501.161000	-0.263529
501.347000	-0.078063
501.533000	0.016831
501.718000	-0.116885
501.904000	-0.158948
502.089000	-0.033627
502.275000	0.024039
502.460000	-0.093719
502.646000	-0.060780
502.832000	-0.024871
503.017000	-0.039327
503.203000	-0.241341
503.388000	-0.280963
503.574000	-0.079756
503.759000	-0.053781
503.945000	-0.026431
504.131000	-0.081314
504.316000	-0.128898
504.502000	-0.095735
504.687000	-0.111917
504.873000	-0.239460
505.058000	-0.284332
505.244000	-0.288608
505.430000	-0.229668
505.615000	-0.132630
505.801000	-0.065925
505.986000	-0.223470
506.172000	-0.116368
506.358000	-0.070154
506.543000	-0.113667
506.729000	0.041688
506.914000	-0.010627
507.100000	0.133948
507.285000	-0.080914
507.471000	-0.199210
507.657000	0.041942
507.842000	-0.090918
508.028000	-0.251618
508.213000	-0.199543
508.399000	-0.167682
508.584000	-0.060649
508.770000	-0.158757
508.956000	-0.194090
509.141000	-0.147014
509.327000	-0.073879
509.512000	-0.102846
509.698000	-0.108863
509.883000	-0.054803
510.069000	-0.127139
510.255000	-0.109509
510.440000	-0.069800
510.626000	-0.146461
510.811000	-0.202800
510.997000	-0.097950
511.182000	0.154497
511.368000	0.051260
511.554000	-0.282758
511.739000	-0.226444
511.925000	-0.038873
512.110000	-0.066893
512.296000	0.073574
512.481000	0.106013
512.667000	0.011397
512.853000	-0.178094
513.038000	-0.126457
513.224000	-0.127970
513.409000	-0.203575
513.595000	-0.148955
513.780000	-0.315124
513.966000	-0.225519
514.152000	-0.219623
514.337000	-0.243416
514.523000	-0.176763
514.708000	-0.101302
514.894000	-0.082246
515.079000	-0.216739
515.265000	-0.192213
515.451000	-0.149164
515.636000	-0.214443
515.822000	-0.153704
516.007000	-0.266830
516.193000	-0.089649
516.378000	0.014446
516.564000	-0.067365
516.750000	-0.034661
516.935000	0.030809
517.121000	-0.000446
517.306000	0.091898
517.492000	0.039828
517.677000	-0.226925
517.863000	-0.250811
518.049000	-0.103307
518.234000	-0.161324
518.420000	-0.034751
518.605000	0.139701
518.791000	0.091945
518.976000	-0.091712
519.162000	-0.205039
519.348000	-0.057208
519.533000	-0.076515
519.719000	0.110036
519.904000	-0.000448
520.090000	-0.049673
520.275000	0.144342
520.461000	0.101254
520.647000	-0.108114
520.832000	-0.286835
521.018000	-0.161964
521.203000	-0.127150
521.389000	-0.299843
521.574000	-0.221125
521.760000	-0.079579
521.946000	-0.063347
522.131000	-0.184810
522.317000	-0.202484
522.502000	-0.227827
522.688000	-0.097726
522.873000	-0.123284
523.059000	-0.172840
523.245000	-0.172679
523.430000	-0.267369
523.616000	-0.204331
523.801000	-0.303675
523.987000	-0.236549
524.172000	-0.084655
524.358000	-0.038058
524.544000	-0.104077
524.729000	-0.010934
524.915000	0.046094
525.100000	-0.082996
525.286000	-0.065082
525.471000	-0.086369
525.657000	-0.038174
525.843000	-0.234601
526.028000	-0.097202
526.214000	-0.147033
526.399000	-0.268698
526.585000	-0.303616
526.770000	-0.332377
526.956000	-0.226848
527.142000	-0.269343
527.327000	-0.096272
527.513000	-0.189281
527.698000	-0.221507
527.884000	-0.199363
528.069000	-0.206597
528.255000	-0.078435
528.441000	-0.173438
528.626000	-0.147867
528.812000	0.119211
528.997000	-0.055806
529.183000	-0.201768
529.368000	-0.139408
529.554000	-0.119654
529.740000	-0.124648
529.925000	-0.165043
530.111000	-0.148127
530.296000	-0.098534
530.482000	-0.031677
530.667000	-0.101939
530.853000	-0.031791
531.039000	-0.110336
531.224000	-0.057279
531.410000	0.013724
531.595000	-0.054157
531.781000	0.018476
531.967000	-0.164038
532.152000	-0.016407
532.338000	-0.072304
532.523000	-0.225958
532.709000	-0.284575
532.894000	-0.177908
533.080000	-0.107053
533.266000	-0.231558
533.451000	-0.261613
533.637000	-0.247818
533.822000	-0.024995
534.008000	-0.170241
534.193000	-0.185617
534.379000	-0.079413
534.565000	-0.140813
534.750000	-0.187728
534.936000	0.032765
535.121000	-0.145573
535.307000	-0.079009
535.492000	-0.033963
535.678000	-0.246234
535.864000	-0.157808
536.049000	0.128778
536.235000	-0.070336
536.420000	-0.077501
536.606000	-0.156648
536.791000	-0.271489
536.977000	-0.260057
537.163000	-0.035261
537.348000	-0.035467
537.534000	0.018820
537.719000	-0.148641
537.905000	-0.301448
538.090000	-0.053846
538.276000	-0.002318
538.462000	-0.016639
538.647000	0.031797
538.833000	-0.099886
539.018000	-0.002359
539.204000	-0.036864
539.389000	-0.210814
539.575000	0.100097
539.761000	0.056459
539.946000	-0.231521
540.132000	-0.098867
540.317000	-0.225650
540.503000	-0.050895
540.688000	-0.006191
540.874000	0.161263
541.060000	0.306054
541.245000	0.109049
541.431000	-0.089733
541.616000	-0.011984
541.802000	-0.057689
541.987000	-0.012029
542.173000	0.056925
542.359000	-0.069657
542.544000	0.043496
542.730000	-0.106384
542.915000	-0.123996
543.101000	0.074672
543.286000	-0.106924
543.472000	-0.218491
543.658000	-0.084306
543.843000	-0.047429
544.029000	0.128646
544.214000	0.009215
544.400000	-0.328375
544.585000	-0.183531
544.771000	-0.140714
544.957000	0.044896
545.142000	0.163700
545.328000	0.197870
545.513000	0.255901
545.699000	0.249017
545.884000	0.113303
546.070000	0.023391
546.261000	-0.004615
546.451000	-0.167659
546.642000	-0.365536
546.833000	-0.222770
547.023000	-0.299449
547.214000	-0.268222
547.405000	-0.065472
547.595000	0.194235
547.786000	0.107373
547.977000	-0.090504
548.167000	-0.276649
548.358000	-0.257333
548.549000	0.143672
548.740000	-0.004741
548.930000	-0.309920
549.121000	-0.211550
549.312000	-0.291241
549.502000	-0.423039
549.693000	-0.245967
549.884000	-0.098375
550.074000	-0.025672
550.265000	-0.245403
550.456000	-0.145334
550.646000	-0.084717
550.837000	-0.112083
551.028000	-0.213307
551.218000	-0.053260
551.409000	-0.231098
551.600000	-0.269386
551.790000	-0.081368
551.981000	-0.283182
552.172000	-0.275196
552.362000	0.101479
552.553000	0.187524
552.744000	-0.028420
552.934000	-0.141794
553.125000	-0.210606
553.316000	-0.275056
553.506000	0.091731
553.697000	-0.061022
553.888000	-0.063068
554.079000	0.126450
554.269000	0.133046
554.460000	-0.216826
554.651000	-0.281969
554.841000	-0.410105
555.032000	-0.330452
555.223000	-0.239658
555.413000	-0.123950
555.604000	-0.128820
555.795000	-0.133515
555.985000	-0.044305
556.176000	-0.157509
556.367000	-0.440625
556.557000	-0.350310
556.748000	-0.302822
556.939000	-0.335149
557.129000	-0.422241
557.320000	-0.230159
557.511000	-0.229729
557.701000	-0.233723
557.892000	-0.147182
558.083000	0.112943
558.273000	-0.033430
558.464000	-0.282536
558.655000	-0.251727
558.845000	-0.102963
559.036000	-0.026794
559.227000	-0.140172
559.418000	-0.037783
559.608000	0.073571
559.799000	-0.251400
559.990000	-0.380193
560.180000	-0.302511
560.371000	-0.470443
560.562000	-0.376344
560.752000	-0.178889
560.943000	-0.344243
561.134000	-0.525497
561.324000	-0.327741
561.515000	-0.004973
561.706000	-0.141346
561.896000	-0.391582
562.087000	-0.309159
562.278000	-0.304725
562.468000	-0.421599
562.659000	-0.349404
562.850000	-0.020034
563.040000	-0.011417
563.231000	-0.431825
563.422000	-0.271394
563.612000	-0.353438
563.803000	-0.271199
563.994000	-0.276309
564.185000	-0.361181
564.375000	-0.175780
564.566000	-0.243831
564.757000	-0.253067
564.947000	-0.346778
565.138000	-0.181639
565.329000	-0.204650
565.519000	-0.423318
565.710000	-0.334446
565.901000	-0.138935
566.091000	0.001488
566.282000	-0.144877
566.473000	-0.174034
566.663000	-0.178056
566.854000	-0.330926
567.045000	-0.204167
567.235000	-0.128604
567.426000	-0.130654
567.617000	-0.123915
567.807000	-0.184593
567.998000	-0.225943
568.189000	-0.317661
568.379000	-0.229476
568.570000	-0.119045
568.761000	-0.135380
568.951000	-0.203471
569.142000	-0.243126
569.333000	-0.286647
569.524000	-0.401207
569.714000	-0.473435
569.905000	-0.526213
570.096000	-0.126325
570.286000	-0.021197
570.477000	0.067114
570.668000	-0.101089
570.858000	-0.131839
571.049000	-0.258053
571.240000	-0.352217
571.430000	-0.133312
571.621000	-0.220314
571.812000	-0.132298
572.002000	-0.100059
572.193000	-0.300499
572.384000	-0.223404
572.574000	-0.166826
572.765000	-0.180686
572.956000	-0.270886
573.146000	-0.071308
573.337000	-0.196161
573.528000	-0.191794
573.718000	-0.048777
573.909000	-0.018641
574.100000	-0.080489
574.290000	-0.241494
574.481000	-0.234994
574.672000	-0.203445
574.863000	-0.075863
575.053000	-0.198295
575.244000	-0.126821
575.435000	-0.274481
575.625000	-0.277193
575.816000	-0.288606
576.007000	-0.169089
576.197000	-0.163468
576.388000	-0.162832
576.579000	-0.022082
576.769000	-0.014249
576.960000	-0.297042
577.155000	-0.471270
577.350000	-0.200670
577.545000	-0.041300
577.740000	-0.232568
577.935000	0.109388
578.130000	-0.012164
578.326000	-0.314329
578.521000	-0.039056
578.716000	-0.063773
578.911000	-0.321955
579.106000	-0.154941
579.301000	-0.029070
579.496000	-0.193756
579.691000	-0.469880
579.886000	-0.317658
580.081000	-0.156983
580.276000	-0.120880
580.471000	-0.214839
580.666000	-0.360822
580.861000	-0.373824
581.057000	-0.347791
581.252000	-0.233354
581.447000	-0.290899
581.642000	-0.278254
581.837000	-0.285374
582.032000	-0.252799
582.227000	0.003158
582.422000	0.005006
582.617000	-0.201735
582.812000	-0.372426
583.007000	-0.324385
583.202000	-0.406434
583.397000	-0.165263
583.592000	0.092626
583.788000	-0.189942
583.983000	-0.173388
584.178000	-0.067756
584.373000	-0.250468
584.568000	-0.271631
584.763000	-0.329784
584.958000	-0.416587
585.153000	-0.295413
585.348000	-0.271747
585.543000	-0.118185
585.738000	-0.136222
585.933000	-0.329875
586.128000	-0.165151
586.324000	-0.138379
586.519000	-0.074848
586.714000	-0.033191
586.909000	-0.044152
587.104000	-0.002370
587.299000	-0.116884
587.494000	-0.118541
587.689000	-0.162428
587.884000	-0.128254
588.079000	-0.190296
588.274000	-0.186990
588.469000	-0.203034
588.664000	-0.104664
588.859000	-0.110303
589.055000	-0.130575
589.250000	-0.170947
589.445000	-0.261040
589.640000	-0.244728
589.835000	0.010490
590.030000	0.091436
590.225000	0.060171
590.420000	-0.181133
590.615000	-0.297486
590.810000	-0.227149
591.005000	-0.189233
591.200000	-0.257781
591.395000	-0.316950
591.591000	-0.177874
591.786000	-0.094676
591.981000	-0.207867
592.176000	-0.137809
592.371000	-0.145284
592.566000	-0.180408
592.761000	0.030960
592.956000	-0.058124
593.151000	0.018022
593.346000	-0.097439
593.541000	-0.022892
593.736000	-0.047232
593.931000	-0.271377
594.126000	-0.234370
594.322000	-0.172638
594.517000	-0.258623
594.712000	-0.341053
594.907000	-0.355423
595.102000	-0.201728
595.297000	-0.071958
595.492000	-0.015627
595.687000	-0.209977
595.882000	-0.298797
596.077000	-0.178340
596.272000	0.001324
596.467000	0.005107
596.662000	-0.133098
596.857000	-0.126026
597.053000	-0.103389
597.248000	-0.095732
597.443000	-0.105387
597.638000	-0.183965
597.833000	-0.358147
598.028000	-0.132345
598.223000	-0.019709
598.418000	-0.127089
598.613000	-0.226737
598.808000	-0.119498
599.003000	-0.133068
599.198000	-0.337032
599.393000	-0.294646
599.589000	-0.145122
599.784000	-0.303368
599.979000	-0.205312
600.174000	-0.002513
600.369000	-0.238560
600.564000	-0.161377
600.759000	0.071182
600.954000	0.115597
601.149000	-0.031658
601.344000	-0.344709
601.539000	-0.181607
601.734000	-0.231912
601.929000	-0.421533
602.124000	-0.355570
602.320000	-0.092417
602.515000	0.134251
602.710000	0.075782
602.905000	-0.286444
603.100000	-0.379812
603.295000	-0.266925
603.490000	-0.171455
603.685000	-0.163627
603.880000	-0.191360
604.075000	-0.331833
604.270000	-0.294995
604.465000	-0.209874
604.660000	-0.429374
604.856000	-0.286893
605.051000	-0.087638
605.246000	-0.138959
605.441000	-0.348741
605.636000	-0.380499
605.831000	-0.272171
606.026000	-0.303762
606.221000	-0.349814
606.416000	-0.211190
606.611000	0.015313
606.806000	-0.024439
607.001000	0.106834
607.196000	-0.126050
607.391000	-0.317659
607.587000	-0.064540
607.782000	-0.102640
607.977000	-0.319968
608.172000	0.031436
608.367000	0.069478
608.562000	-0.181165
608.757000	-0.235258
608.952000	-0.249878
609.147000	0.170059
609.342000	0.059724
609.537000	-0.189975
609.732000	-0.139832
609.927000	-0.224134
610.122000	-0.200310
610.318000	0.047855
610.513000	0.134750
610.708000	-0.039033
610.903000	0.050010
611.098000	0.076495
611.293000	0.007509
611.488000	0.033899
611.683000	0.011591
611.878000	-0.027053
612.073000	0.044151
612.268000	0.027905
612.463000	0.081044
612.658000	0.062672
612.854000	-0.043574
613.049000	-0.117272
613.244000	0.081298
613.439000	0.116156
613.634000	-0.203933
613.829000	-0.070462
614.024000	-0.192120
614.219000	-0.253858
614.414000	0.079731
614.609000	-0.132670
614.804000	-0.289556
614.999000	-0.283106
615.194000	-0.244563
615.389000	-0.215874
615.585000	-0.371786
615.780000	-0.185322
615.975000	-0.204407
616.170000	-0.210797
616.365000	-0.004791
616.560000	0.141157
616.755000	0.083028
616.950000	-0.027827
617.145000	0.016125
617.340000	-0.115920
617.535000	-0.419863
617.730000	-0.176948
617.925000	-0.324406
618.120000	-0.372880
618.316000	0.020445
618.511000	-0.093457
618.706000	-0.297028
618.901000	-0.184727
619.096000	-0.070731
619.291000	-0.219223
619.486000	-0.158179
619.681000	-0.456587
619.876000	-0.509632
620.071000	-0.345951
620.266000	-0.054059
620.461000	0.014342
620.656000	-0.082136
620.852000	-0.118444
621.047000	-0.279765
621.242000	-0.370430
621.437000	-0.022197
621.632000	0.096537
621.827000	-0.076305
622.022000	-0.320811
622.217000	-0.156826
622.412000	-0.009337
622.607000	-0.057165
622.802000	-0.307283
622.997000	-0.290896
623.192000	-0.149036
623.387000	-0.144703
623.583000	-0.400852
623.778000	0.014693
623.973000	0.045423
624.168000	-0.046851
624.363000	-0.068740
624.558000	-0.016059
624.753000	-0.261087
624.948000	-0.071419
625.143000	-0.060408
625.338000	-0.122570
625.533000	-0.222379
625.728000	-0.116082
625.923000	0.077068
626.119000	-0.031833
626.314000	-0.270288
626.509000	-0.342642
626.704000	-0.258388
626.899000	-0.227210
627.094000	-0.299400
627.289000	-0.270822
627.484000	-0.210534
627.679000	-0.267186
627.874000	-0.265269
628.069000	0.055940
628.264000	-0.061772
628.459000	-0.179854
628.654000	-0.175478
628.850000	-0.319609
629.045000	-0.187692
629.240000	-0.242667
629.435000	-0.293271
629.630000	-0.156417
629.825000	-0.170152
630.020000	-0.152430
630.215000	-0.354557
630.410000	-0.277526
630.605000	-0.296223
630.800000	-0.229232
630.995000	-0.063163
631.190000	0.228849
631.385000	0.006264
631.581000	-0.158729
631.776000	-0.065811
631.971000	-0.254997
632.166000	-0.185149
632.361000	-0.306847
632.556000	-0.258130
632.751000	-0.075835
632.946000	-0.183894
633.141000	-0.292818
633.336000	-0.257885
633.531000	-0.164012
633.726000	-0.182720
633.921000	-0.339650
634.117000	-0.504309
634.312000	-0.554751
634.507000	-0.429189
634.702000	-0.334571
634.897000	-0.339824
635.092000	-0.237762
635.287000	-0.173464
635.482000	-0.277356
635.677000	-0.118630
635.872000	-0.032007
636.067000	0.042694
636.262000	-0.167811
636.457000	-0.495122
636.652000	-0.488616
636.848000	-0.470320
637.043000	-0.384767
637.238000	-0.327287
637.433000	-0.447037
637.628000	-0.400684
637.823000	-0.083772
638.018000	-0.037439
638.213000	-0.258247
638.408000	-0.297764
638.603000	-0.386690
638.798000	-0.441413
638.993000	-0.368263
639.188000	-0.331378
639.383000	-0.336598
639.579000	0.080669
639.774000	-0.139277
639.969000	-0.322475
640.164000	-0.395147
640.359000	-0.395574
640.554000	-0.144958
640.749000	-0.185249
640.944000	-0.138177
641.139000	-0.147869
641.334000	-0.320501
641.529000	-0.676570
641.724000	-0.474407
641.919000	-0.256916
642.115000	-0.020895
642.310000	-0.061086
642.505000	-0.161583
642.700000	-0.182016
642.895000	-0.364382
643.090000	-0.243098
643.285000	-0.008332
643.480000	-0.056429
643.675000	-0.091934
643.870000	0.235227
644.065000	0.062798
644.260000	-0.298150
644.455000	-0.268149
644.650000	-0.368374
644.846000	-0.184574
645.041000	-0.383538
645.236000	-0.583997
645.431000	-0.548972
645.626000	-0.694571
645.821000	-0.458858
646.016000	-0.360100
646.211000	0.050658
646.406000	-0.057452
646.601000	-0.121741
646.796000	-0.234937
646.991000	-0.469176
647.186000	-0.320613
647.381000	-0.109177
647.577000	-0.117032
647.772000	-0.049864
647.967000	-0.137977
648.162000	-0.143269
648.357000	-0.192752
648.552000	-0.026710
648.747000	-0.026726
648.942000	-0.073478
649.137000	-0.112766
649.332000	-0.303277
649.527000	-0.334429
649.722000	-0.058108
649.917000	0.022736
650.113000	-0.303569
650.308000	-0.392873
650.503000	-0.343025
650.698000	-0.173711
650.893000	-0.213163
651.088000	-0.097862
651.283000	-0.045488
651.478000	-0.361017
651.673000	-0.197794
651.868000	-0.356110
652.063000	-0.095732
652.258000	0.149646
652.453000	0.291390
652.648000	-0.090410
652.844000	-0.137956
653.039000	-0.119693
653.234000	-0.595482
653.429000	-0.736878
653.624000	-0.484979
653.819000	-0.141332
654.014000	-0.197055
654.209000	-0.343824
654.404000	-0.176116
654.599000	-0.293743
654.794000	-0.258675
654.989000	-0.024798
655.184000	-0.123599
655.380000	-0.424912
655.575000	-0.403619
655.770000	-0.361536
655.965000	-0.265406
656.160000	-0.268220
656.355000	-0.107748
656.550000	-0.239489
656.745000	-0.177927
656.940000	-0.218361
657.135000	-0.178029
657.330000	-0.194220
657.525000	-0.420169
657.720000	-0.130069
657.915000	-0.057306
658.111000	-0.218816
658.306000	0.085387
658.501000	-0.116901
658.696000	-0.424509
658.891000	-0.122309
659.086000	-0.192430
659.281000	-0.233294
659.476000	-0.387931
659.671000	-0.720839
659.866000	-0.499095
660.061000	-0.133597
660.256000	-0.057747
660.451000	-0.155485
660.646000	-0.367625
660.842000	-0.207555
661.037000	-0.400843
661.232000	-0.398693
661.427000	-0.292178
661.622000	-0.380014
661.817000	-0.478094
662.012000	-0.298840
662.207000	-0.345558
662.402000	-0.401285
662.597000	-0.267067
662.792000	-0.593149
662.987000	-0.562523
663.182000	-0.313844
663.378000	-0.333332
663.573000	-0.551775
663.768000	-0.578121
663.963000	-0.408127
664.158000	-0.394006
664.353000	0.104081
664.548000	0.264113
664.743000	-0.097531
664.938000	-0.442852
665.133000	-0.432478
665.328000	0.054590
665.523000	-0.017492
665.718000	-0.220203
665.913000	-0.245562
666.109000	-0.240537
666.304000	-0.053776
666.499000	-0.179047
666.694000	-0.053895
666.889000	0.247665
667.084000	-0.093291
667.279000	-0.227630
667.474000	-0.224956
667.669000	-0.210898
667.864000	-0.239188
668.059000	-0.211469
668.254000	-0.256728
668.449000	-0.335841
668.644000	-0.217806
668.840000	0.038552
669.035000	-0.262919
669.230000	-0.620086
669.425000	-0.238525
669.620000	-0.351678
669.815000	-0.426779
670.010000	-0.468938
670.205000	-0.250706
670.400000	-0.199244
670.595000	-0.111723
670.790000	-0.237125
670.985000	-0.208877
671.180000	-0.057911
671.376000	-0.469130
671.571000	-0.455861
671.766000	-0.454049
671.961000	-0.514479
672.156000	-0.489263
672.351000	-0.362937
672.546000	-0.395378
672.741000	-0.262339
672.936000	-0.190755
673.131000	0.328019
673.326000	0.025169
673.521000	-0.464146
673.716000	-0.516253
673.911000	-0.629624
674.107000	-0.140212
674.302000	0.112421
674.497000	-0.137561
674.692000	-0.486899
674.887000	-0.517762
675.082000	-0.357688
675.277000	-0.091671
675.472000	-0.147511
675.667000	-0.341586
675.862000	-0.403471
676.057000	-0.230247
676.252000	-0.192426
676.447000	-0.373092
676.643000	-0.242917
676.838000	0.007984
677.033000	-0.228914
677.228000	0.153486
677.423000	0.067432
677.618000	-0.411944
677.813000	-0.495055
678.008000	-0.323433
678.203000	-0.258004
678.398000	-0.414217
678.593000	-0.222609
678.788000	-0.118128
678.983000	-0.379169
679.178000	-0.256210
679.374000	-0.379911
679.569000	-0.245078
679.764000	-0.333484
679.959000	-0.543400
680.154000	-0.531385
680.349000	-0.743109
680.544000	-0.605416
680.739000	-0.411220
680.934000	-0.539414
681.129000	-0.543975
681.324000	-0.566028
681.519000	-0.325734
681.714000	-0.417810
681.909000	-0.542829
682.105000	-0.688659
682.300000	-0.170445
682.495000	0.008318
682.690000	-0.093554
682.885000	-0.161611
683.080000	-0.378966
683.275000	-0.351254
683.470000	0.027005
683.665000	0.170161
683.860000	0.385469
684.055000	0.073895
684.250000	-0.406665
684.445000	-0.465223
684.641000	0.061570
684.836000	-0.201298
685.031000	-0.293140
685.226000	-0.243198
685.421000	0.033759
685.616000	-0.275432
685.811000	-0.377295
686.006000	-0.023085
686.201000	-0.118111
686.396000	-0.493642
686.591000	-0.491449
686.786000	-0.032858
686.981000	-0.217903
687.176000	-0.164064
687.372000	-0.289117
687.567000	-0.023383
687.762000	-0.135867
687.957000	-0.177617
688.152000	-0.297088
688.347000	-0.284726
688.542000	-0.505246
688.737000	-0.863676
688.932000	-0.981661
689.127000	-0.564925
689.322000	-0.147241
689.517000	-0.351938
689.712000	-0.594508
689.908000	-0.510234
690.103000	-0.478516
690.298000	-0.305215
690.493000	-0.296175
690.688000	-0.565824
690.883000	-0.412894
691.078000	-0.030656
691.273000	0.045165
691.468000	-0.265242
691.663000	-0.239725
691.858000	-0.073953
692.053000	-0.120376
692.248000	-0.020913
692.443000	-0.074022
692.639000	-0.207227
692.834000	-0.024342
693.029000	0.512710
693.224000	0.404541
693.419000	-0.269385
693.614000	-0.411060
693.809000	-0.485359
694.004000	-0.536823
694.199000	-0.486148
694.394000	-0.284971
694.589000	-0.637212
694.784000	-0.617534
694.979000	-0.339774
695.174000	-0.371200
695.370000	0.161723
695.565000	-0.041804
695.760000	-0.338259
695.955000	0.046781
696.150000	0.080953
696.345000	-0.391935
696.540000	-0.186521
696.740000	-0.323695
696.940000	-0.093781
697.140000	0.054211
697.340000	-0.222408
697.539000	-0.118704
697.739000	-0.250312
697.939000	-0.229698
698.139000	-0.486578
698.339000	-0.839999
698.539000	-0.703832
698.739000	-0.656884
698.939000	-0.463545
699.138000	-0.516955
699.338000	0.173829
699.538000	0.248220
699.738000	-0.310921
699.938000	-0.378141
700.138000	-0.449384
700.338000	-0.670181
700.538000	-0.458900
700.737000	-0.309736
700.937000	-0.853582
701.137000	-0.823008
701.337000	-0.065171
701.537000	0.034620
701.737000	-0.314755
701.937000	-0.394067
702.137000	-0.472690
702.337000	-0.613058
702.536000	-0.664515
702.736000	-0.589915
702.936000	-0.687872
703.136000	-0.134519
703.336000	-0.177755
703.536000	-0.402416
703.736000	-0.762422
703.936000	-0.670396
704.135000	-0.662828
704.335000	-0.229539
704.535000	-0.466513
704.735000	-0.758177
704.935000	-0.237177
705.135000	-0.227382
705.335000	-0.462510
705.535000	-0.213635
705.735000	-0.220925
705.934000	-0.261093
706.134000	-0.477305
706.334000	-0.474765
706.534000	-0.571052
706.734000	-0.593586
706.934000	-0.714987
707.134000	-0.696769
707.334000	-0.336769
707.533000	-0.304132
707.733000	-0.366688
707.933000	-0.544484
708.133000	-0.296463
708.333000	-0.027091
708.533000	-0.380353
708.733000	-0.075464
708.933000	-0.194595
709.132000	-0.441019
709.332000	-0.497779
709.532000	-0.513849
709.732000	-0.374828
709.932000	-0.866453
710.132000	-0.791037
710.332000	-0.902932
710.532000	-0.349447
710.732000	-0.098774
710.931000	-0.425834
711.131000	-0.552013
711.331000	-0.329650
711.531000	-0.507985
711.731000	-0.459968
711.931000	-0.346783
712.131000	-0.414654
712.331000	-0.236425
712.530000	-0.338476
712.730000	-0.654793
712.930000	-0.422833
713.130000	-0.374754
713.330000	-0.543168
713.530000	-0.384260
713.730000	0.351474
713.930000	0.010345
714.129000	-0.506398
714.329000	-0.673140
714.529000	-0.392526
714.729000	0.014226
714.929000	-0.108814
715.129000	-0.474878
715.329000	-0.425204
715.529000	-0.365014
715.729000	0.269286
715.928000	-0.024401
716.128000	-0.307335
716.328000	-0.191634
716.528000	-0.363081
716.728000	-0.254179
716.928000	-0.421597
717.128000	-0.223559
717.328000	-0.313244
717.527000	-0.477661
717.727000	-0.411667
717.927000	-0.385536
718.127000	-0.479939
718.327000	-0.885743
718.527000	-0.822428
718.727000	-0.339423
718.927000	-0.410961
719.127000	-0.772612
719.326000	-0.470039
719.526000	0.038288
719.726000	-0.187096
719.926000	-0.695990
720.126000	-0.692132
720.326000	-0.402194
720.526000	-0.438009
720.726000	-0.307891
720.925000	-0.196490
721.125000	-0.677263
721.325000	-0.360795
721.525000	-0.289576
721.725000	-0.537958
721.925000	-0.599727
722.125000	-0.551569
722.325000	-0.065474
722.524000	-0.279211
722.724000	-0.860459
722.924000	-1.001588
723.124000	-0.655497
723.324000	-0.118458
723.524000	-0.122613
723.724000	-0.718114
723.924000	-0.484931
724.124000	-0.306185
724.323000	-0.017507
724.523000	-0.200549
724.723000	0.080311
724.923000	-0.050158
725.123000	-0.095115
725.323000	-0.021674
725.523000	-0.369984
725.723000	-0.643825
725.922000	-0.562599
726.122000	-0.399144
726.322000	-0.511279
726.522000	-0.573539
726.722000	0.134480
726.922000	-0.128635
727.122000	-0.265176
727.322000	0.035925
727.521000	-0.224772
727.721000	-0.507000
727.921000	-0.461421
728.121000	-0.424003
728.321000	-0.765275
728.521000	-0.559086
728.721000	-0.380725
728.921000	-0.013756
729.121000	0.666818
729.320000	0.073987
729.520000	-0.423479
729.720000	-0.637732
729.920000	-0.510344
730.120000	-0.320201
730.320000	-0.278917
730.520000	-0.653598
730.720000	-0.554332
730.919000	-0.495133
731.119000	-0.195794
731.319000	-0.734050
731.519000	-0.873710
731.719000	-0.399677
731.919000	-0.561034
732.119000	-1.080178
732.319000	-1.036698
732.519000	-0.406289
732.718000	-0.697104
732.918000	-0.654978
733.118000	-0.429603
733.318000	-0.052835
733.518000	-0.417986
733.718000	-0.973502
733.918000	-0.905202
734.118000	-0.698350
734.317000	-0.312362
734.517000	-0.575106
734.717000	-0.512850
734.917000	-0.066478
735.117000	-0.153541
735.317000	-0.288305
735.517000	0.255951
735.717000	0.488489
735.916000	-0.473691
736.116000	-0.656822
736.316000	-0.436626
736.516000	-0.405720
736.716000	-0.441109
736.916000	-0.950728
737.116000	-0.773427
737.316000	-0.072317
737.516000	-0.081351
737.715000	-0.139229
737.915000	-0.655520
738.115000	-0.746889
738.315000	-0.465978
738.515000	-0.756230
738.715000	-0.558485
738.915000	0.021146
739.115000	-0.492561
739.314000	-0.595673
739.514000	-0.055579
739.714000	0.075651
739.914000	-0.201266
740.114000	-0.433784
740.314000	-0.238234
740.514000	0.290608
740.714000	-0.486597
740.913000	-1.009912
741.113000	-0.662544
741.313000	-0.309004
741.513000	-0.475631
741.713000	-0.343023
741.913000	-0.270428
742.113000	-0.385804
742.313000	-0.887897
742.513000	-0.521714
742.712000	-0.388241
742.912000	-0.789274
743.112000	-0.581444
743.312000	-0.929139
743.512000	-0.517980
743.712000	-0.368884
743.912000	-0.926295
744.112000	-1.177143
744.311000	-1.289220
744.511000	-0.769808
744.711000	-0.239174
744.911000	-0.587124
745.111000	-0.635529
745.311000	-0.216391
745.511000	-0.551530
745.711000	-0.820175
745.911000	-0.567149
746.110000	-0.941543
746.310000	-1.106316
746.510000	-0.848767
746.710000	-0.238435
746.910000	-0.059541
747.110000	-0.607519
747.310000	-0.967999
747.510000	-0.752289
747.709000	-0.406458
747.909000	-0.373257
748.109000	-0.153636
748.309000	-0.439224
748.509000	-0.755192
748.709000	-0.792602
748.909000	-0.505665
749.109000	-0.567447
749.308000	-0.011430
749.508000	-0.340668
749.708000	-0.555331
749.908000	-0.156206
750.108000	-0.141654
750.308000	-0.985996
750.508000	-0.253298
750.708000	-0.752090
750.908000	-1.187872
751.107000	-0.396502
751.307000	0.261493
751.507000	-0.275807
751.707000	-0.290675
751.907000	-0.337157
752.107000	-0.266863
752.307000	-0.692697
752.507000	-0.602114
752.706000	-0.724816
752.906000	0.260625
753.106000	-0.543175
753.306000	-1.196789
753.506000	-0.203900
753.706000	-0.625397
753.906000	-0.297929
754.106000	-0.048419
754.305000	-0.137104
754.505000	-0.085196
754.705000	-0.369448
754.905000	-0.459467
755.105000	-0.286209
755.305000	-1.104735
755.505000	-0.890886
755.705000	-0.340793
755.905000	-0.517246
756.104000	-1.001866
756.304000	-1.244626
756.504000	-1.589328
756.704000	-0.490613
756.904000	-0.194952
757.104000	-0.446738
757.304000	-0.559896
757.504000	-0.158248
757.703000	-0.412017
757.903000	0.041680
758.103000	0.144822
758.303000	-0.382384
758.503000	-0.590632
758.703000	-0.684939
758.903000	-0.931343
759.103000	-0.495202
759.303000	-0.392883
759.502000	-0.526788
759.702000	-0.172950
759.902000	-0.501507
760.102000	-0.602915
760.302000	-0.560259
760.502000	-0.157607
760.702000	-0.157833
760.902000	-0.465562
761.101000	-0.937725
761.301000	-1.180809
761.501000	-0.827337
761.701000	-0.885280
761.901000	-0.527824
762.101000	-0.109419
762.301000	-0.353207
762.501000	-0.756359
762.700000	-0.839646
762.900000	-0.925480
763.100000	-0.595426
763.300000	-0.173683
763.500000	-0.523859
763.703000	-0.573576
763.905000	-0.920177
764.108000	-0.191834
764.311000	-0.439605
764.513000	-0.613191
764.716000	-0.436127
764.919000	-0.291721
765.121000	-0.889425
765.324000	-1.183064
765.527000	-1.031417
765.729000	-0.668674
765.932000	0.133016
766.135000	-0.095486
766.337000	-0.628889
766.540000	-0.689758
766.743000	-0.232813
766.945000	-0.794017
767.148000	-1.305421
767.351000	-1.192666
767.553000	-0.346710
767.756000	-0.734044
767.958000	-1.091132
768.161000	-0.579702
768.364000	-0.838969
768.566000	-1.092507
768.769000	-0.699301
768.972000	-0.392588
769.174000	-0.834002
769.377000	-1.211343
769.580000	-1.050291
769.782000	-0.462017
769.985000	-1.095251
770.188000	-2.023391
770.390000	-1.256266
770.593000	0.334301
770.796000	0.181648
770.998000	-0.417973
771.201000	-0.883997
771.404000	-0.461947
771.606000	-0.691667
771.809000	-0.642184
772.012000	-0.668098
772.214000	-1.631738
772.417000	-1.594867
772.620000	-0.346548
772.822000	-0.721419
773.025000	-0.957310
773.228000	-1.008824
773.430000	-0.942018
773.633000	-0.613192
773.836000	-0.407895
774.038000	-0.265225
774.241000	-0.534694
774.444000	-0.699816
774.646000	0.205441
774.849000	-0.335617
775.052000	-0.524431
775.254000	-0.329918
775.457000	-0.783394
775.659000	-0.734731
775.862000	-1.019262
776.065000	-0.691809
776.267000	-0.084326
776.470000	0.220992
776.673000	-0.422534
776.875000	0.106742
777.078000	-0.116783
777.281000	-1.052479
777.483000	-0.265403
777.686000	-0.117820
777.889000	-0.317748
778.091000	0.075668
778.294000	-1.022329
778.497000	-0.991311
778.699000	-0.623219
778.902000	-0.690285
779.105000	-0.553954
779.307000	0.245181
779.510000	-0.718935
779.713000	-0.479628
779.915000	-0.783201
780.118000	0.274028
780.321000	0.425692
780.523000	-0.562533
780.726000	-1.011397
780.929000	-1.057199
781.131000	-1.045624
781.334000	-1.487078
781.537000	-1.484590
781.739000	-0.467811
781.942000	-0.994318
782.145000	-1.568475
782.347000	-1.482384
782.550000	-1.175006
782.753000	-1.192317
782.955000	-1.175329
783.158000	-0.985939
783.361000	-0.664095
783.563000	-0.738530
783.766000	-0.638828
783.968000	1.510982
784.171000	1.068061
784.374000	-0.506471
784.576000	-0.615354
784.779000	-0.192548
784.982000	0.093750
785.184000	-0.683199
785.387000	-0.160552
785.590000	0.555779
785.792000	0.267537
785.995000	-0.002077
786.198000	-0.071430
786.400000	-0.545299
786.603000	-0.567629
786.806000	-0.670281
787.008000	-0.343111
787.211000	-0.323395
787.414000	-1.053403
787.616000	-0.811154
787.819000	-0.848324
788.022000	-1.612085
788.224000	-0.858661
788.427000	-1.475353
788.630000	-0.890593
788.832000	-0.619828
789.035000	-1.171758
789.238000	-1.654131
789.440000	-1.327157
789.643000	-0.180828
789.846000	-0.826439
790.048000	-0.426076
790.251000	-0.167453
790.454000	-0.583119
790.656000	0.019437
790.859000	-0.730937
791.062000	-1.252660
791.264000	-0.384950
791.467000	-1.053842
791.669000	-1.767202
791.872000	-0.629969
792.075000	-1.074013
792.277000	-0.986676
792.480000	-0.750078
792.683000	-1.274502
792.885000	-1.531908
793.088000	-1.243684
793.291000	-1.371990
793.493000	-1.234312
793.696000	-0.253159
793.899000	-0.239055
794.101000	-0.655031
794.304000	-0.782906
794.507000	-0.396874
794.709000	-0.285975
794.912000	-0.886865
795.115000	-1.189018
795.317000	-0.858290
795.520000	-0.613159
795.723000	-1.054827
795.925000	-1.443123
796.128000	-1.524581
796.331000	-1.020488
796.533000	-1.479915
796.736000	-0.775443
796.939000	-0.493389
797.141000	-0.748576
797.344000	-0.025413
797.547000	0.059322
797.749000	-0.226056
797.952000	-0.777765
798.155000	-1.240314
798.357000	-1.457952
798.560000	-1.293967
798.763000	-0.557561
798.965000	-0.689846
799.168000	-0.684023
799.371000	-0.504399
799.573000	-0.907484
799.776000	-1.444848
799.978000	-1.394496
800.181000	-0.818646
800.384000	0.791337
800.586000	0.291979
800.789000	-1.409961
800.992000	-1.512318
801.194000	-1.659020
801.397000	-1.591442
801.600000	-1.452662
801.802000	-0.114749
802.005000	-0.251964
802.208000	-1.697746
802.410000	-0.688034
802.613000	-0.658664
802.816000	-0.927099
803.018000	-1.433795
803.221000	-1.224626
803.424000	0.169012
803.626000	-0.043341
803.829000	-0.724375
804.032000	0.104461
804.234000	1.008927
804.437000	-0.489709
804.640000	-0.753337
804.842000	-0.755061
805.045000	-1.282425
805.248000	-0.893466
805.450000	-0.859319
805.653000	-0.755938
805.856000	-1.089604
806.058000	0.072975
806.261000	-1.078711
806.464000	-1.088207
806.666000	-0.061535
806.869000	-0.418236
807.072000	-1.656646
807.274000	-2.133070
807.477000	-1.245205
807.679000	-1.016245
807.882000	-1.556473
808.085000	-1.188763
808.287000	-0.596260
808.490000	-1.606008
808.693000	-1.279329
808.895000	-0.607133
809.098000	-0.728394
809.301000	-0.765509
809.503000	-0.916848
809.706000	0.032392
809.909000	0.294979
810.111000	0.067493
810.314000	-0.494616
810.517000	-0.852037
810.719000	-1.076992
810.922000	-0.993119
811.125000	-0.117365
811.327000	0.086086
811.530000	-0.385806
811.735000	-0.794469
811.940000	-1.054826
812.146000	-0.960769
812.351000	-0.307148
812.556000	-0.532721
812.761000	-1.471661
812.967000	-0.428107
813.172000	-0.292036
813.377000	-0.637576
813.582000	0.152101
813.788000	-0.167824
813.993000	-1.466380
814.198000	-0.524678
814.403000	-1.402940
814.609000	-0.518477
814.814000	-0.576319
815.019000	0.200373
815.224000	-0.030456
815.429000	-1.089760
815.635000	-0.496732
815.840000	-0.655875
816.045000	-0.443304
816.250000	0.072282
816.456000	-1.291078
816.661000	-2.506149
816.866000	-2.009894
817.071000	-1.753174
817.277000	-2.469129
817.482000	-1.338286
817.687000	-0.689213
817.892000	-0.788981
818.097000	-0.204828
818.303000	0.054813
818.508000	0.534580
818.713000	7.576327
818.918000	4.093016
819.124000	0.335279
819.329000	-0.924719
819.534000	-0.937207
819.739000	-1.151410
819.945000	-1.127505
820.150000	-0.661859
820.355000	-0.761682
820.560000	-0.405857
820.766000	-0.574385
820.971000	-0.686698
821.176000	-2.118736
821.381000	-2.637560
821.586000	-1.676914
821.792000	-0.082989
821.997000	-0.483387
822.202000	-0.934666
822.407000	-1.691118
822.613000	-1.644323
822.818000	-0.962113
823.023000	-0.720696
823.228000	-0.938988
823.434000	-0.226683
823.639000	0.139561
823.844000	-0.554609
824.049000	0.048040
824.255000	0.058450
824.460000	-0.889088
824.665000	-1.158558
824.870000	-0.220489
825.075000	-0.479884
825.281000	-0.221433
825.486000	0.833468
825.691000	-1.479888
825.896000	-2.521677
826.102000	-0.843182
826.307000	-0.771553
826.512000	-1.281574
826.717000	-1.105362
826.923000	-1.002237
827.128000	-0.706193
827.333000	-1.686306
827.538000	-0.821024
827.744000	-0.218968
827.949000	-1.510494
828.154000	-1.084222
828.359000	0.007563
828.564000	-0.719924
828.770000	-0.973681
828.975000	0.193429
829.180000	-0.431655
829.385000	-1.792940
829.591000	-1.524840
829.796000	-0.900860
830.001000	-0.913683
830.206000	-1.406591
830.412000	-1.138143
830.617000	-1.129740
830.822000	-0.126651
831.027000	-1.021018
831.232000	-1.522254
831.438000	-1.306397
831.643000	-0.887096
831.848000	-1.207273
832.053000	-0.983870
832.259000	-1.144894
832.464000	-2.784992
832.669000	-2.243628
832.874000	-1.792673
833.080000	-1.881240
833.285000	0.019616
833.490000	0.065818
833.695000	-1.642342
833.901000	-1.533291
834.106000	-1.792933
834.311000	-1.049906
834.516000	-0.462761
834.721000	-1.199546
834.927000	-0.146253
835.132000	-0.527780
835.337000	0.950942
835.542000	-0.411685
835.748000	-2.171826
835.953000	-0.135833
836.158000	-0.268717
836.363000	-0.366584
836.569000	-0.332848
836.774000	-1.286100
836.979000	-1.617834
837.184000	-2.063057
837.390000	-1.833491
837.595000	-1.505939
837.800000	-1.163827
838.005000	-0.686679
838.210000	-1.208732
838.416000	-1.674837
838.621000	-0.916574
838.826000	-1.103465
839.031000	-1.460836
839.237000	-1.826089
839.442000	-2.424736
839.647000	-2.864079
839.852000	-2.304449
840.058000	-1.866294
840.263000	-1.478064
840.468000	-1.800355
840.673000	-1.056195
840.878000	-1.314103
841.084000	-2.187718
841.289000	-1.338216
841.494000	1.757157
841.699000	1.880765
841.905000	0.835908
842.110000	0.866811
842.315000	-1.616996
842.520000	-1.298374
842.726000	-1.274998
842.931000	-1.710524
843.136000	-0.803485
843.341000	-2.662014
843.547000	-1.772382
843.752000	-1.130634
843.957000	-1.924162
844.162000	-2.028397
844.367000	-1.297573
844.573000	-0.482702
844.778000	-0.358683
844.983000	-0.345892
845.188000	-0.361407
845.394000	-2.264293
845.599000	-1.899108
845.804000	-1.641885
846.009000	-0.926538
846.215000	-1.759173
846.420000	-1.313438
846.625000	-0.413816
846.830000	0.023923
847.036000	-1.177930
847.241000	-1.608950
847.446000	0.080935
847.651000	-0.731478
847.856000	-2.133737
848.062000	-1.966899
848.267000	-0.206419
848.472000	-1.177630
848.677000	-2.851345
848.883000	-1.279899
849.088000	0.566633
849.293000	-0.842276
849.498000	-1.619278
849.704000	-0.711063
849.909000	-1.199985
850.114000	-2.174211
850.319000	-0.714523
850.524000	-0.480456
850.730000	-0.916998
850.935000	-1.536471
851.140000	-0.576755
851.345000	-0.546559
851.551000	-0.487796
851.756000	-0.019738
851.961000	-1.161567
852.166000	-1.756202
852.372000	-1.333165
852.577000	-1.066019
852.782000	-1.539084
852.987000	-0.174644
853.193000	-0.376915
853.398000	-0.687339
853.603000	-2.352748
853.808000	-2.665150
854.013000	-1.210313
854.219000	0.042352
854.424000	1.522701
854.629000	1.099964
854.834000	-1.545782
855.040000	-0.996086
855.245000	-0.450964
855.450000	-3.086662
855.655000	-4.250648
855.861000	-3.602992
856.066000	-2.271979
856.271000	-2.421615
856.476000	-0.346671
856.682000	-1.442672
856.887000	-4.379709
857.092000	-2.524056
857.297000	-0.054199
857.502000	-0.696100
857.708000	-1.027223
857.913000	-0.170125
858.118000	-0.921807
858.323000	-0.991388
858.529000	-1.407163
858.734000	-2.197666
858.939000	-1.666957
859.144000	-2.127383
859.350000	-2.717303
859.555000	-2.675102
859.760000	-0.718723
859.965000	-0.005096
860.171000	-2.120507
860.376000	-0.947334
860.581000	-2.547297
860.786000	-5.059072
860.991000	-4.214933
861.197000	-2.792659
861.402000	-0.647643
861.607000	-1.707882
861.812000	-3.355433
862.018000	-2.982956
862.223000	-2.023385
862.428000	-1.240958
862.633000	-0.093600
862.839000	-0.964970
863.044000	-1.976537
863.249000	-2.310724
863.454000	-0.559918
863.659000	-1.817634
863.865000	-2.511897
864.070000	-2.283452
864.275000	-2.613249
864.480000	-2.079425
864.686000	-3.840058
864.891000	-3.240178
865.096000	-1.217202
865.301000	-0.759645
865.507000	-0.542095
865.712000	-0.431057
865.917000	-1.457887
866.122000	-0.640377
866.328000	-3.723230
866.533000	-3.382904
866.738000	-0.418940
866.943000	-0.476302
867.148000	0.600144
867.354000	-1.932864
867.559000	-3.250365
867.764000	-1.751079
867.969000	-0.853956
868.175000	-2.445637
868.380000	-2.897632
868.585000	-4.001739
868.790000	-1.516728
868.996000	-1.702241
869.201000	-3.270688
869.406000	-4.698454
869.611000	-3.663020
869.817000	-2.853705
870.022000	1.630385
870.227000	-0.440712
870.432000	-2.746659
870.637000	-0.483154
870.843000	-1.745859
871.048000	-2.306928
871.253000	0.054053
871.458000	-0.991977
871.664000	-3.124445
871.869000	-3.835444
872.074000	-2.886781
872.279000	-1.415128
872.485000	-2.040804
872.690000	-2.132217
872.895000	-2.078850
873.100000	-2.849088
873.306000	-3.152948
873.511000	-2.314562
873.716000	-0.384853
873.921000	-1.894074
874.126000	-2.716429
874.332000	-1.576329
874.537000	-0.347527
874.742000	-1.153976
874.947000	-1.671080
875.153000	0.144333
875.358000	-1.237264
875.563000	-2.012734
875.768000	-4.685761
875.974000	-4.770273
876.179000	-1.030889
876.384000	-0.313179
876.589000	-2.503822
876.794000	-2.042063
877.000000	-3.460864
877.205000	-4.827569
877.410000	-1.828975
877.615000	-3.157023
877.821000	-4.818940
878.026000	-3.343342
878.231000	-4.685886
878.436000	-4.940439
878.642000	-3.055209
878.847000	-1.500452
879.052000	-0.255369
879.257000	-2.970250
879.463000	-3.750467
879.668000	-2.883919
879.873000	-0.855093
880.078000	-3.178261
880.283000	-4.874775
880.489000	-4.713180
880.694000	-4.316597
880.899000	-2.364841
881.104000	-0.382067
881.310000	1.375877
881.515000	-0.756214
881.720000	0.509267
881.925000	2.565413
882.131000	3.722088
882.336000	0.183136
882.541000	-3.722690
882.746000	-3.548339
882.952000	-4.097622
883.157000	-3.721789
883.362000	-3.872452
883.567000	-4.567905
883.772000	-4.292026
883.978000	-3.365318
884.183000	-1.677885
884.388000	-2.090615
884.593000	-4.567865
884.799000	0.115754
885.004000	-0.107399
885.209000	-1.756596
885.414000	-1.053334
885.620000	-3.995503
885.825000	-0.967529
886.030000	-1.268187
886.235000	-2.442874
886.440000	-1.593544
886.646000	-4.806780
886.851000	-4.908334
887.056000	-0.525267
887.261000	-0.965920
887.467000	-3.908006
887.672000	-1.761816
887.877000	-3.165342
888.082000	-5.321903
888.288000	-5.302484
888.493000	-7.977478
888.698000	-6.481470
888.903000	-3.132876
889.109000	-4.112546
889.314000	-0.621366
889.519000	-1.867638
889.724000	0.417697
889.929000	-1.153337
890.135000	-2.037791
890.340000	-2.052999
890.545000	-3.343008
890.750000	-5.183265
890.956000	-3.686068
891.161000	-0.656215
891.366000	-3.312012
891.571000	-2.505448
891.777000	-2.371935
891.982000	-0.008191
892.187000	-1.132432
892.392000	-0.473232
892.598000	-0.393402
892.803000	-0.313618
893.008000	-3.196842
893.213000	-3.437276
893.418000	-3.377959
893.624000	-4.262525
893.829000	-6.616353
894.034000	-3.964806
894.239000	-1.502928
894.445000	-3.637495
894.650000	-4.447502
894.855000	-3.830245
895.060000	-3.428184
895.266000	-3.279433
895.471000	-4.932014
895.676000	-2.121916
895.881000	-1.477676
896.087000	-2.832039
896.292000	-3.633396
896.497000	-0.125302
896.702000	-1.343773
896.907000	-3.700350
897.113000	0.749806
897.318000	0.895230
897.523000	0.634453
897.728000	-1.887205
897.934000	-3.577937
898.139000	-3.382450
898.344000	-0.630730
898.549000	-1.974442
898.755000	-3.796415
898.960000	-4.239953
899.165000	-6.343274
899.370000	-2.089188
899.575000	2.046161
899.781000	-3.555336
899.986000	-4.707351
900.191000	-2.724093
900.396000	-3.490765
900.602000	-2.590009
900.807000	-2.360787
901.012000	-1.473034
901.217000	-0.571320
901.423000	-3.711740
901.628000	-5.441092
901.833000	-0.636858
902.038000	-0.230798
902.244000	-3.824514
902.449000	-3.339594
902.654000	-3.054299
902.859000	-2.407663
903.064000	-0.363041
903.270000	-0.235375
903.475000	-4.656244
903.680000	-6.940170
903.885000	-6.573099
904.091000	-5.104606
904.296000	-6.403663
904.501000	-5.441505
904.706000	-4.270118
904.912000	0.223655
905.117000	-2.121898
905.322000	-4.910184
905.527000	-4.483772
905.733000	-4.049153
905.938000	-3.566453
906.143000	-4.226286
906.348000	-6.939689
906.553000	-2.187016
906.759000	-0.079415
906.964000	-1.641301
907.169000	-2.802090
907.374000	-6.451647
907.580000	-5.225907
907.785000	-4.959903
907.990000	25.838354
908.195000	17.782433
908.401000	-0.334703
908.606000	-8.478703
908.811000	-10.060939
909.016000	-2.863012
909.221000	-2.437462
909.427000	-3.434790
909.632000	-5.155167
909.837000	-4.636093
910.042000	-5.911165
910.248000	-7.767790
910.453000	-3.533508
910.658000	-4.353332
910.863000	-5.442593
911.069000	-7.241595
911.274000	-2.680724
911.479000	-0.318449
911.684000	-7.793167
911.890000	-4.258832
912.095000	-4.109447
912.300000	-7.642869
912.506000	-5.893911
912.711000	-5.888476
912.917000	-3.683089
913.123000	-2.580071
913.328000	-2.397237
913.534000	-2.619826
913.740000	7.340910
913.946000	2.911262
914.151000	-4.581230
914.357000	-5.666250
914.563000	-1.637755
914.768000	-6.074099
914.974000	-8.373534
915.180000	-7.619098
915.385000	-6.222927
915.591000	-8.310231
915.797000	-3.113271
916.002000	0.542977
916.208000	-3.332582
916.414000	-5.950930
916.620000	-6.610475
916.825000	-4.165576
917.031000	-4.341906
917.237000	-9.834932
917.442000	-6.558597
917.648000	-6.698618
917.854000	-8.198508
918.059000	-1.260730
918.265000	-0.146827
918.471000	-4.082781
918.676000	-7.832459
918.882000	-9.612931
919.088000	-6.895879
919.294000	-11.909319
919.499000	-7.783244
919.705000	-1.083404
919.911000	-2.850206
920.116000	-1.939506
920.322000	-8.644608
920.528000	-7.126221
920.733000	-8.187199
920.939000	-8.703697
921.145000	-7.431720
921.350000	-6.648945
921.556000	-5.178961
921.762000	-4.675365
921.968000	-5.771095
922.173000	-7.691870
922.379000	-9.910113
922.585000	-5.551047
922.790000	-7.779187
922.996000	-8.246246
923.202000	-8.140216
923.407000	-8.553383
923.613000	-7.010459
923.819000	-4.385181
924.024000	-3.530955
924.230000	-1.316205
924.436000	-5.041597
924.642000	5.602544
924.847000	1.001463
925.053000	-6.489324
925.259000	-10.676698
925.464000	-4.006304
925.670000	-4.164690
925.876000	-6.826974
926.081000	-8.013901
926.287000	-3.694460
926.493000	-3.927217
926.698000	-6.619696
926.904000	-3.520347
927.110000	-5.835294
927.316000	-5.522809
927.521000	2.480230
927.727000	-3.416228
927.933000	-6.324003
928.138000	-5.886779
928.344000	-11.716231
928.550000	-7.318015
928.755000	-1.804362
928.961000	-6.198733
929.167000	-6.834462
929.372000	-0.138072
929.578000	-1.229856
929.784000	-6.731331
929.990000	-10.747339
930.195000	-7.579314
930.401000	-5.839813
930.607000	-4.177803
930.812000	-3.905215
931.018000	-7.823937
931.224000	-13.924750
931.429000	-10.399320
931.635000	-13.637562
931.841000	-13.060810
932.046000	-8.502949
932.252000	-2.233376
932.458000	6.024829
932.664000	-0.551461
932.869000	-7.868197
933.075000	-10.935138
933.281000	-9.121190
933.486000	-1.809775
933.692000	-4.168113
933.898000	-8.666880
934.103000	-2.809278
934.309000	-8.063980
934.515000	-3.494205
934.720000	-0.602517
934.926000	1.368862
935.132000	-0.754579
935.338000	-5.131932
935.543000	-12.867412
935.749000	-14.277057
935.955000	-15.409123
936.160000	-12.736716
936.366000	-3.590508
936.572000	-4.847422
936.777000	-1.718815
936.983000	0.946355
937.189000	-3.774343
937.394000	-10.187174
937.600000	-2.266026
937.806000	3.737331
938.012000	-6.649973
938.217000	5.364737
938.423000	2.300800
938.629000	-5.886422
938.834000	-13.827553
939.040000	-14.570254
939.246000	-9.402131
939.451000	-11.580633
939.657000	-6.720402
939.863000	-10.668012
940.068000	-4.843938
940.274000	-9.353137
940.480000	-6.737292
940.686000	-4.647340
940.891000	-6.898068
941.097000	20.728757
941.303000	5.617210
941.508000	-9.919447
941.714000	-6.035235
941.920000	-17.086195
942.125000	-7.147929
942.331000	-5.267563
942.537000	-0.030193
942.742000	-0.030499
942.948000	-11.215217
943.154000	-14.248201
943.360000	-24.394391
943.565000	-12.268405
943.771000	1.538980
943.977000	4.439822
944.182000	-15.289595
944.388000	-17.857956
944.594000	-2.038923
944.799000	8.932075
945.005000	-2.130050
945.211000	2.599425
945.416000	-0.780104
945.622000	-16.209497
945.828000	-12.161048
946.034000	-1.133631
946.239000	-1.029284
946.445000	-7.006642
946.651000	-16.951665
946.856000	-15.363922
947.062000	-0.796570
947.268000	-1.021923
947.473000	-18.127325
947.679000	-19.458721
947.885000	-6.714225
948.090000	-2.610320
948.296000	11.928041
948.502000	-0.931968
948.708000	-11.360553
948.913000	-13.673100
949.119000	-2.211182
949.325000	-7.486104
949.530000	-20.798164
949.736000	-26.099685
949.942000	-17.456923
950.147000	-16.666351
950.353000	-13.681629
950.559000	-8.796993
950.764000	13.749369
950.970000	8.870234
951.176000	-7.171511
951.382000	-14.791670
951.587000	-3.764662
951.793000	2.869401
951.999000	3.425358
952.204000	-10.762188
952.410000	-25.596701
952.616000	-13.783113
952.821000	-6.715610
953.027000	-14.016166
953.233000	-19.255212
953.438000	-18.168800
953.644000	-0.771512
953.850000	-5.673787
954.056000	-10.192086
954.261000	-9.133933
954.467000	-1.161591
954.673000	3.327913
954.878000	-6.416052
955.084000	-4.670846
955.290000	-22.417417
955.495000	-25.635344
955.701000	-20.033499
955.907000	0.473834
956.112000	0.345806
956.318000	6.181850
956.524000	2.786274
956.730000	-11.255189
956.935000	-12.728190
957.141000	-16.409537
957.347000	-3.599179
957.552000	-7.678123
957.758000	-28.506323
957.964000	-35.319282
958.169000	5.444642
958.375000	3.448666
958.581000	-14.873384
958.786000	-26.164042
958.992000	-30.310883
959.198000	-9.691232
959.404000	-3.750091
959.609000	-12.550576
959.815000	-17.790440
960.021000	-1.440763
960.226000	-2.441346
960.432000	-28.216026
960.638000	-21.784442
960.843000	-13.059721
961.049000	-14.061304
961.255000	-6.266412
961.460000	-17.535262
961.666000	-35.156777
961.872000	-20.385157
962.078000	-16.702163
962.283000	-29.093591
962.489000	-29.523059
962.695000	-19.676967
962.900000	-15.626657
963.106000	-14.584173
963.312000	-17.074867
963.517000	-20.900267
963.723000	-24.117752
963.929000	-0.046669
964.134000	5.853303
964.340000	-17.316741
964.546000	-20.470725
964.752000	-25.047766
964.957000	-29.278871
965.163000	-3.448153
965.369000	-5.625544
965.574000	-4.026619
965.780000	-8.507734
966.000000	-20.797030
966.220000	-17.415047
966.440000	-17.339344
966.661000	-3.428049
966.881000	-22.071310
967.101000	-40.301031
967.321000	-38.566739
967.541000	-9.833562
967.761000	-21.057937
967.981000	-18.788245
968.202000	-17.278199
968.422000	-2.549542
968.642000	-2.897181
968.862000	-3.683555
969.082000	-16.140166
969.302000	-8.738610
969.522000	-15.081698
969.743000	0.307094
969.963000	-18.333427
970.183000	-29.811414
970.403000	-27.358344
970.623000	-27.683651
970.843000	0.133516
971.063000	1.491341
971.284000	-23.441328
971.504000	-35.632932
971.724000	-13.321497
971.944000	-25.418025
972.164000	-36.977898
972.384000	-28.743835
972.604000	-44.308544
972.825000	-51.695316
973.045000	-33.715556
973.265000	22.960607
973.485000	13.336317
973.705000	-8.484568
973.925000	-17.802886
974.145000	-56.593968
974.365000	-20.422464
974.586000	-16.138688
974.806000	-36.274268
975.026000	-4.929484
975.246000	-16.267913
975.466000	-29.564362
975.686000	-14.366584
975.906000	-22.969657
976.127000	-53.969592
976.347000	-45.988456
976.567000	-6.504329
976.787000	-8.599303
977.007000	-25.498344
977.227000	-24.059109
977.447000	-27.697474
977.668000	-47.947955
977.888000	-34.845905
978.108000	-36.134355
978.328000	-23.407805
978.548000	3.105038
978.768000	5.902451
978.988000	-1.639132
979.209000	-17.948585
979.429000	-25.345551
979.649000	-10.007672
979.869000	-33.224654
980.089000	-47.994342
980.309000	-49.367791
980.529000	-60.925081
980.750000	-39.527757
980.970000	-51.807849
981.190000	-36.361106
981.410000	-35.076438
981.630000	-36.489733
981.850000	-22.774001
982.070000	-23.242181
982.291000	-51.100760
982.511000	-51.254725
982.731000	-9.628178
982.951000	-31.553454
983.171000	-29.290540
983.391000	-23.369380
983.611000	0.514127
983.832000	-29.448149
984.052000	-54.914562
984.272000	-26.813612
984.492000	-22.678633
984.712000	-41.727929
984.932000	-66.466621
985.152000	-70.434037
985.373000	-49.790351
985.593000	-22.967208
985.813000	-25.517623
986.033000	-38.000777
986.253000	3.686236
986.473000	5.798386
986.693000	-33.157290
986.914000	-38.233178
987.134000	10.837368
987.354000	-23.092121
987.574000	192.629103
987.794000	117.622734
988.014000	-43.161212
988.234000	-39.002262
988.455000	-20.325802
988.675000	-10.462895
988.895000	-29.072578
989.115000	-55.528250
989.335000	-30.570277
989.555000	-7.131921
989.775000	-51.705487
989.995000	-48.751743
990.216000	-34.642179
990.436000	-35.647680
990.656000	-1.815461
990.876000	-30.578916
991.096000	-14.030565
991.316000	15.319170
991.536000	-19.896343
991.757000	-34.655514
991.977000	-84.269254
992.197000	-19.311118
992.417000	-31.181627
992.637000	-86.481398
992.857000	-96.222299
993.077000	-91.557898
993.298000	-48.086870
993.518000	-47.338825
993.738000	-82.329452
993.958000	-43.185704
994.178000	-50.170547
994.398000	-53.104305
994.618000	-99.580776
994.839000	-152.750815
995.059000	-55.005547
995.279000	23.145019
995.499000	-9.226185
995.719000	-13.513694
995.939000	-36.714190
996.159000	-33.709837
996.380000	-30.006102
996.600000	-85.088622
996.820000	-45.897206
997.040000	5.436518
997.260000	-69.570922
997.480000	-41.014621
997.700000	-90.357259
997.921000	-65.953833
998.141000	20.191045
998.361000	-3.027286
998.581000	-56.280876
998.801000	-96.404120
999.021000	-68.962622
999.241000	-59.383470
999.462000	-64.975125
999.682000	-110.024199
999.902000	-79.798665
1000.122000	-92.863507
1000.342000	-139.729748
1000.562000	-62.060395
1000.782000	-77.418851
1001.003000	-1080.001702
