Wavelength	Irradiance
(nm)	(mW/cm2/nm)

294.396000	0.000000
294.577000	0.000000
294.757000	-0.000000
294.938000	-0.000000
295.118000	-0.000000
295.299000	0.000000
295.479000	-0.000000
295.660000	-0.000000
295.840000	-0.000000
296.021000	-0.000000
296.202000	-0.000000
296.382000	-0.000000
296.563000	-0.000000
296.743000	-0.000000
296.924000	0.000000
297.104000	-0.000000
297.285000	-0.000000
297.465000	-0.000000
297.646000	-0.000000
297.826000	-0.000000
298.007000	0.000000
298.187000	-0.000000
298.368000	-0.000000
298.548000	0.000000
298.729000	0.000000
298.909000	-0.000000
299.090000	-0.000000
299.270000	-0.000000
299.451000	-0.000000
299.631000	-0.000000
299.812000	-0.000000
299.992000	0.000000
300.173000	0.000000
300.353000	-0.000000
300.534000	-0.000000
300.714000	0.000000
300.895000	0.000000
301.075000	-0.000000
301.256000	0.000000
301.436000	-0.000000
301.617000	-0.000000
301.797000	-0.000000
301.978000	-0.000000
302.159000	0.000000
302.339000	0.000000
302.520000	-0.000000
302.700000	-0.000000
302.881000	0.000000
303.061000	0.000000
303.242000	0.000000
303.422000	0.000000
303.603000	-0.000000
303.783000	-0.000000
303.964000	0.000000
304.144000	-0.000000
304.325000	-0.000000
304.505000	0.000000
304.686000	-0.000000
304.866000	0.000000
305.047000	-0.000000
305.227000	-0.000000
305.408000	-0.000000
305.588000	-0.000000
305.769000	-0.000000
305.949000	-0.000000
306.130000	-0.000000
306.310000	-0.000000
306.491000	-0.000000
306.671000	0.000000
306.852000	-0.000000
307.032000	-0.000000
307.213000	-0.000000
307.393000	-0.000000
307.574000	0.000000
307.755000	0.000000
307.935000	0.000000
308.116000	-0.000000
308.296000	-0.000000
308.477000	0.000000
308.657000	0.000000
308.838000	0.000000
309.018000	0.000000
309.199000	-0.000000
309.379000	-0.000000
309.560000	0.000000
309.740000	-0.000000
309.921000	0.000000
310.101000	-0.000000
310.282000	-0.000000
310.462000	-0.000000
310.643000	-0.000000
310.823000	-0.000000
311.004000	-0.000000
311.184000	-0.000000
311.365000	0.000000
311.545000	0.000000
311.726000	0.000000
311.906000	-0.000000
312.087000	0.000000
312.267000	-0.000000
312.448000	-0.000000
312.628000	-0.000000
312.809000	-0.000000
312.989000	-0.000000
313.170000	-0.000000
313.344000	-0.000000
313.518000	-0.000000
313.691000	-0.000000
313.865000	-0.000000
314.039000	-0.000000
314.213000	-0.000000
314.387000	-0.000000
314.560000	-0.000000
314.734000	-0.000000
314.908000	-0.000000
315.082000	-0.000000
315.255000	0.000000
315.429000	0.000000
315.603000	0.000000
315.777000	-0.000000
315.951000	0.000000
316.124000	-0.000000
316.298000	-0.000000
316.472000	-0.000000
316.646000	-0.000000
316.820000	-0.000000
316.993000	-0.000000
317.167000	-0.000000
317.341000	-0.000000
317.515000	-0.000000
317.688000	-0.000000
317.862000	-0.000000
318.036000	-0.000000
318.210000	-0.000000
318.384000	-0.000000
318.557000	-0.000000
318.731000	-0.000000
318.905000	0.000000
319.079000	0.000000
319.253000	-0.000000
319.426000	0.000000
319.600000	0.000000
319.774000	-0.000000
319.948000	-0.000000
320.122000	0.000000
320.295000	-0.000000
320.469000	-0.000000
320.643000	-0.000000
320.817000	-0.000000
320.990000	-0.000000
321.164000	-0.000000
321.338000	-0.000000
321.512000	-0.000000
321.686000	-0.000000
321.859000	-0.000000
322.033000	-0.000000
322.207000	-0.000000
322.381000	-0.000000
322.555000	0.000000
322.728000	-0.000000
322.902000	-0.000000
323.076000	-0.000000
323.250000	-0.000000
323.423000	-0.000000
323.597000	-0.000000
323.771000	-0.000000
323.945000	-0.000000
324.119000	-0.000000
324.292000	0.000000
324.466000	-0.000000
324.640000	0.000000
324.814000	0.000000
324.988000	-0.000000
325.161000	-0.000000
325.335000	-0.000000
325.509000	-0.000000
325.683000	-0.000000
325.856000	-0.000000
326.030000	-0.000000
326.204000	-0.000000
326.378000	-0.000000
326.552000	-0.000000
326.725000	-0.000000
326.899000	-0.000000
327.073000	-0.000000
327.247000	-0.000000
327.421000	0.000000
327.594000	-0.000000
327.768000	-0.000000
327.942000	-0.000000
328.116000	0.000000
328.289000	0.000000
328.463000	-0.000000
328.637000	0.000000
328.811000	-0.000000
328.985000	-0.000000
329.158000	-0.000000
329.332000	-0.000000
329.506000	0.000000
329.680000	-0.000000
329.854000	-0.000000
330.027000	0.000000
330.201000	0.000000
330.375000	0.000000
330.549000	0.000000
330.723000	-0.000000
330.896000	-0.000000
331.070000	-0.000000
331.244000	-0.000000
331.418000	-0.000000
331.591000	-0.000000
331.765000	-0.000000
331.939000	-0.000000
332.113000	-0.000000
332.287000	-0.000000
332.460000	0.000000
332.634000	0.000000
332.808000	-0.000000
332.982000	-0.000000
333.156000	-0.000000
333.329000	-0.000000
333.503000	-0.000000
333.677000	-0.000000
333.851000	-0.000000
334.024000	-0.000000
334.198000	-0.000000
334.372000	-0.000000
334.546000	-0.000000
334.720000	-0.000000
334.893000	-0.000000
335.067000	-0.000000
335.241000	-0.000000
335.415000	-0.000000
335.589000	-0.000000
335.762000	-0.000000
335.936000	-0.000000
336.110000	-0.000000
336.284000	-0.000000
336.458000	-0.000000
336.631000	-0.000000
336.805000	-0.000000
336.979000	-0.000000
337.153000	-0.000000
337.326000	-0.000000
337.500000	-0.000000
337.674000	-0.000000
337.848000	-0.000000
338.022000	-0.000000
338.195000	-0.000000
338.369000	-0.000000
338.543000	-0.000000
338.717000	-0.000000
338.891000	0.000000
339.064000	0.000000
339.238000	-0.000000
339.412000	-0.000000
339.586000	-0.000000
339.759000	-0.000000
339.933000	-0.000000
340.107000	0.000000
340.281000	-0.000000
340.455000	-0.000000
340.628000	-0.000000
340.802000	-0.000000
340.976000	-0.000000
341.150000	-0.000000
341.324000	-0.000000
341.497000	-0.000000
341.671000	-0.000000
341.845000	-0.000000
342.019000	-0.000000
342.192000	-0.000000
342.366000	-0.000000
342.540000	-0.000000
342.714000	-0.000000
342.888000	-0.000000
343.061000	0.000000
343.235000	-0.000000
343.409000	-0.000000
343.583000	-0.000000
343.757000	-0.000000
343.930000	-0.000000
344.104000	-0.000000
344.278000	0.000000
344.452000	0.000000
344.626000	-0.000000
344.799000	-0.000000
344.973000	-0.000000
345.147000	-0.000000
345.321000	-0.000000
345.494000	-0.000000
345.668000	0.000000
345.842000	0.000000
346.016000	-0.000000
346.190000	0.000000
346.363000	0.000000
346.537000	-0.000000
346.711000	-0.000000
346.885000	-0.000000
347.059000	-0.000000
347.232000	0.000000
347.406000	0.000000
347.580000	-0.000000
347.754000	-0.000000
347.927000	-0.000000
348.101000	0.000000
348.275000	-0.000000
348.449000	-0.000000
348.623000	-0.000000
348.796000	0.000000
348.970000	0.000000
349.144000	-0.000000
349.318000	-0.000000
349.492000	-0.000000
349.665000	-0.000000
349.839000	-0.000000
350.013000	-0.000000
350.187000	-0.000000
350.361000	-0.000000
350.534000	-0.000000
350.708000	-0.000000
350.882000	-0.000000
351.056000	0.000000
351.229000	0.000000
351.403000	-0.000000
351.577000	-0.000000
351.751000	-0.000000
351.925000	-0.000000
352.098000	-0.000000
352.272000	-0.000000
352.446000	-0.000000
352.620000	-0.000000
352.794000	-0.000000
352.967000	-0.000000
353.141000	0.000000
353.315000	0.000000
353.489000	-0.000000
353.662000	-0.000000
353.836000	-0.000000
354.010000	-0.000000
354.184000	-0.000000
354.358000	-0.000000
354.531000	-0.000000
354.705000	-0.000000
354.879000	-0.000000
355.053000	-0.000000
355.227000	-0.000000
355.400000	-0.000000
355.574000	0.000000
355.748000	0.000000
355.922000	-0.000000
356.095000	-0.000000
356.269000	-0.000000
356.443000	-0.000000
356.617000	-0.000000
356.791000	-0.000000
356.964000	-0.000000
357.138000	-0.000000
357.312000	-0.000000
357.486000	-0.000000
357.660000	-0.000000
357.833000	-0.000000
358.007000	-0.000000
358.181000	-0.000000
358.355000	-0.000000
358.529000	-0.000000
358.702000	-0.000000
358.876000	-0.000000
359.050000	-0.000000
359.224000	-0.000000
359.397000	-0.000000
359.571000	-0.000000
359.745000	-0.000000
359.919000	-0.000000
360.093000	-0.054194
360.266000	0.021337
360.440000	0.102632
360.614000	0.147701
360.788000	-0.016276
360.962000	-0.248583
361.135000	-0.087065
361.309000	-0.211721
361.483000	-0.352255
361.657000	-0.267998
361.830000	-0.232449
362.004000	-0.028834
362.178000	-0.372818
362.352000	-0.248655
362.526000	-0.095955
362.699000	-0.091869
362.873000	-0.440743
363.047000	-0.453694
363.221000	-0.385676
363.395000	-0.170488
363.568000	-0.193977
363.742000	-0.213581
363.916000	-0.205901
364.090000	-0.309759
364.263000	-0.308502
364.437000	-0.388285
364.611000	-0.099766
364.785000	-0.081800
364.959000	-0.297264
365.132000	-0.296860
365.306000	-0.276339
365.480000	-0.145046
365.656000	-0.249887
365.831000	-0.259391
366.007000	-0.227565
366.183000	-0.198982
366.358000	-0.290163
366.534000	-0.200733
366.710000	-0.350221
366.886000	-0.242958
367.061000	-0.088027
367.237000	-0.001106
367.413000	-0.182813
367.588000	-0.370244
367.764000	-0.333535
367.940000	-0.374179
368.115000	-0.319891
368.291000	-0.342845
368.467000	-0.188027
368.643000	0.129106
368.818000	-0.205366
368.994000	-0.437535
369.170000	-0.355908
369.345000	-0.259349
369.521000	-0.310430
369.697000	-0.166881
369.872000	-0.247740
370.048000	-0.373875
370.224000	-0.297787
370.399000	-0.460076
370.575000	-0.403642
370.751000	-0.492869
370.927000	-0.468023
371.102000	-0.440410
371.278000	-0.372771
371.454000	-0.260981
371.629000	0.001161
371.805000	-0.086974
371.981000	0.064538
372.156000	0.215563
372.332000	-0.035357
372.508000	-0.098644
372.683000	-0.111901
372.859000	-0.152201
373.035000	-0.160881
373.211000	0.267480
373.386000	0.031740
373.562000	-0.361901
373.738000	-0.480586
373.913000	-0.670011
374.089000	-0.545648
374.265000	-0.144300
374.440000	-0.029590
374.616000	0.012991
374.792000	-0.221747
374.968000	0.169140
375.143000	-0.045172
375.319000	-0.327465
375.495000	-0.443425
375.670000	-0.292002
375.846000	-0.150157
376.022000	-0.337563
376.197000	-0.243797
376.373000	-0.414099
376.549000	-0.428682
376.724000	-0.500272
376.900000	-0.375399
377.076000	-0.236989
377.252000	-0.030302
377.427000	0.082447
377.603000	-0.266387
377.779000	-0.266486
377.954000	-0.406604
378.130000	-0.243833
378.306000	-0.164511
378.481000	-0.163836
378.657000	-0.282161
378.833000	-0.324332
379.009000	-0.185500
379.184000	-0.030588
379.360000	-0.079730
379.536000	-0.080391
379.711000	-0.155397
379.887000	-0.314165
380.063000	-0.301853
380.238000	-0.358218
380.414000	-0.126965
380.590000	-0.350553
380.765000	-0.353992
380.941000	-0.180052
381.117000	-0.178904
381.293000	-0.209527
381.468000	-0.283930
381.644000	-0.199157
381.820000	-0.121380
381.995000	-0.082088
382.171000	0.141225
382.347000	0.163623
382.522000	-0.313067
382.698000	-0.007815
382.874000	0.065772
383.050000	-0.328798
383.225000	0.041454
383.401000	0.180972
383.577000	-0.161881
383.752000	-0.256456
383.928000	-0.218218
384.104000	-0.089701
384.279000	-0.217047
384.455000	-0.126991
384.631000	-0.202376
384.806000	-0.465734
384.982000	-0.202613
385.158000	-0.237864
385.334000	-0.091271
385.509000	-0.182199
385.685000	-0.467715
385.861000	-0.335398
386.036000	-0.456892
386.212000	-0.592092
386.388000	-0.356509
386.563000	-0.272622
386.739000	-0.388362
386.915000	-0.635768
387.090000	-0.315133
387.266000	-0.105419
387.442000	-0.003326
387.618000	-0.073691
387.793000	-0.322813
387.969000	-0.515570
388.145000	-0.427857
388.320000	-0.364442
388.496000	-0.380455
388.672000	-0.585569
388.847000	-0.121497
389.023000	-0.117873
389.199000	-0.452914
389.375000	-0.232507
389.550000	-0.269742
389.726000	-0.213951
389.902000	-0.454540
390.077000	-0.228725
390.253000	-0.154026
390.429000	-0.240635
390.604000	-0.177863
390.780000	-0.146578
390.956000	-0.257491
391.131000	-0.338723
391.307000	0.016141
391.483000	-0.183937
391.659000	-0.443543
391.834000	-0.188046
392.010000	-0.301539
392.186000	-0.394236
392.361000	-0.313271
392.537000	-0.401949
392.713000	0.117477
392.888000	0.244843
393.064000	-0.101053
393.240000	-0.296029
393.416000	-0.448167
393.591000	-0.485392
393.767000	-0.493326
393.943000	-0.381922
394.118000	-0.026157
394.294000	0.128608
394.470000	-0.042759
394.645000	0.030148
394.821000	0.201805
394.997000	-0.186000
395.172000	-0.222229
395.348000	-0.346946
395.524000	-0.562843
395.700000	-0.347204
395.875000	-0.136463
396.051000	-0.175223
396.227000	-0.190983
396.402000	-0.295778
396.578000	-0.255686
396.754000	-0.384023
396.929000	-0.302361
397.105000	-0.074710
397.281000	-0.160626
397.457000	-0.247888
397.632000	-0.223070
397.808000	-0.462187
397.984000	-0.626535
398.159000	-0.515376
398.335000	-0.337056
398.511000	0.108757
398.686000	-0.090366
398.862000	-0.355998
399.038000	-0.451647
399.213000	-0.169196
399.389000	-0.446755
399.565000	-0.212190
399.741000	-0.011050
399.916000	-0.063896
400.092000	0.156436
400.268000	-0.205197
400.443000	-0.294752
400.619000	0.096045
400.795000	-0.031456
400.970000	-0.227294
401.146000	-0.288496
401.322000	-0.007084
401.497000	0.356976
401.673000	0.037610
401.849000	-0.288735
402.025000	-0.075661
402.200000	-0.174051
402.376000	-0.292639
402.552000	0.162576
402.727000	-0.027137
402.903000	-0.416224
403.079000	-0.344243
403.254000	-0.039175
403.430000	-0.060865
403.606000	-0.186893
403.782000	-0.204626
403.957000	-0.399404
404.133000	-0.528897
404.309000	-0.297978
404.484000	-0.136961
404.660000	-0.171428
404.841000	-0.283882
405.023000	-0.038908
405.204000	-0.113066
405.385000	-0.423174
405.566000	-0.433279
405.748000	-0.280069
405.929000	-0.025403
406.110000	-0.113495
406.292000	-0.277425
406.473000	-0.180423
406.654000	-0.346633
406.835000	-0.187243
407.017000	-0.244392
407.198000	-0.241666
407.379000	-0.187881
407.560000	-0.182549
407.742000	-0.203853
407.923000	-0.168987
408.104000	-0.359257
408.286000	-0.253255
408.467000	-0.177335
408.648000	-0.408435
408.829000	-0.456512
409.011000	-0.318272
409.192000	-0.436966
409.373000	-0.289262
409.555000	-0.201823
409.736000	-0.214295
409.917000	-0.310247
410.098000	-0.294408
410.280000	-0.155425
410.461000	-0.145391
410.642000	-0.151525
410.823000	0.094791
411.005000	0.026419
411.186000	-0.237927
411.367000	-0.296930
411.549000	-0.316301
411.730000	-0.102793
411.911000	-0.008796
412.092000	-0.199756
412.274000	-0.225329
412.455000	-0.132764
412.636000	-0.109606
412.818000	-0.346833
412.999000	-0.434687
413.180000	-0.348499
413.361000	-0.314914
413.543000	-0.342145
413.724000	-0.391257
413.905000	-0.406652
414.087000	-0.434476
414.268000	-0.423997
414.449000	-0.413335
414.630000	-0.503105
414.812000	-0.599632
414.993000	-0.224709
415.174000	-0.095808
415.355000	-0.251020
415.537000	-0.493167
415.718000	-0.187387
415.899000	-0.274078
416.081000	-0.425955
416.262000	-0.245999
416.443000	-0.382647
416.624000	-0.353622
416.806000	-0.207695
416.987000	-0.078377
417.168000	-0.181158
417.350000	-0.374432
417.531000	-0.388971
417.712000	-0.372151
417.893000	-0.120275
418.075000	-0.010218
418.256000	-0.308349
418.437000	-0.242247
418.618000	-0.088535
418.800000	-0.008374
418.981000	-0.239799
419.162000	-0.205139
419.344000	-0.012037
419.525000	-0.172225
419.706000	-0.250702
419.887000	-0.105102
420.069000	0.060393
420.250000	-0.034369
420.431000	-0.041698
420.613000	-0.159204
420.794000	-0.405759
420.975000	-0.048926
421.156000	-0.272851
421.338000	-0.305899
421.519000	-0.257790
421.700000	-0.358640
421.882000	-0.375254
422.063000	-0.180235
422.244000	0.319105
422.425000	0.089543
422.607000	-0.269574
422.788000	-0.303605
422.969000	-0.401085
423.150000	-0.477244
423.332000	-0.486914
423.513000	-0.272397
423.694000	-0.245981
423.876000	-0.163798
424.057000	-0.093481
424.238000	-0.030658
424.419000	-0.032611
424.601000	-0.209615
424.782000	-0.203819
424.963000	-0.019382
425.145000	-0.115685
425.326000	-0.067270
425.507000	-0.039566
425.688000	-0.124852
425.870000	-0.281339
426.051000	-0.402984
426.232000	-0.371600
426.413000	-0.349670
426.595000	-0.358911
426.776000	-0.362435
426.957000	-0.325098
427.139000	-0.211204
427.320000	-0.184347
427.501000	-0.082768
427.682000	-0.095319
427.864000	-0.089716
428.045000	0.078846
428.226000	-0.023273
428.408000	-0.376666
428.589000	-0.215778
428.770000	-0.159849
428.951000	-0.296096
429.133000	-0.438681
429.314000	-0.237859
429.495000	-0.306634
429.677000	-0.265466
429.858000	-0.251041
430.039000	-0.221875
430.220000	-0.120625
430.402000	-0.037635
430.583000	-0.269581
430.764000	-0.252012
430.945000	-0.155175
431.127000	-0.077490
431.308000	-0.202363
431.489000	-0.033762
431.671000	0.002749
431.852000	-0.122863
432.033000	-0.170207
432.214000	-0.077215
432.396000	-0.046207
432.577000	-0.197039
432.758000	-0.408780
432.940000	-0.342863
433.121000	-0.209861
433.302000	-0.189245
433.483000	-0.055125
433.665000	0.060579
433.846000	-0.044296
434.027000	-0.189548
434.208000	-0.268249
434.390000	-0.373692
434.571000	-0.069365
434.752000	0.358573
434.934000	0.150292
435.115000	0.040118
435.296000	0.120317
435.477000	-0.084419
435.659000	-0.284005
435.840000	-0.161399
436.026000	-0.199612
436.211000	-0.299529
436.397000	-0.569663
436.582000	-0.392919
436.768000	-0.156513
436.953000	-0.315222
437.139000	-0.290139
437.325000	0.019952
437.510000	-0.035561
437.696000	0.106400
437.881000	0.082049
438.067000	-0.261912
438.252000	-0.268983
438.438000	-0.277380
438.624000	-0.220712
438.809000	-0.129150
438.995000	-0.057238
439.180000	-0.145634
439.366000	-0.198231
439.551000	-0.194567
439.737000	-0.163648
439.923000	-0.134995
440.108000	-0.207738
440.294000	-0.147930
440.479000	-0.017689
440.665000	0.024269
440.850000	-0.079059
441.036000	-0.102594
441.222000	-0.148260
441.407000	-0.289665
441.593000	-0.173715
441.778000	-0.057219
441.964000	-0.009161
442.149000	-0.287882
442.335000	-0.299642
442.521000	-0.152542
442.706000	-0.018888
442.892000	-0.145040
443.077000	-0.237610
443.263000	-0.100708
443.448000	-0.167091
443.634000	-0.227568
443.820000	0.091582
444.005000	-0.029968
444.191000	-0.281632
444.376000	-0.239918
444.562000	0.098752
444.747000	0.065371
444.933000	-0.049090
445.119000	-0.121226
445.304000	-0.209147
445.490000	-0.079363
445.675000	-0.112980
445.861000	-0.269142
446.046000	-0.234885
446.232000	-0.119282
446.418000	-0.082365
446.603000	-0.083955
446.789000	-0.098241
446.974000	-0.127378
447.160000	-0.300936
447.345000	-0.248538
447.531000	-0.284815
447.717000	-0.077427
447.902000	-0.016832
448.088000	0.000797
448.273000	-0.119706
448.459000	-0.143084
448.644000	-0.193782
448.830000	-0.288187
449.016000	-0.338714
449.201000	-0.254270
449.387000	-0.145284
449.572000	-0.053032
449.758000	-0.185886
449.943000	-0.285961
450.129000	-0.308490
450.315000	-0.298460
450.500000	-0.295567
450.686000	-0.199775
450.871000	-0.299555
451.057000	-0.160173
451.243000	-0.189937
451.428000	-0.234386
451.614000	-0.225958
451.799000	-0.217955
451.985000	-0.057414
452.170000	-0.005500
452.356000	-0.182948
452.542000	-0.197317
452.727000	-0.058774
452.913000	-0.160914
453.098000	-0.000785
453.284000	0.154559
453.469000	-0.022779
453.655000	0.090175
453.841000	0.022704
454.026000	-0.133290
454.212000	-0.104927
454.397000	-0.105069
454.583000	-0.239447
454.768000	-0.347454
454.954000	-0.149785
455.140000	-0.092198
455.325000	-0.265140
455.511000	-0.364299
455.696000	-0.336367
455.882000	-0.141842
456.067000	0.062812
456.253000	-0.123306
456.439000	-0.272164
456.624000	-0.291363
456.810000	-0.282854
456.995000	-0.255453
457.181000	-0.350224
457.366000	-0.092663
457.552000	-0.075504
457.738000	-0.014474
457.923000	0.002289
458.109000	0.175293
458.294000	0.055823
458.480000	-0.043642
458.665000	-0.101528
458.851000	-0.240038
459.037000	-0.401943
459.222000	-0.215748
459.408000	-0.227866
459.593000	-0.186084
459.779000	-0.017272
459.964000	0.101558
460.150000	0.225332
460.336000	0.136266
460.521000	-0.056074
460.707000	-0.161862
460.892000	-0.271728
461.078000	-0.072382
461.263000	0.045315
461.449000	-0.137921
461.635000	-0.124368
461.820000	-0.081012
462.006000	-0.037743
462.191000	-0.049402
462.377000	-0.233051
462.562000	0.101041
462.748000	0.290583
462.934000	-0.136257
463.119000	-0.324775
463.305000	-0.139430
463.490000	-0.176530
463.676000	-0.123084
463.861000	-0.167513
464.047000	-0.196150
464.233000	-0.106485
464.418000	-0.125184
464.604000	-0.223105
464.789000	-0.029625
464.975000	0.005042
465.160000	-0.165217
465.346000	-0.168008
465.532000	-0.249129
465.717000	-0.281888
465.903000	-0.051105
466.088000	-0.115743
466.274000	-0.265354
466.459000	-0.235586
466.645000	0.109710
466.831000	0.047741
467.016000	0.036281
467.202000	-0.062168
467.387000	-0.141801
467.573000	-0.304458
467.758000	0.021908
467.944000	-0.074169
468.130000	-0.189576
468.315000	-0.060384
468.501000	0.044596
468.686000	-0.071322
468.872000	-0.069933
469.057000	-0.020480
469.243000	-0.092643
469.429000	-0.143454
469.614000	-0.229118
469.800000	-0.284115
469.985000	-0.121585
470.171000	-0.032908
470.356000	-0.145476
470.542000	-0.064198
470.728000	-0.083662
470.913000	-0.119622
471.099000	0.004893
471.284000	-0.080965
471.470000	-0.137488
471.655000	-0.099430
471.841000	-0.156755
472.027000	-0.223038
472.212000	-0.010497
472.398000	0.038614
472.583000	-0.087853
472.769000	-0.099283
472.954000	-0.108971
473.140000	-0.234510
473.326000	-0.272662
473.511000	0.014690
473.697000	0.037118
473.882000	-0.120250
474.068000	-0.183890
474.253000	-0.258867
474.439000	-0.189014
474.625000	-0.083463
474.810000	-0.091945
474.996000	-0.075100
475.181000	-0.224467
475.367000	-0.088900
475.552000	0.137277
475.738000	-0.149105
475.924000	-0.166279
476.109000	-0.080651
476.295000	-0.181737
476.480000	-0.115898
476.666000	-0.133957
476.851000	-0.108651
477.037000	-0.082443
477.223000	-0.207052
477.408000	-0.294165
477.594000	-0.378055
477.779000	-0.239668
477.965000	-0.190536
478.151000	-0.291721
478.336000	-0.134386
478.522000	-0.212679
478.707000	-0.306703
478.893000	-0.218723
479.078000	-0.332068
479.264000	-0.326512
479.450000	-0.250450
479.635000	-0.082431
479.821000	-0.158799
480.006000	-0.107901
480.192000	-0.100753
480.377000	-0.099560
480.563000	-0.116393
480.749000	-0.287288
480.934000	-0.244674
481.120000	-0.120132
481.305000	-0.059632
481.491000	-0.082416
481.676000	-0.051538
481.862000	-0.067225
482.048000	-0.196363
482.233000	-0.160982
482.419000	-0.161346
482.604000	-0.254609
482.790000	-0.263079
482.975000	-0.182843
483.161000	-0.041527
483.347000	-0.052704
483.532000	-0.070989
483.718000	-0.305344
483.903000	-0.284588
484.089000	-0.216272
484.274000	-0.341129
484.460000	-0.226232
484.646000	-0.137442
484.831000	-0.253216
485.017000	-0.190547
485.202000	-0.188782
485.388000	0.027352
485.573000	0.003500
485.759000	-0.202796
485.945000	-0.047025
486.130000	-0.191464
486.316000	-0.187328
486.501000	-0.086069
486.687000	-0.245265
486.872000	-0.316825
487.058000	-0.156068
487.244000	-0.109946
487.429000	-0.300950
487.615000	-0.152947
487.800000	-0.060750
487.986000	-0.169034
488.171000	-0.080181
488.357000	-0.121601
488.543000	-0.108697
488.728000	-0.045016
488.914000	-0.112960
489.099000	-0.229248
489.285000	-0.231852
489.470000	-0.071108
489.656000	-0.039380
489.842000	-0.057123
490.027000	0.032249
490.213000	-0.127149
490.398000	-0.383775
490.584000	-0.140753
490.769000	-0.139380
490.955000	-0.061002
491.141000	-0.063603
491.326000	-0.131531
491.512000	0.026567
491.697000	-0.072739
491.883000	-0.200623
492.068000	-0.223773
492.254000	-0.190103
492.440000	-0.127341
492.625000	-0.211152
492.811000	-0.217501
492.996000	-0.107586
493.182000	-0.143665
493.367000	-0.314529
493.553000	-0.367390
493.739000	-0.238478
493.924000	-0.110245
494.110000	-0.124728
494.295000	-0.248027
494.481000	-0.146038
494.666000	-0.100346
494.852000	0.036981
495.038000	-0.128163
495.223000	-0.245284
495.409000	-0.197778
495.594000	-0.235712
495.780000	-0.178835
495.965000	-0.267518
496.151000	-0.060939
496.337000	0.019402
496.522000	-0.239256
496.708000	-0.151833
496.893000	0.011370
497.079000	-0.134096
497.264000	-0.179119
497.450000	-0.165866
497.636000	-0.092676
497.821000	-0.213465
498.007000	-0.013965
498.192000	0.040717
498.378000	-0.095284
498.563000	-0.156636
498.749000	-0.108756
498.935000	-0.093935
499.120000	-0.021931
499.306000	-0.206983
499.491000	-0.227663
499.677000	-0.121427
499.862000	-0.041961
500.048000	0.003336
500.234000	-0.091179
500.419000	-0.123349
500.605000	0.018018
500.790000	-0.051329
500.976000	-0.216995
501.161000	-0.305047
501.347000	-0.127487
501.533000	-0.040742
501.718000	-0.116813
501.904000	-0.143848
502.089000	-0.022112
502.275000	0.027401
502.460000	-0.104617
502.646000	-0.078053
502.832000	-0.007342
503.017000	-0.059525
503.203000	-0.247142
503.388000	-0.286675
503.574000	-0.085041
503.759000	-0.032802
503.945000	0.012741
504.131000	-0.074433
504.316000	-0.117278
504.502000	-0.113300
504.687000	-0.149902
504.873000	-0.240112
505.058000	-0.265637
505.244000	-0.280364
505.430000	-0.196019
505.615000	-0.123426
505.801000	-0.081757
505.986000	-0.256191
506.172000	-0.191755
506.358000	-0.176008
506.543000	-0.184000
506.729000	0.024953
506.914000	-0.008786
507.100000	0.101051
507.285000	-0.095786
507.471000	-0.225967
507.657000	0.008820
507.842000	-0.128059
508.028000	-0.296295
508.213000	-0.249455
508.399000	-0.195482
508.584000	-0.047044
508.770000	-0.123188
508.956000	-0.207744
509.141000	-0.153118
509.327000	-0.066147
509.512000	-0.152827
509.698000	-0.155780
509.883000	-0.062076
510.069000	-0.151163
510.255000	-0.118384
510.440000	-0.065089
510.626000	-0.115730
510.811000	-0.169387
510.997000	-0.106318
511.182000	0.102081
511.368000	0.045952
511.554000	-0.299893
511.739000	-0.224260
511.925000	-0.014411
512.110000	-0.037708
512.296000	0.085914
512.481000	0.107777
512.667000	-0.035048
512.853000	-0.233007
513.038000	-0.157621
513.224000	-0.197591
513.409000	-0.237497
513.595000	-0.111011
513.780000	-0.277730
513.966000	-0.182186
514.152000	-0.164331
514.337000	-0.230432
514.523000	-0.194681
514.708000	-0.138413
514.894000	-0.126365
515.079000	-0.230422
515.265000	-0.185661
515.451000	-0.155357
515.636000	-0.236660
515.822000	-0.115369
516.007000	-0.217646
516.193000	-0.095946
516.378000	-0.036646
516.564000	-0.112541
516.750000	-0.107055
516.935000	-0.039388
517.121000	-0.004836
517.306000	0.057396
517.492000	0.020084
517.677000	-0.210993
517.863000	-0.259465
518.049000	-0.129427
518.234000	-0.210938
518.420000	-0.078248
518.605000	0.125292
518.791000	0.089252
518.976000	-0.036815
519.162000	-0.172644
519.348000	-0.082526
519.533000	-0.069941
519.719000	0.076944
519.904000	-0.028453
520.090000	-0.040861
520.275000	0.122666
520.461000	0.068746
520.647000	-0.129829
520.832000	-0.266626
521.018000	-0.136786
521.203000	-0.139106
521.389000	-0.316047
521.574000	-0.223606
521.760000	-0.094968
521.946000	-0.110553
522.131000	-0.174671
522.317000	-0.154947
522.502000	-0.210443
522.688000	-0.095193
522.873000	-0.107802
523.059000	-0.184436
523.245000	-0.148106
523.430000	-0.233233
523.616000	-0.241520
523.801000	-0.331049
523.987000	-0.254841
524.172000	-0.116586
524.358000	-0.059366
524.544000	-0.108078
524.729000	-0.000695
524.915000	0.020216
525.100000	-0.112188
525.286000	-0.070483
525.471000	-0.080479
525.657000	-0.049738
525.843000	-0.241971
526.028000	-0.076503
526.214000	-0.107344
526.399000	-0.231493
526.585000	-0.293471
526.770000	-0.294844
526.956000	-0.150259
527.142000	-0.261672
527.327000	-0.136283
527.513000	-0.209980
527.698000	-0.235695
527.884000	-0.209560
528.069000	-0.231824
528.255000	-0.155462
528.441000	-0.215348
528.626000	-0.174661
528.812000	0.076219
528.997000	-0.066381
529.183000	-0.210472
529.368000	-0.113968
529.554000	-0.099896
529.740000	-0.129005
529.925000	-0.188143
530.111000	-0.178248
530.296000	-0.132258
530.482000	-0.002173
530.667000	-0.090599
530.853000	-0.032720
531.039000	-0.085257
531.224000	-0.047620
531.410000	0.016845
531.595000	-0.104829
531.781000	-0.027128
531.967000	-0.157040
532.152000	-0.068781
532.338000	-0.150433
532.523000	-0.256148
532.709000	-0.286902
532.894000	-0.149025
533.080000	-0.111701
533.266000	-0.270835
533.451000	-0.315518
533.637000	-0.263660
533.822000	-0.049301
534.008000	-0.165962
534.193000	-0.178748
534.379000	-0.055725
534.565000	-0.127995
534.750000	-0.168472
534.936000	0.030116
535.121000	-0.120000
535.307000	-0.050410
535.492000	-0.073795
535.678000	-0.286785
535.864000	-0.181403
536.049000	0.112945
536.235000	-0.106745
536.420000	-0.100879
536.606000	-0.182421
536.791000	-0.300497
536.977000	-0.257869
537.163000	-0.002419
537.348000	-0.031636
537.534000	0.012249
537.719000	-0.139988
537.905000	-0.334486
538.090000	-0.094885
538.276000	0.019044
538.462000	-0.050672
538.647000	-0.030860
538.833000	-0.178626
539.018000	-0.083411
539.204000	-0.088528
539.389000	-0.248727
539.575000	0.062021
539.761000	-0.024762
539.946000	-0.301114
540.132000	-0.195496
540.317000	-0.299701
540.503000	-0.177438
540.688000	-0.154168
540.874000	0.046304
541.060000	0.173800
541.245000	0.006142
541.431000	-0.192894
541.616000	-0.168692
541.802000	-0.204195
541.987000	-0.124995
542.173000	-0.107675
542.359000	-0.255696
542.544000	-0.148568
542.730000	-0.329581
542.915000	-0.303516
543.101000	-0.124523
543.286000	-0.347414
543.472000	-0.425462
543.658000	-0.324525
543.843000	-0.278203
544.029000	-0.073638
544.214000	-0.164760
544.400000	-0.502125
544.585000	-0.380846
544.771000	-0.292297
544.957000	-0.109274
545.142000	-0.010109
545.328000	0.002764
545.513000	0.026772
545.699000	0.026887
545.884000	-0.077006
546.070000	-0.127164
546.261000	-0.149985
546.451000	-0.262587
546.642000	-0.437154
546.833000	-0.297252
547.023000	-0.381559
547.214000	-0.315330
547.405000	-0.138343
547.595000	0.144176
547.786000	0.084190
547.977000	-0.175478
548.167000	-0.318026
548.358000	-0.277474
548.549000	0.110058
548.740000	-0.119628
548.930000	-0.441343
549.121000	-0.317797
549.312000	-0.359492
549.502000	-0.435717
549.693000	-0.242299
549.884000	-0.138084
550.074000	-0.066863
550.265000	-0.245746
550.456000	-0.185975
550.646000	-0.155184
550.837000	-0.180622
551.028000	-0.276674
551.218000	-0.157360
551.409000	-0.279774
551.600000	-0.185692
551.790000	-0.026632
551.981000	-0.281103
552.172000	-0.283603
552.362000	0.048399
552.553000	0.088355
552.744000	-0.147822
552.934000	-0.153908
553.125000	-0.211876
553.316000	-0.229928
553.506000	0.142630
553.697000	-0.095107
553.888000	-0.090942
554.079000	0.065010
554.269000	0.015017
554.460000	-0.276012
554.651000	-0.296391
554.841000	-0.415413
555.032000	-0.279045
555.223000	-0.188645
555.413000	-0.051221
555.604000	-0.067576
555.795000	-0.138540
555.985000	-0.055732
556.176000	-0.181053
556.367000	-0.470232
556.557000	-0.358162
556.748000	-0.265333
556.939000	-0.293345
557.129000	-0.353948
557.320000	-0.169473
557.511000	-0.193467
557.701000	-0.229568
557.892000	-0.216275
558.083000	0.045642
558.273000	-0.057824
558.464000	-0.281022
558.655000	-0.238206
558.845000	-0.138461
559.036000	-0.057649
559.227000	-0.152831
559.418000	-0.035490
559.608000	0.017231
559.799000	-0.306736
559.990000	-0.355453
560.180000	-0.263157
560.371000	-0.406950
560.562000	-0.315585
560.752000	-0.124129
560.943000	-0.332173
561.134000	-0.538711
561.324000	-0.340939
561.515000	-0.007027
561.706000	-0.147731
561.896000	-0.378052
562.087000	-0.263437
562.278000	-0.283359
562.468000	-0.383868
562.659000	-0.322847
562.850000	-0.017003
563.040000	0.053009
563.231000	-0.401381
563.422000	-0.260389
563.612000	-0.334585
563.803000	-0.292104
563.994000	-0.389919
564.185000	-0.415019
564.375000	-0.175521
564.566000	-0.246620
564.757000	-0.233401
564.947000	-0.324389
565.138000	-0.208606
565.329000	-0.281200
565.519000	-0.432922
565.710000	-0.324772
565.901000	-0.105698
566.091000	0.012832
566.282000	-0.205831
566.473000	-0.226794
566.663000	-0.183381
566.854000	-0.381913
567.045000	-0.271808
567.235000	-0.191887
567.426000	-0.164554
567.617000	-0.163961
567.807000	-0.177620
567.998000	-0.171447
568.189000	-0.270180
568.379000	-0.198016
568.570000	-0.105140
568.761000	-0.147271
568.951000	-0.208543
569.142000	-0.233843
569.333000	-0.280029
569.524000	-0.392107
569.714000	-0.453422
569.905000	-0.548341
570.096000	-0.167437
570.286000	-0.025798
570.477000	0.063844
570.668000	-0.164698
570.858000	-0.145650
571.049000	-0.251384
571.240000	-0.346420
571.430000	-0.169666
571.621000	-0.233290
571.812000	-0.125106
572.002000	-0.112135
572.193000	-0.271885
572.384000	-0.204061
572.574000	-0.166580
572.765000	-0.194459
572.956000	-0.236928
573.146000	-0.083472
573.337000	-0.210604
573.528000	-0.189681
573.718000	-0.049393
573.909000	0.006514
574.100000	-0.045437
574.290000	-0.200581
574.481000	-0.209355
574.672000	-0.202209
574.863000	-0.085527
575.053000	-0.263438
575.244000	-0.162083
575.435000	-0.284516
575.625000	-0.283261
575.816000	-0.275632
576.007000	-0.184666
576.197000	-0.208646
576.388000	-0.195128
576.579000	-0.049900
576.769000	-0.071591
576.960000	-0.348629
577.155000	-0.510212
577.350000	-0.202932
577.545000	-0.069319
577.740000	-0.230676
577.935000	0.092259
578.130000	-0.000896
578.326000	-0.313682
578.521000	-0.066995
578.716000	-0.052460
578.911000	-0.322406
579.106000	-0.170773
579.301000	-0.071453
579.496000	-0.220719
579.691000	-0.466541
579.886000	-0.283050
580.081000	-0.151370
580.276000	-0.161473
580.471000	-0.274893
580.666000	-0.365017
580.861000	-0.389272
581.057000	-0.363382
581.252000	-0.210062
581.447000	-0.310473
581.642000	-0.317964
581.837000	-0.284478
582.032000	-0.264584
582.227000	-0.081932
582.422000	-0.071450
582.617000	-0.249368
582.812000	-0.363260
583.007000	-0.335727
583.202000	-0.393093
583.397000	-0.140203
583.592000	0.070403
583.788000	-0.208843
583.983000	-0.230607
584.178000	-0.152652
584.373000	-0.283365
584.568000	-0.301232
584.763000	-0.343519
584.958000	-0.370370
585.153000	-0.286406
585.348000	-0.274498
585.543000	-0.126886
585.738000	-0.192342
585.933000	-0.368819
586.128000	-0.180565
586.324000	-0.199562
586.519000	-0.185954
586.714000	-0.058104
586.909000	0.007592
587.104000	-0.034702
587.299000	-0.122377
587.494000	-0.159295
587.689000	-0.230545
587.884000	-0.210911
588.079000	-0.273610
588.274000	-0.231681
588.469000	-0.193952
588.664000	-0.082262
588.859000	-0.077285
589.055000	-0.094380
589.250000	-0.174389
589.445000	-0.333016
589.640000	-0.287255
589.835000	-0.007690
590.030000	0.023063
590.225000	0.017941
590.420000	-0.141160
590.615000	-0.242328
590.810000	-0.218108
591.005000	-0.193236
591.200000	-0.286108
591.395000	-0.315272
591.591000	-0.242693
591.786000	-0.137954
591.981000	-0.222582
592.176000	-0.198924
592.371000	-0.154204
592.566000	-0.205743
592.761000	-0.045618
592.956000	-0.111222
593.151000	-0.030192
593.346000	-0.096015
593.541000	-0.094188
593.736000	-0.104879
593.931000	-0.222857
594.126000	-0.162397
594.322000	-0.158917
594.517000	-0.270016
594.712000	-0.360470
594.907000	-0.398379
595.102000	-0.264481
595.297000	-0.121250
595.492000	-0.034092
595.687000	-0.198833
595.882000	-0.293580
596.077000	-0.206344
596.272000	0.007901
596.467000	0.018441
596.662000	-0.187232
596.857000	-0.161503
597.053000	-0.147631
597.248000	-0.096316
597.443000	-0.045125
597.638000	-0.139250
597.833000	-0.343573
598.028000	-0.148073
598.223000	-0.050639
598.418000	-0.161087
598.613000	-0.264290
598.808000	-0.141597
599.003000	-0.143533
599.198000	-0.299033
599.393000	-0.259679
599.589000	-0.138693
599.784000	-0.346527
599.979000	-0.262745
600.174000	-0.061918
600.369000	-0.261405
600.564000	-0.177194
600.759000	0.049528
600.954000	0.119567
601.149000	0.015330
601.344000	-0.287952
601.539000	-0.116581
601.734000	-0.192242
601.929000	-0.478648
602.124000	-0.402980
602.320000	-0.107950
602.515000	0.115226
602.710000	0.044549
602.905000	-0.282710
603.100000	-0.340339
603.295000	-0.259134
603.490000	-0.137689
603.685000	-0.123120
603.880000	-0.134227
604.075000	-0.282865
604.270000	-0.276126
604.465000	-0.228249
604.660000	-0.424758
604.856000	-0.253934
605.051000	-0.074398
605.246000	-0.136743
605.441000	-0.377466
605.636000	-0.408809
605.831000	-0.267824
606.026000	-0.359711
606.221000	-0.373100
606.416000	-0.190939
606.611000	-0.019390
606.806000	-0.043357
607.001000	0.096987
607.196000	-0.111869
607.391000	-0.337928
607.587000	-0.177192
607.782000	-0.175568
607.977000	-0.367916
608.172000	0.026959
608.367000	0.058566
608.562000	-0.163008
608.757000	-0.192754
608.952000	-0.258537
609.147000	0.120252
609.342000	-0.030810
609.537000	-0.294633
609.732000	-0.278237
609.927000	-0.330044
610.122000	-0.298765
610.318000	-0.045937
610.513000	-0.047837
610.708000	-0.288271
610.903000	-0.213390
611.098000	-0.198773
611.293000	-0.311904
611.488000	-0.281789
611.683000	-0.272842
611.878000	-0.259704
612.073000	-0.187985
612.268000	-0.182515
612.463000	-0.099518
612.658000	-0.127954
612.854000	-0.166215
613.049000	-0.208099
613.244000	-0.050391
613.439000	-0.006658
613.634000	-0.283191
613.829000	-0.132576
614.024000	-0.280120
614.219000	-0.304933
614.414000	0.041131
614.609000	-0.159979
614.804000	-0.374660
614.999000	-0.359000
615.194000	-0.290827
615.389000	-0.262340
615.585000	-0.416856
615.780000	-0.237990
615.975000	-0.300253
616.170000	-0.285011
616.365000	-0.064797
616.560000	0.097773
616.755000	0.032043
616.950000	-0.096170
617.145000	-0.041809
617.340000	-0.205354
617.535000	-0.433084
617.730000	-0.160801
617.925000	-0.348479
618.120000	-0.411081
618.316000	-0.008807
618.511000	-0.161614
618.706000	-0.384327
618.901000	-0.242660
619.096000	-0.119327
619.291000	-0.196076
619.486000	-0.170999
619.681000	-0.511419
619.876000	-0.562616
620.071000	-0.396849
620.266000	-0.147816
620.461000	-0.054661
620.656000	-0.086625
620.852000	-0.160103
621.047000	-0.262174
621.242000	-0.380305
621.437000	-0.049027
621.632000	0.041111
621.827000	-0.133479
622.022000	-0.434892
622.217000	-0.244721
622.412000	-0.039319
622.607000	-0.061558
622.802000	-0.301893
622.997000	-0.300919
623.192000	-0.181347
623.387000	-0.197598
623.583000	-0.455883
623.778000	-0.053961
623.973000	-0.033621
624.168000	-0.072507
624.363000	-0.066277
624.558000	-0.015321
624.753000	-0.294081
624.948000	-0.083154
625.143000	-0.089379
625.338000	-0.173913
625.533000	-0.285140
625.728000	-0.219496
625.923000	0.001031
626.119000	-0.102322
626.314000	-0.338298
626.509000	-0.345564
626.704000	-0.219539
626.899000	-0.246804
627.094000	-0.384798
627.289000	-0.368959
627.484000	-0.304872
627.679000	-0.305145
627.874000	-0.263541
628.069000	0.053626
628.264000	-0.028365
628.459000	-0.129520
628.654000	-0.173905
628.850000	-0.394508
629.045000	-0.284828
629.240000	-0.306310
629.435000	-0.304586
629.630000	-0.166935
629.825000	-0.177562
630.020000	-0.152644
630.215000	-0.353129
630.410000	-0.298832
630.605000	-0.341955
630.800000	-0.322610
630.995000	-0.155759
631.190000	0.134563
631.385000	-0.046318
631.581000	-0.186666
631.776000	-0.098251
631.971000	-0.224218
632.166000	-0.161518
632.361000	-0.383016
632.556000	-0.300974
632.751000	-0.070854
632.946000	-0.195184
633.141000	-0.342339
633.336000	-0.290294
633.531000	-0.165923
633.726000	-0.218397
633.921000	-0.335638
634.117000	-0.495198
634.312000	-0.579600
634.507000	-0.474128
634.702000	-0.379761
634.897000	-0.315994
635.092000	-0.181203
635.287000	-0.132557
635.482000	-0.217785
635.677000	-0.106135
635.872000	-0.043576
636.067000	-0.001120
636.262000	-0.185505
636.457000	-0.451246
636.652000	-0.472105
636.848000	-0.455157
637.043000	-0.380305
637.238000	-0.306625
637.433000	-0.456322
637.628000	-0.381575
637.823000	-0.159885
638.018000	-0.112476
638.213000	-0.290357
638.408000	-0.361290
638.603000	-0.366374
638.798000	-0.403482
638.993000	-0.333255
639.188000	-0.358573
639.383000	-0.361170
639.579000	0.085902
639.774000	-0.164245
639.969000	-0.396420
640.164000	-0.381203
640.359000	-0.400061
640.554000	-0.204330
640.749000	-0.177110
640.944000	-0.124130
641.139000	-0.174818
641.334000	-0.381578
641.529000	-0.751893
641.724000	-0.548033
641.919000	-0.374288
642.115000	-0.097011
642.310000	-0.064193
642.505000	-0.178510
642.700000	-0.206885
642.895000	-0.345858
643.090000	-0.221514
643.285000	-0.001172
643.480000	-0.090464
643.675000	-0.090541
643.870000	0.236804
644.065000	0.090892
644.260000	-0.274966
644.455000	-0.230551
644.650000	-0.311719
644.846000	-0.238240
645.041000	-0.427703
645.236000	-0.538008
645.431000	-0.505478
645.626000	-0.590757
645.821000	-0.371901
646.016000	-0.303872
646.211000	0.060889
646.406000	-0.027512
646.601000	-0.065724
646.796000	-0.311822
646.991000	-0.581921
647.186000	-0.408366
647.381000	-0.243260
647.577000	-0.217105
647.772000	-0.063576
647.967000	-0.094949
648.162000	-0.157573
648.357000	-0.186693
648.552000	-0.051772
648.747000	-0.071077
648.942000	-0.080766
649.137000	-0.100359
649.332000	-0.301471
649.527000	-0.349752
649.722000	-0.049602
649.917000	0.035187
650.113000	-0.287218
650.308000	-0.447822
650.503000	-0.367526
650.698000	-0.212881
650.893000	-0.317722
651.088000	-0.162011
651.283000	-0.047611
651.478000	-0.357692
651.673000	-0.130493
651.868000	-0.358046
652.063000	-0.126116
652.258000	0.047789
652.453000	0.174762
652.648000	-0.167660
652.844000	-0.209421
653.039000	-0.099367
653.234000	-0.442996
653.429000	-0.596224
653.624000	-0.411520
653.819000	-0.176049
654.014000	-0.217950
654.209000	-0.408650
654.404000	-0.196096
654.599000	-0.320241
654.794000	-0.312283
654.989000	0.030949
655.184000	-0.085520
655.380000	-0.385149
655.575000	-0.417396
655.770000	-0.388314
655.965000	-0.246945
656.160000	-0.321570
656.355000	-0.147719
656.550000	-0.158133
656.745000	-0.053577
656.940000	-0.185804
657.135000	-0.165812
657.330000	-0.168374
657.525000	-0.365694
657.720000	-0.188794
657.915000	-0.078695
658.111000	-0.211184
658.306000	0.091294
658.501000	-0.088997
658.696000	-0.364617
658.891000	-0.089003
659.086000	-0.169162
659.281000	-0.194540
659.476000	-0.416027
659.671000	-0.772908
659.866000	-0.504183
660.061000	-0.127074
660.256000	-0.059161
660.451000	-0.071812
660.646000	-0.286364
660.842000	-0.208390
661.037000	-0.382825
661.232000	-0.385904
661.427000	-0.203545
661.622000	-0.355910
661.817000	-0.454581
662.012000	-0.227226
662.207000	-0.374736
662.402000	-0.464823
662.597000	-0.271439
662.792000	-0.592033
662.987000	-0.606813
663.182000	-0.335281
663.378000	-0.299826
663.573000	-0.627983
663.768000	-0.634338
663.963000	-0.389708
664.158000	-0.389352
664.353000	0.149969
664.548000	0.308802
664.743000	-0.075684
664.938000	-0.393775
665.133000	-0.438071
665.328000	-0.024445
665.523000	-0.083791
665.718000	-0.264295
665.913000	-0.290515
666.109000	-0.241990
666.304000	0.001294
666.499000	-0.208145
666.694000	-0.066122
666.889000	0.239827
667.084000	-0.170394
667.279000	-0.331485
667.474000	-0.269239
667.669000	-0.154742
667.864000	-0.154925
668.059000	-0.176024
668.254000	-0.296356
668.449000	-0.382954
668.644000	-0.338825
668.840000	-0.092761
669.035000	-0.307463
669.230000	-0.623580
669.425000	-0.243032
669.620000	-0.363864
669.815000	-0.381002
670.010000	-0.406992
670.205000	-0.286054
670.400000	-0.227646
670.595000	-0.133308
670.790000	-0.273582
670.985000	-0.218301
671.180000	0.033113
671.376000	-0.335399
671.571000	-0.474319
671.766000	-0.478081
671.961000	-0.531552
672.156000	-0.524210
672.351000	-0.382909
672.546000	-0.370346
672.741000	-0.222789
672.936000	-0.220410
673.131000	0.373704
673.326000	0.030893
673.521000	-0.471861
673.716000	-0.555197
673.911000	-0.622856
674.107000	-0.052564
674.302000	0.106549
674.497000	-0.130976
674.692000	-0.404017
674.887000	-0.451493
675.082000	-0.327250
675.277000	-0.066630
675.472000	-0.142965
675.667000	-0.361370
675.862000	-0.418857
676.057000	-0.288072
676.252000	-0.255845
676.447000	-0.374422
676.643000	-0.152113
676.838000	0.135925
677.033000	-0.169115
677.228000	0.042729
677.423000	0.006896
677.618000	-0.430092
677.813000	-0.579110
678.008000	-0.295339
678.203000	-0.162400
678.398000	-0.424122
678.593000	-0.232303
678.788000	-0.143742
678.983000	-0.455787
679.178000	-0.285882
679.374000	-0.381264
679.569000	-0.362492
679.764000	-0.439369
679.959000	-0.552990
680.154000	-0.460214
680.349000	-0.591737
680.544000	-0.568378
680.739000	-0.433211
680.934000	-0.552301
681.129000	-0.517018
681.324000	-0.611259
681.519000	-0.359945
681.714000	-0.379996
681.909000	-0.493252
682.105000	-0.651443
682.300000	-0.210359
682.495000	-0.015733
682.690000	-0.073110
682.885000	-0.259677
683.080000	-0.435914
683.275000	-0.320983
683.470000	0.007206
683.665000	0.189203
683.860000	0.441271
684.055000	0.117257
684.250000	-0.421668
684.445000	-0.513588
684.641000	0.085614
684.836000	-0.207849
685.031000	-0.316547
685.226000	-0.284839
685.421000	0.112792
685.616000	-0.191892
685.811000	-0.362679
686.006000	-0.130670
686.201000	-0.248457
686.396000	-0.609504
686.591000	-0.545662
686.786000	-0.048877
686.981000	-0.188118
687.176000	-0.123242
687.372000	-0.209599
687.567000	0.025282
687.762000	-0.082021
687.957000	-0.192369
688.152000	-0.342219
688.347000	-0.288941
688.542000	-0.499774
688.737000	-0.856591
688.932000	-0.912143
689.127000	-0.434888
689.322000	-0.064891
689.517000	-0.285157
689.712000	-0.579903
689.908000	-0.495614
690.103000	-0.496576
690.298000	-0.293135
690.493000	-0.339586
690.688000	-0.626648
690.883000	-0.399313
691.078000	0.050505
691.273000	0.065817
691.468000	-0.280648
691.663000	-0.309426
691.858000	-0.127795
692.053000	-0.207851
692.248000	-0.112508
692.443000	-0.121750
692.639000	-0.149801
692.834000	-0.029415
693.029000	0.450689
693.224000	0.353237
693.419000	-0.278802
693.614000	-0.426017
693.809000	-0.488795
694.004000	-0.533526
694.199000	-0.539643
694.394000	-0.208742
694.589000	-0.488629
694.784000	-0.520580
694.979000	-0.250076
695.174000	-0.263323
695.370000	0.221951
695.565000	-0.146750
695.760000	-0.463397
695.955000	0.017439
696.150000	0.118942
696.345000	-0.364577
696.540000	-0.177026
696.740000	-0.301211
696.940000	-0.157897
697.140000	-0.017635
697.340000	-0.287460
697.539000	-0.120508
697.739000	-0.217001
697.939000	-0.201066
698.139000	-0.510434
698.339000	-0.871156
698.539000	-0.641282
698.739000	-0.665680
698.939000	-0.483141
699.138000	-0.555635
699.338000	0.105551
699.538000	0.282000
699.738000	-0.246860
699.938000	-0.355058
700.138000	-0.424497
700.338000	-0.524345
700.538000	-0.331208
700.737000	-0.278387
700.937000	-0.747282
701.137000	-0.751720
701.337000	-0.094246
701.537000	0.008285
701.737000	-0.326034
701.937000	-0.456155
702.137000	-0.346695
702.337000	-0.500145
702.536000	-0.680986
702.736000	-0.615125
702.936000	-0.746252
703.136000	-0.202602
703.336000	-0.159032
703.536000	-0.256836
703.736000	-0.651407
703.936000	-0.650058
704.135000	-0.622870
704.335000	-0.297997
704.535000	-0.545286
704.735000	-0.762155
704.935000	-0.251264
705.135000	-0.208429
705.335000	-0.409751
705.535000	-0.185445
705.735000	-0.192217
705.934000	-0.178517
706.134000	-0.481308
706.334000	-0.530183
706.534000	-0.568505
706.734000	-0.527950
706.934000	-0.630430
707.134000	-0.702369
707.334000	-0.385326
707.533000	-0.303683
707.733000	-0.430335
707.933000	-0.588656
708.133000	-0.293114
708.333000	-0.222271
708.533000	-0.460902
708.733000	-0.119091
708.933000	-0.281580
709.132000	-0.406749
709.332000	-0.410904
709.532000	-0.564721
709.732000	-0.362629
709.932000	-0.819173
710.132000	-0.822136
710.332000	-1.033714
710.532000	-0.429519
710.732000	-0.092417
710.931000	-0.375175
711.131000	-0.471240
711.331000	-0.331349
711.531000	-0.486452
711.731000	-0.438381
711.931000	-0.372096
712.131000	-0.477332
712.331000	-0.294243
712.530000	-0.336121
712.730000	-0.524035
712.930000	-0.354531
713.130000	-0.394714
713.330000	-0.607867
713.530000	-0.460691
713.730000	0.254475
713.930000	-0.108518
714.129000	-0.623770
714.329000	-0.675691
714.529000	-0.318883
714.729000	0.076761
714.929000	-0.091045
715.129000	-0.506047
715.329000	-0.442083
715.529000	-0.375603
715.729000	0.188345
715.928000	-0.084519
716.128000	-0.383269
716.328000	-0.250857
716.528000	-0.334255
716.728000	-0.276505
716.928000	-0.471731
717.128000	-0.371345
717.328000	-0.349550
717.527000	-0.542188
717.727000	-0.477374
717.927000	-0.351443
718.127000	-0.391727
718.327000	-0.815904
718.527000	-0.731574
718.727000	-0.304952
718.927000	-0.396973
719.127000	-0.747548
719.326000	-0.557929
719.526000	-0.159439
719.726000	-0.306693
719.926000	-0.735494
720.126000	-0.683992
720.326000	-0.499553
720.526000	-0.577081
720.726000	-0.456772
720.925000	-0.257214
721.125000	-0.774500
721.325000	-0.469331
721.525000	-0.310546
721.725000	-0.477959
721.925000	-0.501685
722.125000	-0.490536
722.325000	-0.001865
722.524000	-0.342323
722.724000	-0.867173
722.924000	-0.915813
723.124000	-0.661930
723.324000	-0.279686
723.524000	-0.197273
723.724000	-0.716465
723.924000	-0.522762
724.124000	-0.307724
724.323000	-0.066162
724.523000	-0.288968
724.723000	0.096530
724.923000	-0.020826
725.123000	-0.168681
725.323000	-0.074048
725.523000	-0.260616
725.723000	-0.549190
725.922000	-0.519370
726.122000	-0.371396
726.322000	-0.563370
726.522000	-0.605977
726.722000	0.135567
726.922000	-0.150740
727.122000	-0.231683
727.322000	-0.005752
727.521000	-0.213329
727.721000	-0.425362
727.921000	-0.433082
728.121000	-0.444519
728.321000	-0.803922
728.521000	-0.597237
728.721000	-0.319455
728.921000	0.098706
729.121000	0.672694
729.320000	-0.056282
729.520000	-0.405653
729.720000	-0.519081
729.920000	-0.517646
730.120000	-0.383839
730.320000	-0.337903
730.520000	-0.681946
730.720000	-0.546884
730.919000	-0.429194
731.119000	-0.206155
731.319000	-0.584075
731.519000	-0.737368
731.719000	-0.383723
731.919000	-0.557187
732.119000	-1.066919
732.319000	-1.078182
732.519000	-0.358266
732.718000	-0.616392
732.918000	-0.656595
733.118000	-0.427553
733.318000	0.021938
733.518000	-0.372972
733.718000	-1.016613
733.918000	-0.877316
734.118000	-0.657258
734.317000	-0.383123
734.517000	-0.542841
734.717000	-0.444818
734.917000	-0.018156
735.117000	-0.191848
735.317000	-0.272557
735.517000	0.208517
735.717000	0.424358
735.916000	-0.513774
736.116000	-0.683761
736.316000	-0.524661
736.516000	-0.353066
736.716000	-0.377748
736.916000	-0.887739
737.116000	-0.628358
737.316000	0.026778
737.516000	-0.117644
737.715000	-0.200329
737.915000	-0.696303
738.115000	-0.748260
738.315000	-0.508197
738.515000	-0.761112
738.715000	-0.435985
738.915000	0.089820
739.115000	-0.504246
739.314000	-0.566503
739.514000	-0.060840
739.714000	0.027342
739.914000	-0.145547
740.114000	-0.445911
740.314000	-0.162847
740.514000	0.294421
740.714000	-0.486695
740.913000	-0.976938
741.113000	-0.850563
741.313000	-0.428480
741.513000	-0.463890
741.713000	-0.396545
741.913000	-0.260587
742.113000	-0.350505
742.313000	-0.941704
742.513000	-0.567275
742.712000	-0.460916
742.912000	-0.867962
743.112000	-0.679777
743.312000	-0.946308
743.512000	-0.656280
743.712000	-0.409030
743.912000	-0.931115
744.112000	-1.133399
744.311000	-1.127670
744.511000	-0.601190
744.711000	-0.284787
744.911000	-0.674298
745.111000	-0.737115
745.311000	-0.286099
745.511000	-0.637392
745.711000	-0.713574
745.911000	-0.385074
746.110000	-0.928626
746.310000	-1.050590
746.510000	-0.806917
746.710000	-0.298649
746.910000	-0.083157
747.110000	-0.686585
747.310000	-1.075651
747.510000	-0.771895
747.709000	-0.382862
747.909000	-0.338419
748.109000	-0.093437
748.309000	-0.522944
748.509000	-0.811949
748.709000	-0.856280
748.909000	-0.635701
749.109000	-0.684575
749.308000	-0.057683
749.508000	-0.372840
749.708000	-0.502692
749.908000	-0.303536
750.108000	-0.257959
750.308000	-0.953814
750.508000	-0.137944
750.708000	-0.615107
750.908000	-1.052396
751.107000	-0.289184
751.307000	0.194910
751.507000	-0.271199
751.707000	-0.233171
751.907000	-0.375406
752.107000	-0.343510
752.307000	-0.862854
752.507000	-0.622024
752.706000	-0.650180
752.906000	0.451081
753.106000	-0.433486
753.306000	-1.241989
753.506000	-0.204752
753.706000	-0.485145
753.906000	-0.412800
754.106000	-0.142617
754.305000	-0.268661
754.505000	-0.245097
754.705000	-0.383074
754.905000	-0.447174
755.105000	-0.188434
755.305000	-0.967991
755.505000	-0.749589
755.705000	-0.366650
755.905000	-0.599757
756.104000	-1.069627
756.304000	-1.458897
756.504000	-1.685286
756.704000	-0.456568
756.904000	-0.172050
757.104000	-0.475583
757.304000	-0.456100
757.504000	-0.173024
757.703000	-0.589174
757.903000	-0.123145
758.103000	0.113324
758.303000	-0.300522
758.503000	-0.544393
758.703000	-0.631954
758.903000	-0.728722
759.103000	-0.302989
759.303000	-0.335143
759.502000	-0.510718
759.702000	-0.100052
759.902000	-0.518287
760.102000	-0.607409
760.302000	-0.526465
760.502000	-0.235297
760.702000	-0.287423
760.902000	-0.506002
761.101000	-0.804125
761.301000	-1.034942
761.501000	-0.764069
761.701000	-0.948514
761.901000	-0.643515
762.101000	-0.239531
762.301000	-0.523817
762.501000	-0.814033
762.700000	-0.870713
762.900000	-0.913383
763.100000	-0.596363
763.300000	-0.343312
763.500000	-0.652672
763.703000	-0.852276
763.905000	-1.010095
764.108000	-0.141756
764.311000	-0.419975
764.513000	-0.575820
764.716000	-0.389916
764.919000	-0.551999
765.121000	-0.972433
765.324000	-1.056411
765.527000	-0.969695
765.729000	-0.768671
765.932000	0.002721
766.135000	-0.040797
766.337000	-0.323822
766.540000	-0.652502
766.743000	-0.464822
766.945000	-0.875649
767.148000	-1.328827
767.351000	-1.196602
767.553000	-0.168427
767.756000	-0.555572
767.958000	-0.925859
768.161000	-0.506207
768.364000	-0.868996
768.566000	-1.288261
768.769000	-0.817970
768.972000	-0.482898
769.174000	-0.652358
769.377000	-1.159636
769.580000	-1.280288
769.782000	-0.587577
769.985000	-0.978662
770.188000	-1.806490
770.390000	-1.054027
770.593000	0.490888
770.796000	0.110745
770.998000	-0.497223
771.201000	-0.947139
771.404000	-0.475662
771.606000	-0.757789
771.809000	-0.677500
772.012000	-0.575696
772.214000	-1.464736
772.417000	-1.585297
772.620000	-0.402958
772.822000	-0.774721
773.025000	-1.103242
773.228000	-0.989866
773.430000	-0.870106
773.633000	-0.570551
773.836000	-0.524928
774.038000	-0.404645
774.241000	-0.602438
774.444000	-0.826153
774.646000	0.183766
774.849000	-0.382978
775.052000	-0.605061
775.254000	-0.330955
775.457000	-0.740312
775.659000	-0.677557
775.862000	-0.853748
776.065000	-0.761116
776.267000	-0.185454
776.470000	0.280903
776.673000	-0.417208
776.875000	-0.044514
777.078000	-0.192588
777.281000	-1.156940
777.483000	-0.355049
777.686000	-0.146471
777.889000	-0.320188
778.091000	0.039035
778.294000	-1.142405
778.497000	-1.107846
778.699000	-0.766196
778.902000	-0.738664
779.105000	-0.527653
779.307000	0.365355
779.510000	-0.680898
779.713000	-0.385824
779.915000	-0.710189
780.118000	0.155601
780.321000	0.394063
780.523000	-0.517453
780.726000	-0.946506
780.929000	-1.068646
781.131000	-0.984430
781.334000	-1.375933
781.537000	-1.645244
781.739000	-0.559215
781.942000	-0.893611
782.145000	-1.333362
782.347000	-1.377744
782.550000	-1.054977
782.753000	-1.208313
782.955000	-1.055060
783.158000	-0.960571
783.361000	-0.837478
783.563000	-0.793695
783.766000	-0.871239
783.968000	0.822176
784.171000	0.724683
784.374000	-0.477890
784.576000	-0.427126
784.779000	-0.116880
784.982000	0.041303
785.184000	-0.789006
785.387000	-0.291130
785.590000	0.406085
785.792000	0.298497
785.995000	0.041789
786.198000	-0.119133
786.400000	-0.462375
786.603000	-0.489481
786.806000	-0.649549
787.008000	-0.455608
787.211000	-0.411852
787.414000	-1.194227
787.616000	-1.035425
787.819000	-0.906904
788.022000	-1.511361
788.224000	-0.903814
788.427000	-1.239748
788.630000	-0.656699
788.832000	-0.451609
789.035000	-1.188113
789.238000	-1.907576
789.440000	-1.506366
789.643000	-0.268792
789.846000	-0.748771
790.048000	-0.336930
790.251000	-0.123459
790.454000	-0.489519
790.656000	0.230622
790.859000	-0.418761
791.062000	-1.030288
791.264000	-0.466098
791.467000	-1.235838
791.669000	-1.736747
791.872000	-0.823569
792.075000	-1.154374
792.277000	-0.822751
792.480000	-0.561695
792.683000	-1.245933
792.885000	-1.593755
793.088000	-1.224427
793.291000	-1.364257
793.493000	-1.448954
793.696000	-0.517442
793.899000	-0.257716
794.101000	-0.602732
794.304000	-0.769789
794.507000	-0.480535
794.709000	-0.364002
794.912000	-0.901483
795.115000	-1.196153
795.317000	-0.819296
795.520000	-0.493727
795.723000	-0.720725
795.925000	-0.989364
796.128000	-1.318631
796.331000	-0.998398
796.533000	-1.510001
796.736000	-0.820990
796.939000	-0.730327
797.141000	-0.946573
797.344000	-0.296757
797.547000	-0.096577
797.749000	-0.204178
797.952000	-0.810057
798.155000	-1.225005
798.357000	-1.564872
798.560000	-1.413791
798.763000	-0.700722
798.965000	-0.859657
799.168000	-0.818511
799.371000	-0.615510
799.573000	-0.807583
799.776000	-1.496815
799.978000	-1.546081
800.181000	-0.732207
800.384000	0.689118
800.586000	-0.003694
800.789000	-1.377186
800.992000	-1.317218
801.194000	-1.571580
801.397000	-1.657205
801.600000	-1.328068
801.802000	0.108043
802.005000	-0.242937
802.208000	-1.682927
802.410000	-0.647877
802.613000	-0.635690
802.816000	-0.756940
803.018000	-1.393306
803.221000	-1.206759
803.424000	0.216076
803.626000	-0.216412
803.829000	-0.940773
804.032000	0.095472
804.234000	0.958240
804.437000	-0.594292
804.640000	-0.747031
804.842000	-0.848572
805.045000	-1.400742
805.248000	-1.024494
805.450000	-1.038943
805.653000	-1.076623
805.856000	-1.215217
806.058000	-0.159670
806.261000	-1.182787
806.464000	-1.043300
806.666000	-0.387454
806.869000	-0.854711
807.072000	-2.036120
807.274000	-2.226622
807.477000	-1.078809
807.679000	-0.961058
807.882000	-1.653013
808.085000	-1.121411
808.287000	-0.419447
808.490000	-1.380827
808.693000	-1.237613
808.895000	-0.926246
809.098000	-0.862507
809.301000	-0.760740
809.503000	-1.038933
809.706000	-0.109744
809.909000	0.085343
810.111000	-0.158716
810.314000	-0.648548
810.517000	-1.150581
810.719000	-1.296077
810.922000	-0.989518
811.125000	0.004097
811.327000	0.086530
811.530000	-0.591565
811.735000	-1.028514
811.940000	-1.262645
812.146000	-1.143240
812.351000	-0.569586
812.556000	-0.696542
812.761000	-1.217587
812.967000	-0.071437
813.172000	-0.079758
813.377000	-0.618984
813.582000	-0.063430
813.788000	-0.489652
813.993000	-1.524729
814.198000	-0.633446
814.403000	-1.482886
814.609000	-0.474602
814.814000	-0.502512
815.019000	0.184346
815.224000	0.047134
815.429000	-1.091286
815.635000	-0.809136
815.840000	-0.810014
816.045000	-0.848516
816.250000	-0.292012
816.456000	-1.322848
816.661000	-2.320121
816.866000	-1.780178
817.071000	-1.682417
817.277000	-2.223794
817.482000	-1.510188
817.687000	-0.871899
817.892000	-0.859032
818.097000	-0.174125
818.303000	0.370569
818.508000	0.539173
818.713000	7.122799
818.918000	3.575142
819.124000	0.040374
819.329000	-0.995622
819.534000	-1.125107
819.739000	-1.432484
819.945000	-1.339358
820.150000	-0.872106
820.355000	-0.654207
820.560000	-0.360442
820.766000	-0.644969
820.971000	-0.897123
821.176000	-2.338187
821.381000	-2.837277
821.586000	-1.707019
821.792000	-0.106772
821.997000	-0.543649
822.202000	-0.888369
822.407000	-1.534868
822.613000	-1.818594
822.818000	-1.073382
823.023000	-0.915129
823.228000	-1.091078
823.434000	-0.363404
823.639000	0.146619
823.844000	-0.630702
824.049000	0.033219
824.255000	-0.052371
824.460000	-0.703131
824.665000	-1.288473
824.870000	-0.177826
825.075000	-0.380161
825.281000	-0.487494
825.486000	0.704018
825.691000	-1.366401
825.896000	-2.635836
826.102000	-1.077415
826.307000	-0.718397
826.512000	-0.878054
826.717000	-0.851239
826.923000	-1.159610
827.128000	-0.865432
827.333000	-1.577801
827.538000	-0.544557
827.744000	-0.025040
827.949000	-1.164669
828.154000	-0.858220
828.359000	-0.115375
828.564000	-0.559605
828.770000	-0.936531
828.975000	0.147141
829.180000	-0.515052
829.385000	-1.697497
829.591000	-1.315590
829.796000	-0.848860
830.001000	-0.891717
830.206000	-1.473651
830.412000	-1.327516
830.617000	-1.465348
830.822000	-0.327836
831.027000	-0.825553
831.232000	-1.697688
831.438000	-1.625510
831.643000	-0.815316
831.848000	-0.859498
832.053000	-0.905125
832.259000	-1.044037
832.464000	-2.843289
832.669000	-2.202845
832.874000	-1.656105
833.080000	-1.930859
833.285000	-0.166077
833.490000	-0.316306
833.695000	-1.797012
833.901000	-1.306659
834.106000	-1.634458
834.311000	-1.643050
834.516000	-0.748980
834.721000	-1.072081
834.927000	-0.182179
835.132000	-0.558671
835.337000	0.891881
835.542000	-0.518249
835.748000	-1.885438
835.953000	-0.083715
836.158000	-0.274140
836.363000	-0.556097
836.569000	-0.549087
836.774000	-1.389306
836.979000	-1.606741
837.184000	-2.111477
837.390000	-1.921473
837.595000	-1.297753
837.800000	-0.865245
838.005000	-0.778302
838.210000	-1.136236
838.416000	-1.661743
838.621000	-1.294654
838.826000	-1.247445
839.031000	-1.008912
839.237000	-1.627499
839.442000	-2.501058
839.647000	-2.767621
839.852000	-1.906150
840.058000	-1.960420
840.263000	-2.053375
840.468000	-2.651221
840.673000	-1.674310
840.878000	-1.174912
841.084000	-1.853866
841.289000	-1.377357
841.494000	1.181036
841.699000	1.087717
841.905000	0.432576
842.110000	0.398160
842.315000	-1.749495
842.520000	-1.073173
842.726000	-1.297033
842.931000	-1.799632
843.136000	-1.045521
843.341000	-2.499294
843.547000	-1.511434
843.752000	-1.239176
843.957000	-2.052910
844.162000	-2.113115
844.367000	-1.359135
844.573000	-0.514250
844.778000	-0.614204
844.983000	-0.539541
845.188000	-0.427466
845.394000	-2.285389
845.599000	-1.624744
845.804000	-1.398309
846.009000	-0.733185
846.215000	-1.988120
846.420000	-1.588252
846.625000	-0.714746
846.830000	0.111073
847.036000	-1.070157
847.241000	-1.852696
847.446000	-0.204365
847.651000	-0.986405
847.856000	-2.211124
848.062000	-2.043484
848.267000	-0.221164
848.472000	-1.284508
848.677000	-2.717814
848.883000	-0.948898
849.088000	0.618611
849.293000	-1.030534
849.498000	-1.642662
849.704000	-0.717688
849.909000	-1.021073
850.114000	-1.884590
850.319000	-0.776127
850.524000	-0.849457
850.730000	-0.645916
850.935000	-1.178476
851.140000	-0.258690
851.345000	-0.370503
851.551000	-0.343571
851.756000	0.119840
851.961000	-1.208652
852.166000	-1.449721
852.372000	-1.113153
852.577000	-1.107003
852.782000	-1.489597
852.987000	0.093283
853.193000	-0.813770
853.398000	-1.087751
853.603000	-2.202022
853.808000	-2.968871
854.013000	-1.490244
854.219000	-0.269460
854.424000	1.542609
854.629000	1.414127
854.834000	-1.482575
855.040000	-0.942753
855.245000	-0.214555
855.450000	-2.913390
855.655000	-4.024104
855.861000	-3.497777
856.066000	-2.187887
856.271000	-2.477573
856.476000	-0.657420
856.682000	-1.524714
856.887000	-4.115378
857.092000	-2.635408
857.297000	-0.038127
857.502000	-0.481346
857.708000	-1.370299
857.913000	-0.360423
858.118000	-0.982887
858.323000	-1.109968
858.529000	-1.216751
858.734000	-1.546448
858.939000	-1.395126
859.144000	-1.931633
859.350000	-2.807912
859.555000	-2.706848
859.760000	-0.733651
859.965000	0.276025
860.171000	-1.496979
860.376000	-0.771498
860.581000	-2.575884
860.786000	-5.037264
860.991000	-4.110122
861.197000	-2.725013
861.402000	-1.039925
861.607000	-1.702050
861.812000	-2.778746
862.018000	-3.017112
862.223000	-2.142843
862.428000	-1.237554
862.633000	-0.401772
862.839000	-0.965350
863.044000	-1.805405
863.249000	-2.397909
863.454000	-0.921910
863.659000	-1.757781
863.865000	-2.386058
864.070000	-2.493046
864.275000	-2.951256
864.480000	-2.356603
864.686000	-4.450852
864.891000	-3.640011
865.096000	-0.997287
865.301000	-0.606323
865.507000	-0.523990
865.712000	-0.455240
865.917000	-1.754864
866.122000	-1.239546
866.328000	-3.948941
866.533000	-3.615159
866.738000	-0.008722
866.943000	-0.305925
867.148000	0.483442
867.354000	-1.922370
867.559000	-3.269860
867.764000	-1.611754
867.969000	-0.707041
868.175000	-2.274516
868.380000	-3.052277
868.585000	-3.611934
868.790000	-1.394000
868.996000	-1.475638
869.201000	-2.895471
869.406000	-4.056557
869.611000	-3.112907
869.817000	-2.908838
870.022000	1.235674
870.227000	-0.706522
870.432000	-2.480391
870.637000	-1.098528
870.843000	-1.810569
871.048000	-1.569917
871.253000	0.492626
871.458000	-0.924858
871.664000	-3.469114
871.869000	-3.981372
872.074000	-3.006881
872.279000	-1.772921
872.485000	-2.509535
872.690000	-2.482082
872.895000	-2.511586
873.100000	-2.996271
873.306000	-2.892907
873.511000	-1.646514
873.716000	-0.654191
873.921000	-2.463854
874.126000	-3.092036
874.332000	-2.373889
874.537000	-0.940394
874.742000	-0.601883
874.947000	-1.139511
875.153000	0.250044
875.358000	-1.012545
875.563000	-1.953101
875.768000	-4.395318
875.974000	-4.574968
876.179000	-1.487487
876.384000	-1.087991
876.589000	-2.534287
876.794000	-2.413908
877.000000	-2.991602
877.205000	-3.891341
877.410000	-2.197722
877.615000	-3.430065
877.821000	-5.185533
878.026000	-3.503775
878.231000	-3.752451
878.436000	-3.946168
878.642000	-2.757301
878.847000	-1.019215
879.052000	0.052462
879.257000	-2.381313
879.463000	-3.338441
879.668000	-2.512542
879.873000	-0.840847
880.078000	-2.848813
880.283000	-4.466594
880.489000	-5.044892
880.694000	-4.399844
880.899000	-2.395356
881.104000	-1.512699
881.310000	0.772654
881.515000	-0.489148
881.720000	0.424948
881.925000	1.851824
882.131000	3.868253
882.336000	0.585254
882.541000	-3.416718
882.746000	-3.075675
882.952000	-3.608320
883.157000	-3.818788
883.362000	-3.847087
883.567000	-4.426338
883.772000	-4.535641
883.978000	-3.220530
884.183000	-1.494163
884.388000	-1.923079
884.593000	-4.314445
884.799000	0.057173
885.004000	-0.521829
885.209000	-1.983801
885.414000	-1.144580
885.620000	-3.994249
885.825000	-1.090771
886.030000	-1.392989
886.235000	-2.885533
886.440000	-1.626979
886.646000	-4.587357
886.851000	-5.137335
887.056000	-0.804905
887.261000	-1.190290
887.467000	-4.623600
887.672000	-2.078390
887.877000	-2.431047
888.082000	-4.823930
888.288000	-5.295522
888.493000	-7.535504
888.698000	-5.825559
888.903000	-2.566852
889.109000	-3.996987
889.314000	-1.002910
889.519000	-2.133874
889.724000	0.160579
889.929000	-1.174836
890.135000	-2.269193
890.340000	-2.411053
890.545000	-3.758531
890.750000	-5.018268
890.956000	-3.051119
891.161000	-0.990494
891.366000	-3.130762
891.571000	-1.777003
891.777000	-2.106640
891.982000	0.012676
892.187000	-0.725642
892.392000	-0.495311
892.598000	-0.012773
892.803000	-0.399456
893.008000	-3.334087
893.213000	-3.659093
893.418000	-3.865895
893.624000	-3.391508
893.829000	-5.368962
894.034000	-3.426264
894.239000	-2.003031
894.445000	-4.976388
894.650000	-4.791435
894.855000	-3.903646
895.060000	-3.870888
895.266000	-3.974855
895.471000	-5.087118
895.676000	-2.320400
895.881000	-1.404224
896.087000	-2.447835
896.292000	-4.456306
896.497000	-0.635876
896.702000	-2.034731
896.907000	-4.359155
897.113000	0.094820
897.318000	0.825869
897.523000	0.393661
897.728000	-2.302927
897.934000	-2.730157
898.139000	-2.301835
898.344000	-0.398701
898.549000	-2.336699
898.755000	-3.669243
898.960000	-3.859081
899.165000	-5.951510
899.370000	-1.917565
899.575000	2.203110
899.781000	-3.138143
899.986000	-4.292303
900.191000	-2.365224
900.396000	-3.445609
900.602000	-2.753065
900.807000	-2.686329
901.012000	-2.241139
901.217000	-0.826207
901.423000	-2.990149
901.628000	-4.942291
901.833000	-1.034165
902.038000	-0.513763
902.244000	-4.347676
902.449000	-3.430888
902.654000	-3.228968
902.859000	-2.241625
903.064000	0.193913
903.270000	0.074850
903.475000	-4.299685
903.680000	-6.719821
903.885000	-5.988942
904.091000	-5.261603
904.296000	-6.530837
904.501000	-5.089507
904.706000	-4.369901
904.912000	-0.449457
905.117000	-2.101067
905.322000	-5.099185
905.527000	-4.950601
905.733000	-3.766179
905.938000	-3.726849
906.143000	-5.490352
906.348000	-6.896319
906.553000	-1.010588
906.759000	0.304590
906.964000	-1.884944
907.169000	-3.677713
907.374000	-6.611558
907.580000	-4.631611
907.785000	-4.149360
907.990000	25.745652
908.195000	16.903750
908.401000	-0.618250
908.606000	-7.879802
908.811000	-8.979754
909.016000	-2.698740
909.221000	-2.270084
909.427000	-3.196213
909.632000	-5.817344
909.837000	-4.964600
910.042000	-6.598442
910.248000	-7.947055
910.453000	-3.357662
910.658000	-3.558556
910.863000	-3.835032
911.069000	-6.133806
911.274000	-2.673370
911.479000	-0.837230
911.684000	-7.635179
911.890000	-3.782534
912.095000	-3.715402
912.300000	-7.068027
912.506000	-6.203605
912.711000	-6.171039
912.917000	-2.840846
913.123000	-2.733317
913.328000	-3.857671
913.534000	-3.669533
913.740000	5.083345
913.946000	1.526977
914.151000	-5.178947
914.357000	-6.840357
914.563000	-1.943418
914.768000	-5.761939
914.974000	-7.052844
915.180000	-6.966212
915.385000	-5.942083
915.591000	-8.628646
915.797000	-3.648128
916.002000	-0.218351
916.208000	-3.497660
916.414000	-6.013322
916.620000	-6.386553
916.825000	-3.554736
917.031000	-4.160400
917.237000	-10.472237
917.442000	-6.587779
917.648000	-6.475035
917.854000	-8.031959
918.059000	-1.178952
918.265000	-0.846956
918.471000	-3.840983
918.676000	-6.735811
918.882000	-9.272699
919.088000	-7.427508
919.294000	-12.431923
919.499000	-8.738890
919.705000	-2.741724
919.911000	-3.173353
920.116000	-1.373621
920.322000	-8.167272
920.528000	-6.670037
920.733000	-9.084487
920.939000	-10.421885
921.145000	-8.251542
921.350000	-6.590756
921.556000	-4.772500
921.762000	-4.532743
921.968000	-5.413696
922.173000	-7.611562
922.379000	-10.186048
922.585000	-5.958334
922.790000	-6.998820
922.996000	-7.855382
923.202000	-8.236817
923.407000	-8.480571
923.613000	-6.326882
923.819000	-4.178221
924.024000	-4.344455
924.230000	-2.391242
924.436000	-6.052384
924.642000	4.011282
924.847000	0.919984
925.053000	-6.135089
925.259000	-10.620448
925.464000	-3.980499
925.670000	-5.878363
925.876000	-8.170808
926.081000	-6.892143
926.287000	-4.409277
926.493000	-4.487051
926.698000	-5.273934
926.904000	-2.969374
927.110000	-5.740583
927.316000	-6.234329
927.521000	0.922282
927.727000	-3.985325
927.933000	-5.614402
928.138000	-5.477087
928.344000	-13.182965
928.550000	-8.500959
928.755000	-2.239502
928.961000	-7.477789
929.167000	-7.745467
929.372000	0.473819
929.578000	-1.265774
929.784000	-7.508560
929.990000	-10.446491
930.195000	-8.476345
930.401000	-6.699286
930.607000	-4.697922
930.812000	-3.987152
931.018000	-7.042982
931.224000	-13.356588
931.429000	-9.073432
931.635000	-11.428571
931.841000	-12.139885
932.046000	-8.448828
932.252000	-3.113796
932.458000	4.484129
932.664000	-1.634925
932.869000	-8.986050
933.075000	-10.166493
933.281000	-9.428270
933.486000	-2.268363
933.692000	-4.460898
933.898000	-9.462398
934.103000	-3.268860
934.309000	-7.170750
934.515000	-4.400052
934.720000	-0.842590
934.926000	1.053574
935.132000	-1.598640
935.338000	-3.266304
935.543000	-10.218492
935.749000	-12.496893
935.955000	-16.161570
936.160000	-13.558422
936.366000	-3.492464
936.572000	-5.911008
936.777000	-2.510208
936.983000	0.262876
937.189000	-5.866478
937.394000	-10.779095
937.600000	-3.275718
937.806000	2.911392
938.012000	-5.244391
938.217000	4.965651
938.423000	0.840180
938.629000	-9.243320
938.834000	-14.387426
939.040000	-12.228448
939.246000	-7.104352
939.451000	-9.855245
939.657000	-6.593126
939.863000	-12.648690
940.068000	-5.031160
940.274000	-8.788965
940.480000	-4.869722
940.686000	-2.903729
940.891000	-6.954632
941.097000	19.140047
941.303000	5.921087
941.508000	-8.501684
941.714000	-6.170961
941.920000	-16.717853
942.125000	-4.235624
942.331000	-4.255345
942.537000	-0.140180
942.742000	-1.085632
942.948000	-12.038093
943.154000	-15.889769
943.360000	-26.362573
943.565000	-11.411350
943.771000	1.215181
943.977000	5.744735
944.182000	-15.566145
944.388000	-17.279371
944.594000	-2.403394
944.799000	4.806002
945.005000	-1.315354
945.211000	2.785098
945.416000	-1.141150
945.622000	-16.066395
945.828000	-12.820848
946.034000	-2.912693
946.239000	-0.770777
946.445000	-5.008636
946.651000	-16.365228
946.856000	-15.801182
947.062000	-3.901008
947.268000	-4.540571
947.473000	-18.389754
947.679000	-21.593931
947.885000	-6.668891
948.090000	-1.820502
948.296000	11.795399
948.502000	0.364927
948.708000	-10.780471
948.913000	-15.591198
949.119000	-3.244758
949.325000	-9.740452
949.530000	-22.955661
949.736000	-27.335178
949.942000	-17.394292
950.147000	-13.580020
950.353000	-11.775039
950.559000	-8.612469
950.764000	13.279242
950.970000	4.563982
951.176000	-11.678147
951.382000	-16.935965
951.587000	-6.310232
951.793000	-1.517721
951.999000	1.828620
952.204000	-12.477836
952.410000	-25.010576
952.616000	-13.590952
952.821000	-10.245523
953.027000	-17.364444
953.233000	-19.144870
953.438000	-17.576359
953.644000	0.398002
953.850000	-7.794673
954.056000	-13.626894
954.261000	-12.207356
954.467000	-1.565739
954.673000	3.877224
954.878000	-8.768246
955.084000	-7.383729
955.290000	-23.291231
955.495000	-24.647290
955.701000	-18.392337
955.907000	1.724279
956.112000	-0.297320
956.318000	7.956254
956.524000	4.590291
956.730000	-10.959882
956.935000	-13.786848
957.141000	-19.242831
957.347000	-4.223526
957.552000	-9.233126
957.758000	-24.291846
957.964000	-33.810163
958.169000	2.670722
958.375000	2.928203
958.581000	-13.335190
958.786000	-27.257075
958.992000	-31.620928
959.198000	-11.072740
959.404000	-3.890401
959.609000	-11.048042
959.815000	-17.446755
960.021000	0.844275
960.226000	-4.651863
960.432000	-31.823376
960.638000	-22.989791
960.843000	-14.278642
961.049000	-13.084042
961.255000	0.067192
961.460000	-12.926035
961.666000	-34.582759
961.872000	-19.921713
962.078000	-16.094402
962.283000	-28.419236
962.489000	-29.711792
962.695000	-16.897253
962.900000	-11.199354
963.106000	-13.570572
963.312000	-17.023365
963.517000	-19.292639
963.723000	-21.988664
963.929000	-1.083396
964.134000	5.550546
964.340000	-20.774033
964.546000	-25.459187
964.752000	-27.576201
964.957000	-31.244027
965.163000	-4.584818
965.369000	-7.081719
965.574000	-2.846566
965.780000	-7.622845
966.000000	-21.808310
966.220000	-18.837876
966.440000	-14.261617
966.661000	-3.841779
966.881000	-23.042874
967.101000	-36.820587
967.321000	-37.576575
967.541000	-15.059250
967.761000	-22.487675
967.981000	-16.511896
968.202000	-11.954708
968.422000	2.566098
968.642000	-1.898022
968.862000	-4.296617
969.082000	-10.268760
969.302000	-0.438144
969.522000	-10.593760
969.743000	-0.587092
969.963000	-19.286892
970.183000	-28.416484
970.403000	-25.791489
970.623000	-21.952757
970.843000	-0.619895
971.063000	-0.269769
971.284000	-24.155341
971.504000	-37.949743
971.724000	-11.855312
971.944000	-28.932627
972.164000	-40.455652
972.384000	-27.282598
972.604000	-45.308669
972.825000	-50.475040
973.045000	-32.280392
973.265000	20.518896
973.485000	9.817551
973.705000	-9.090608
973.925000	-16.967851
974.145000	-54.795450
974.365000	-24.695515
974.586000	-20.342421
974.806000	-33.924851
975.026000	-3.181586
975.246000	-14.729839
975.466000	-30.606665
975.686000	-12.564082
975.906000	-23.210333
976.127000	-49.739231
976.347000	-39.761434
976.567000	-11.844708
976.787000	-17.019111
977.007000	-28.994625
977.227000	-29.114698
977.447000	-27.353481
977.668000	-48.142139
977.888000	-37.143838
978.108000	-38.482856
978.328000	-22.703904
978.548000	5.789202
978.768000	7.515930
978.988000	-2.295157
979.209000	-20.562618
979.429000	-20.922825
979.649000	-8.157836
979.869000	-28.751752
980.089000	-47.981391
980.309000	-58.079191
980.529000	-59.385633
980.750000	-36.502257
980.970000	-49.174645
981.190000	-38.339482
981.410000	-38.216970
981.630000	-38.804923
981.850000	-20.381278
982.070000	-17.554106
982.291000	-58.354046
982.511000	-56.711445
982.731000	-17.576429
982.951000	-33.250774
983.171000	-33.819575
983.391000	-27.852668
983.611000	2.106192
983.832000	-24.532767
984.052000	-53.959117
984.272000	-38.543715
984.492000	-31.893928
984.712000	-47.885062
984.932000	-62.081525
985.152000	-59.556258
985.373000	-43.544814
985.593000	-22.904201
985.813000	-30.995367
986.033000	-36.310158
986.253000	-0.479850
986.473000	-1.368868
986.693000	-34.610120
986.914000	-43.763145
987.134000	6.719773
987.354000	-28.512433
987.574000	192.183929
987.794000	118.045728
988.014000	-37.774530
988.234000	-22.262735
988.455000	-11.154403
988.675000	-16.904338
988.895000	-25.596447
989.115000	-47.535417
989.335000	-31.722031
989.555000	-9.228071
989.775000	-43.526534
989.995000	-40.287109
990.216000	-24.225986
990.436000	-16.865783
990.656000	6.468711
990.876000	-33.186069
991.096000	-25.235154
991.316000	4.845008
991.536000	-23.042990
991.757000	-35.550197
991.977000	-75.852504
992.197000	-18.014578
992.417000	-48.934100
992.637000	-89.652155
992.857000	-91.558580
993.077000	-90.275120
993.298000	-44.299461
993.518000	-45.449145
993.738000	-94.852304
993.958000	-41.906201
994.178000	-51.099632
994.398000	-48.953489
994.618000	-91.619966
994.839000	-142.929976
995.059000	-51.658649
995.279000	19.426230
995.499000	-17.580035
995.719000	-8.826843
995.939000	-25.102620
996.159000	-29.361575
996.380000	-31.920980
996.600000	-79.606049
996.820000	-47.837467
997.040000	-6.505406
997.260000	-55.427383
997.480000	-33.317608
997.700000	-98.058115
997.921000	-60.294977
998.141000	28.622159
998.361000	-9.281772
998.581000	-72.365174
998.801000	-108.411953
999.021000	-72.478681
999.241000	-41.224777
999.462000	-62.911898
999.682000	-111.660900
999.902000	-71.469979
1000.122000	-80.075156
1000.342000	-140.717155
1000.562000	-81.436615
1000.782000	-91.447500
1001.003000	-1059.484401
