Wavelength	Irradiance
(nm)	(mW/cm2/nm)

294.396000	0.000000
294.577000	0.000000
294.757000	-0.000000
294.938000	-0.000000
295.118000	-0.000000
295.299000	0.000000
295.479000	-0.000000
295.660000	-0.000000
295.840000	-0.000000
296.021000	-0.000000
296.202000	-0.000000
296.382000	-0.000000
296.563000	-0.000000
296.743000	-0.000000
296.924000	0.000000
297.104000	-0.000000
297.285000	-0.000000
297.465000	-0.000000
297.646000	-0.000000
297.826000	-0.000000
298.007000	0.000000
298.187000	0.000000
298.368000	-0.000000
298.548000	0.000000
298.729000	0.000000
298.909000	-0.000000
299.090000	-0.000000
299.270000	-0.000000
299.451000	-0.000000
299.631000	-0.000000
299.812000	-0.000000
299.992000	0.000000
300.173000	0.000000
300.353000	-0.000000
300.534000	0.000000
300.714000	0.000000
300.895000	0.000000
301.075000	-0.000000
301.256000	0.000000
301.436000	-0.000000
301.617000	-0.000000
301.797000	-0.000000
301.978000	-0.000000
302.159000	0.000000
302.339000	0.000000
302.520000	-0.000000
302.700000	-0.000000
302.881000	0.000000
303.061000	0.000000
303.242000	0.000000
303.422000	0.000000
303.603000	-0.000000
303.783000	-0.000000
303.964000	0.000000
304.144000	-0.000000
304.325000	-0.000000
304.505000	-0.000000
304.686000	-0.000000
304.866000	0.000000
305.047000	-0.000000
305.227000	-0.000000
305.408000	-0.000000
305.588000	-0.000000
305.769000	-0.000000
305.949000	-0.000000
306.130000	-0.000000
306.310000	-0.000000
306.491000	-0.000000
306.671000	0.000000
306.852000	-0.000000
307.032000	-0.000000
307.213000	-0.000000
307.393000	-0.000000
307.574000	0.000000
307.755000	0.000000
307.935000	0.000000
308.116000	-0.000000
308.296000	-0.000000
308.477000	0.000000
308.657000	0.000000
308.838000	0.000000
309.018000	0.000000
309.199000	-0.000000
309.379000	-0.000000
309.560000	0.000000
309.740000	-0.000000
309.921000	0.000000
310.101000	-0.000000
310.282000	-0.000000
310.462000	-0.000000
310.643000	-0.000000
310.823000	-0.000000
311.004000	-0.000000
311.184000	-0.000000
311.365000	0.000000
311.545000	0.000000
311.726000	0.000000
311.906000	-0.000000
312.087000	0.000000
312.267000	-0.000000
312.448000	-0.000000
312.628000	-0.000000
312.809000	-0.000000
312.989000	-0.000000
313.170000	-0.000000
313.344000	-0.000000
313.518000	-0.000000
313.691000	-0.000000
313.865000	-0.000000
314.039000	-0.000000
314.213000	-0.000000
314.387000	-0.000000
314.560000	-0.000000
314.734000	-0.000000
314.908000	-0.000000
315.082000	-0.000000
315.255000	0.000000
315.429000	0.000000
315.603000	-0.000000
315.777000	-0.000000
315.951000	0.000000
316.124000	-0.000000
316.298000	-0.000000
316.472000	-0.000000
316.646000	-0.000000
316.820000	-0.000000
316.993000	-0.000000
317.167000	-0.000000
317.341000	-0.000000
317.515000	-0.000000
317.688000	-0.000000
317.862000	-0.000000
318.036000	-0.000000
318.210000	-0.000000
318.384000	-0.000000
318.557000	-0.000000
318.731000	-0.000000
318.905000	-0.000000
319.079000	0.000000
319.253000	-0.000000
319.426000	0.000000
319.600000	0.000000
319.774000	-0.000000
319.948000	-0.000000
320.122000	0.000000
320.295000	0.000000
320.469000	-0.000000
320.643000	-0.000000
320.817000	-0.000000
320.990000	-0.000000
321.164000	-0.000000
321.338000	-0.000000
321.512000	-0.000000
321.686000	-0.000000
321.859000	-0.000000
322.033000	-0.000000
322.207000	-0.000000
322.381000	-0.000000
322.555000	0.000000
322.728000	-0.000000
322.902000	-0.000000
323.076000	-0.000000
323.250000	-0.000000
323.423000	-0.000000
323.597000	-0.000000
323.771000	-0.000000
323.945000	-0.000000
324.119000	-0.000000
324.292000	0.000000
324.466000	-0.000000
324.640000	0.000000
324.814000	0.000000
324.988000	-0.000000
325.161000	-0.000000
325.335000	-0.000000
325.509000	-0.000000
325.683000	-0.000000
325.856000	-0.000000
326.030000	-0.000000
326.204000	-0.000000
326.378000	-0.000000
326.552000	-0.000000
326.725000	-0.000000
326.899000	-0.000000
327.073000	-0.000000
327.247000	-0.000000
327.421000	0.000000
327.594000	-0.000000
327.768000	-0.000000
327.942000	-0.000000
328.116000	0.000000
328.289000	0.000000
328.463000	-0.000000
328.637000	0.000000
328.811000	-0.000000
328.985000	-0.000000
329.158000	-0.000000
329.332000	-0.000000
329.506000	0.000000
329.680000	-0.000000
329.854000	-0.000000
330.027000	-0.000000
330.201000	0.000000
330.375000	0.000000
330.549000	0.000000
330.723000	-0.000000
330.896000	-0.000000
331.070000	-0.000000
331.244000	-0.000000
331.418000	-0.000000
331.591000	-0.000000
331.765000	-0.000000
331.939000	-0.000000
332.113000	-0.000000
332.287000	-0.000000
332.460000	0.000000
332.634000	0.000000
332.808000	-0.000000
332.982000	-0.000000
333.156000	-0.000000
333.329000	-0.000000
333.503000	-0.000000
333.677000	-0.000000
333.851000	-0.000000
334.024000	-0.000000
334.198000	-0.000000
334.372000	-0.000000
334.546000	-0.000000
334.720000	-0.000000
334.893000	-0.000000
335.067000	-0.000000
335.241000	-0.000000
335.415000	-0.000000
335.589000	-0.000000
335.762000	-0.000000
335.936000	-0.000000
336.110000	-0.000000
336.284000	-0.000000
336.458000	-0.000000
336.631000	-0.000000
336.805000	-0.000000
336.979000	-0.000000
337.153000	-0.000000
337.326000	-0.000000
337.500000	-0.000000
337.674000	-0.000000
337.848000	-0.000000
338.022000	-0.000000
338.195000	-0.000000
338.369000	-0.000000
338.543000	-0.000000
338.717000	-0.000000
338.891000	0.000000
339.064000	0.000000
339.238000	-0.000000
339.412000	-0.000000
339.586000	-0.000000
339.759000	-0.000000
339.933000	-0.000000
340.107000	0.000000
340.281000	-0.000000
340.455000	-0.000000
340.628000	-0.000000
340.802000	-0.000000
340.976000	-0.000000
341.150000	-0.000000
341.324000	-0.000000
341.497000	-0.000000
341.671000	-0.000000
341.845000	-0.000000
342.019000	-0.000000
342.192000	-0.000000
342.366000	-0.000000
342.540000	-0.000000
342.714000	-0.000000
342.888000	-0.000000
343.061000	-0.000000
343.235000	-0.000000
343.409000	-0.000000
343.583000	-0.000000
343.757000	-0.000000
343.930000	-0.000000
344.104000	-0.000000
344.278000	0.000000
344.452000	0.000000
344.626000	-0.000000
344.799000	-0.000000
344.973000	-0.000000
345.147000	-0.000000
345.321000	-0.000000
345.494000	-0.000000
345.668000	0.000000
345.842000	0.000000
346.016000	-0.000000
346.190000	0.000000
346.363000	0.000000
346.537000	-0.000000
346.711000	-0.000000
346.885000	-0.000000
347.059000	-0.000000
347.232000	-0.000000
347.406000	0.000000
347.580000	-0.000000
347.754000	-0.000000
347.927000	-0.000000
348.101000	0.000000
348.275000	-0.000000
348.449000	-0.000000
348.623000	-0.000000
348.796000	0.000000
348.970000	0.000000
349.144000	-0.000000
349.318000	-0.000000
349.492000	-0.000000
349.665000	-0.000000
349.839000	-0.000000
350.013000	-0.000000
350.187000	-0.000000
350.361000	-0.000000
350.534000	-0.000000
350.708000	-0.000000
350.882000	-0.000000
351.056000	0.000000
351.229000	0.000000
351.403000	-0.000000
351.577000	-0.000000
351.751000	-0.000000
351.925000	-0.000000
352.098000	-0.000000
352.272000	-0.000000
352.446000	-0.000000
352.620000	-0.000000
352.794000	-0.000000
352.967000	-0.000000
353.141000	0.000000
353.315000	0.000000
353.489000	-0.000000
353.662000	-0.000000
353.836000	-0.000000
354.010000	-0.000000
354.184000	-0.000000
354.358000	-0.000000
354.531000	-0.000000
354.705000	-0.000000
354.879000	-0.000000
355.053000	-0.000000
355.227000	0.000000
355.400000	-0.000000
355.574000	0.000000
355.748000	0.000000
355.922000	-0.000000
356.095000	-0.000000
356.269000	-0.000000
356.443000	-0.000000
356.617000	-0.000000
356.791000	-0.000000
356.964000	-0.000000
357.138000	-0.000000
357.312000	-0.000000
357.486000	-0.000000
357.660000	-0.000000
357.833000	-0.000000
358.007000	-0.000000
358.181000	-0.000000
358.355000	-0.000000
358.529000	-0.000000
358.702000	-0.000000
358.876000	-0.000000
359.050000	-0.000000
359.224000	-0.000000
359.397000	-0.000000
359.571000	-0.000000
359.745000	-0.000000
359.919000	-0.000000
360.093000	-0.027620
360.266000	0.003896
360.440000	0.070571
360.614000	0.120948
360.788000	0.022451
360.962000	-0.197676
361.135000	-0.079698
361.309000	-0.222308
361.483000	-0.344253
361.657000	-0.263451
361.830000	-0.210372
362.004000	-0.002784
362.178000	-0.343603
362.352000	-0.247218
362.526000	-0.073531
362.699000	-0.059362
362.873000	-0.399881
363.047000	-0.388201
363.221000	-0.348504
363.395000	-0.240470
363.568000	-0.209424
363.742000	-0.221371
363.916000	-0.200675
364.090000	-0.287991
364.263000	-0.270122
364.437000	-0.362399
364.611000	-0.087483
364.785000	-0.056496
364.959000	-0.260293
365.132000	-0.234054
365.306000	-0.281812
365.480000	-0.149666
365.656000	-0.215086
365.831000	-0.231059
366.007000	-0.205261
366.183000	-0.176249
366.358000	-0.299534
366.534000	-0.195243
366.710000	-0.366572
366.886000	-0.293117
367.061000	-0.116218
367.237000	0.033683
367.413000	-0.140766
367.588000	-0.363790
367.764000	-0.362790
367.940000	-0.388197
368.115000	-0.285994
368.291000	-0.321824
368.467000	-0.207553
368.643000	0.108842
368.818000	-0.265274
368.994000	-0.374964
369.170000	-0.275571
369.345000	-0.199620
369.521000	-0.241310
369.697000	-0.121718
369.872000	-0.241172
370.048000	-0.353676
370.224000	-0.288934
370.399000	-0.484718
370.575000	-0.371928
370.751000	-0.474489
370.927000	-0.445157
371.102000	-0.391730
371.278000	-0.365234
371.454000	-0.252704
371.629000	-0.003250
371.805000	-0.086452
371.981000	0.035731
372.156000	0.212883
372.332000	0.028742
372.508000	-0.033713
372.683000	-0.083984
372.859000	-0.163877
373.035000	-0.196462
373.211000	0.229714
373.386000	0.017280
373.562000	-0.388605
373.738000	-0.467102
373.913000	-0.670069
374.089000	-0.504228
374.265000	-0.058717
374.440000	-0.038526
374.616000	-0.013641
374.792000	-0.230422
374.968000	0.145782
375.143000	-0.100538
375.319000	-0.313439
375.495000	-0.376043
375.670000	-0.221368
375.846000	-0.115295
376.022000	-0.291457
376.197000	-0.250271
376.373000	-0.448855
376.549000	-0.445315
376.724000	-0.447772
376.900000	-0.288737
377.076000	-0.177513
377.252000	0.028282
377.427000	0.125307
377.603000	-0.229287
377.779000	-0.255392
377.954000	-0.391455
378.130000	-0.250912
378.306000	-0.227536
378.481000	-0.214738
378.657000	-0.298236
378.833000	-0.331122
379.009000	-0.216284
379.184000	-0.058683
379.360000	-0.138742
379.536000	-0.155744
379.711000	-0.246966
379.887000	-0.344560
380.063000	-0.340903
380.238000	-0.384830
380.414000	-0.091628
380.590000	-0.306933
380.765000	-0.381192
380.941000	-0.136213
381.117000	-0.102286
381.293000	-0.204870
381.468000	-0.333043
381.644000	-0.287387
381.820000	-0.160968
381.995000	-0.052345
382.171000	0.127329
382.347000	0.097553
382.522000	-0.285912
382.698000	0.020319
382.874000	0.030043
383.050000	-0.303605
383.225000	0.026273
383.401000	0.223068
383.577000	-0.157693
383.752000	-0.280936
383.928000	-0.222150
384.104000	-0.136312
384.279000	-0.217956
384.455000	-0.126770
384.631000	-0.212108
384.806000	-0.438538
384.982000	-0.198793
385.158000	-0.251321
385.334000	-0.076206
385.509000	-0.163482
385.685000	-0.466369
385.861000	-0.313300
386.036000	-0.448373
386.212000	-0.599013
386.388000	-0.373566
386.563000	-0.309628
386.739000	-0.330329
386.915000	-0.566340
387.090000	-0.291526
387.266000	-0.129332
387.442000	-0.005044
387.618000	-0.122415
387.793000	-0.414664
387.969000	-0.501766
388.145000	-0.440350
388.320000	-0.404748
388.496000	-0.363612
388.672000	-0.600673
388.847000	-0.167798
389.023000	-0.103332
389.199000	-0.443003
389.375000	-0.243750
389.550000	-0.349961
389.726000	-0.225409
389.902000	-0.392243
390.077000	-0.213477
390.253000	-0.180843
390.429000	-0.241514
390.604000	-0.163460
390.780000	-0.145546
390.956000	-0.289597
391.131000	-0.341734
391.307000	-0.042558
391.483000	-0.204429
391.659000	-0.352406
391.834000	-0.162847
392.010000	-0.297836
392.186000	-0.367703
392.361000	-0.306327
392.537000	-0.404134
392.713000	0.056304
392.888000	0.241875
393.064000	-0.073716
393.240000	-0.236929
393.416000	-0.396022
393.591000	-0.484383
393.767000	-0.498974
393.943000	-0.356461
394.118000	-0.050536
394.294000	0.116009
394.470000	-0.039422
394.645000	0.038933
394.821000	0.256909
394.997000	-0.097468
395.172000	-0.134940
395.348000	-0.240325
395.524000	-0.511013
395.700000	-0.366024
395.875000	-0.169861
396.051000	-0.234195
396.227000	-0.297365
396.402000	-0.309841
396.578000	-0.194922
396.754000	-0.352415
396.929000	-0.275507
397.105000	-0.018984
397.281000	-0.149679
397.457000	-0.267066
397.632000	-0.257187
397.808000	-0.511250
397.984000	-0.616144
398.159000	-0.526143
398.335000	-0.320050
398.511000	0.155461
398.686000	-0.130777
398.862000	-0.366386
399.038000	-0.448177
399.213000	-0.178006
399.389000	-0.458150
399.565000	-0.166484
399.741000	0.027072
399.916000	-0.041887
400.092000	0.163198
400.268000	-0.223514
400.443000	-0.360894
400.619000	0.043170
400.795000	-0.079199
400.970000	-0.276157
401.146000	-0.315938
401.322000	-0.008147
401.497000	0.379426
401.673000	0.064749
401.849000	-0.297144
402.025000	-0.105220
402.200000	-0.212332
402.376000	-0.309030
402.552000	0.092598
402.727000	-0.090757
402.903000	-0.418781
403.079000	-0.338271
403.254000	-0.036212
403.430000	-0.030732
403.606000	-0.140970
403.782000	-0.175729
403.957000	-0.382938
404.133000	-0.508624
404.309000	-0.329381
404.484000	-0.155005
404.660000	-0.165964
404.841000	-0.285437
405.023000	-0.056915
405.204000	-0.123622
405.385000	-0.440815
405.566000	-0.416068
405.748000	-0.277086
405.929000	-0.022406
406.110000	-0.064331
406.292000	-0.230740
406.473000	-0.165022
406.654000	-0.363262
406.835000	-0.172774
407.017000	-0.219255
407.198000	-0.223713
407.379000	-0.212768
407.560000	-0.256604
407.742000	-0.258595
407.923000	-0.202284
408.104000	-0.328457
408.286000	-0.193964
408.467000	-0.136271
408.648000	-0.388858
408.829000	-0.449878
409.011000	-0.292543
409.192000	-0.459163
409.373000	-0.260236
409.555000	-0.129793
409.736000	-0.118553
409.917000	-0.243886
410.098000	-0.225040
410.280000	-0.127615
410.461000	-0.182031
410.642000	-0.156706
410.823000	0.063959
411.005000	-0.035274
411.186000	-0.246054
411.367000	-0.304574
411.549000	-0.345483
411.730000	-0.100395
411.911000	0.021208
412.092000	-0.147673
412.274000	-0.205794
412.455000	-0.148560
412.636000	-0.119839
412.818000	-0.315483
412.999000	-0.383878
413.180000	-0.279764
413.361000	-0.263849
413.543000	-0.331591
413.724000	-0.406446
413.905000	-0.389636
414.087000	-0.408995
414.268000	-0.409515
414.449000	-0.386893
414.630000	-0.467217
414.812000	-0.583422
414.993000	-0.244904
415.174000	-0.100598
415.355000	-0.279940
415.537000	-0.528135
415.718000	-0.229049
415.899000	-0.313009
416.081000	-0.435683
416.262000	-0.210466
416.443000	-0.358014
416.624000	-0.314508
416.806000	-0.147360
416.987000	-0.070398
417.168000	-0.175104
417.350000	-0.334361
417.531000	-0.376425
417.712000	-0.353543
417.893000	-0.142931
418.075000	-0.049741
418.256000	-0.310724
418.437000	-0.236682
418.618000	-0.113511
418.800000	-0.064483
418.981000	-0.258594
419.162000	-0.186097
419.344000	-0.010695
419.525000	-0.113389
419.706000	-0.155920
419.887000	-0.035158
420.069000	0.091705
420.250000	-0.049742
420.431000	-0.146917
420.613000	-0.181827
420.794000	-0.386217
420.975000	-0.060742
421.156000	-0.209772
421.338000	-0.272675
421.519000	-0.267769
421.700000	-0.364246
421.882000	-0.398232
422.063000	-0.188600
422.244000	0.306414
422.425000	0.065265
422.607000	-0.253996
422.788000	-0.299937
422.969000	-0.407585
423.150000	-0.396750
423.332000	-0.443929
423.513000	-0.261131
423.694000	-0.228391
423.876000	-0.188831
424.057000	-0.124071
424.238000	-0.093647
424.419000	-0.077614
424.601000	-0.198249
424.782000	-0.178505
424.963000	-0.038118
425.145000	-0.135398
425.326000	-0.105789
425.507000	-0.039612
425.688000	-0.140157
425.870000	-0.308080
426.051000	-0.417323
426.232000	-0.349516
426.413000	-0.310993
426.595000	-0.346502
426.776000	-0.414125
426.957000	-0.326765
427.139000	-0.222087
427.320000	-0.206857
427.501000	-0.082349
427.682000	-0.104620
427.864000	-0.115891
428.045000	0.063958
428.226000	-0.048222
428.408000	-0.368807
428.589000	-0.216519
428.770000	-0.193390
428.951000	-0.327043
429.133000	-0.448383
429.314000	-0.270967
429.495000	-0.313316
429.677000	-0.295136
429.858000	-0.287409
430.039000	-0.197524
430.220000	-0.097651
430.402000	-0.084495
430.583000	-0.332652
430.764000	-0.288027
430.945000	-0.137545
431.127000	-0.052009
431.308000	-0.223280
431.489000	-0.060042
431.671000	0.042330
431.852000	-0.094923
432.033000	-0.231918
432.214000	-0.142439
432.396000	-0.096083
432.577000	-0.271088
432.758000	-0.415198
432.940000	-0.304939
433.121000	-0.209225
433.302000	-0.210116
433.483000	-0.038904
433.665000	0.021203
433.846000	-0.061065
434.027000	-0.200597
434.208000	-0.311806
434.390000	-0.391746
434.571000	-0.037205
434.752000	0.373059
434.934000	0.111118
435.115000	0.019346
435.296000	0.125397
435.477000	-0.042920
435.659000	-0.324055
435.840000	-0.213919
436.026000	-0.160965
436.211000	-0.283762
436.397000	-0.512390
436.582000	-0.405214
436.768000	-0.172296
436.953000	-0.279028
437.139000	-0.264698
437.325000	0.046149
437.510000	-0.010018
437.696000	0.094462
437.881000	0.077688
438.067000	-0.238340
438.252000	-0.211448
438.438000	-0.233841
438.624000	-0.245875
438.809000	-0.138601
438.995000	-0.077143
439.180000	-0.149935
439.366000	-0.224222
439.551000	-0.250686
439.737000	-0.184888
439.923000	-0.149471
440.108000	-0.260562
440.294000	-0.163611
440.479000	-0.055424
440.665000	-0.000879
440.850000	-0.101362
441.036000	-0.141004
441.222000	-0.143067
441.407000	-0.246298
441.593000	-0.141964
441.778000	-0.011029
441.964000	0.041390
442.149000	-0.289790
442.335000	-0.315780
442.521000	-0.174021
442.706000	-0.022419
442.892000	-0.112714
443.077000	-0.233952
443.263000	-0.128382
443.448000	-0.163464
443.634000	-0.212111
443.820000	0.074320
444.005000	-0.043372
444.191000	-0.276398
444.376000	-0.255306
444.562000	0.087672
444.747000	0.055646
444.933000	-0.057177
445.119000	-0.141336
445.304000	-0.198569
445.490000	-0.047137
445.675000	-0.069551
445.861000	-0.235640
446.046000	-0.244946
446.232000	-0.131130
446.418000	-0.069411
446.603000	-0.109981
446.789000	-0.123840
446.974000	-0.124214
447.160000	-0.305367
447.345000	-0.220389
447.531000	-0.264624
447.717000	-0.077666
447.902000	-0.009258
448.088000	0.013108
448.273000	-0.104881
448.459000	-0.123954
448.644000	-0.204302
448.830000	-0.302318
449.016000	-0.346488
449.201000	-0.265598
449.387000	-0.160606
449.572000	-0.064549
449.758000	-0.161405
449.943000	-0.294714
450.129000	-0.325295
450.315000	-0.253022
450.500000	-0.291862
450.686000	-0.223306
450.871000	-0.307893
451.057000	-0.174809
451.243000	-0.199433
451.428000	-0.201083
451.614000	-0.179940
451.799000	-0.232158
451.985000	-0.046246
452.170000	0.041802
452.356000	-0.179454
452.542000	-0.212686
452.727000	-0.095449
452.913000	-0.183520
453.098000	-0.003571
453.284000	0.159816
453.469000	-0.036565
453.655000	0.070533
453.841000	0.011509
454.026000	-0.167236
454.212000	-0.139554
454.397000	-0.108416
454.583000	-0.268731
454.768000	-0.336952
454.954000	-0.095886
455.140000	-0.059115
455.325000	-0.252424
455.511000	-0.332491
455.696000	-0.316209
455.882000	-0.178503
456.067000	0.048040
456.253000	-0.148743
456.439000	-0.284416
456.624000	-0.275365
456.810000	-0.292142
456.995000	-0.273628
457.181000	-0.330827
457.366000	-0.110697
457.552000	-0.080881
457.738000	-0.039462
457.923000	-0.058229
458.109000	0.159945
458.294000	0.067447
458.480000	-0.026262
458.665000	-0.075612
458.851000	-0.204832
459.037000	-0.350508
459.222000	-0.208784
459.408000	-0.210113
459.593000	-0.155045
459.779000	-0.031015
459.964000	0.100581
460.150000	0.253744
460.336000	0.150721
460.521000	-0.060971
460.707000	-0.192668
460.892000	-0.296519
461.078000	-0.076523
461.263000	0.018720
461.449000	-0.132553
461.635000	-0.137624
461.820000	-0.091826
462.006000	-0.016318
462.191000	-0.054969
462.377000	-0.246504
462.562000	0.061178
462.748000	0.264430
462.934000	-0.154154
463.119000	-0.313815
463.305000	-0.106799
463.490000	-0.169847
463.676000	-0.126945
463.861000	-0.147982
464.047000	-0.164102
464.233000	-0.119923
464.418000	-0.140054
464.604000	-0.213033
464.789000	-0.024784
464.975000	-0.025965
465.160000	-0.140903
465.346000	-0.121896
465.532000	-0.206741
465.717000	-0.241732
465.903000	-0.029727
466.088000	-0.056110
466.274000	-0.256091
466.459000	-0.287716
466.645000	0.051951
466.831000	0.016709
467.016000	0.020417
467.202000	-0.038266
467.387000	-0.140411
467.573000	-0.306268
467.758000	-0.029187
467.944000	-0.108287
468.130000	-0.215705
468.315000	-0.107662
468.501000	0.030226
468.686000	-0.037815
468.872000	-0.047717
469.057000	-0.005685
469.243000	-0.108413
469.429000	-0.109569
469.614000	-0.180862
469.800000	-0.264762
469.985000	-0.123729
470.171000	-0.025241
470.356000	-0.166770
470.542000	-0.088396
470.728000	-0.068406
470.913000	-0.110913
471.099000	-0.005628
471.284000	-0.111626
471.470000	-0.151272
471.655000	-0.137720
471.841000	-0.161887
472.027000	-0.203846
472.212000	-0.006858
472.398000	0.037350
472.583000	-0.081914
472.769000	-0.091925
472.954000	-0.111467
473.140000	-0.243296
473.326000	-0.298806
473.511000	0.017628
473.697000	0.049513
473.882000	-0.090574
474.068000	-0.159794
474.253000	-0.219266
474.439000	-0.166739
474.625000	-0.086654
474.810000	-0.084259
474.996000	-0.094085
475.181000	-0.241809
475.367000	-0.091385
475.552000	0.099051
475.738000	-0.178366
475.924000	-0.171400
476.109000	-0.059647
476.295000	-0.173878
476.480000	-0.131035
476.666000	-0.128381
476.851000	-0.131993
477.037000	-0.089524
477.223000	-0.173923
477.408000	-0.275946
477.594000	-0.341968
477.779000	-0.213523
477.965000	-0.168073
478.151000	-0.287362
478.336000	-0.154649
478.522000	-0.198500
478.707000	-0.250065
478.893000	-0.143506
479.078000	-0.309190
479.264000	-0.315440
479.450000	-0.227909
479.635000	-0.094443
479.821000	-0.187241
480.006000	-0.175992
480.192000	-0.173359
480.377000	-0.114424
480.563000	-0.109374
480.749000	-0.293499
480.934000	-0.278378
481.120000	-0.159333
481.305000	-0.058440
481.491000	-0.072238
481.676000	-0.053868
481.862000	-0.036655
482.048000	-0.181795
482.233000	-0.142212
482.419000	-0.149932
482.604000	-0.246357
482.790000	-0.259940
482.975000	-0.192232
483.161000	-0.025374
483.347000	-0.049928
483.532000	-0.092988
483.718000	-0.314194
483.903000	-0.286212
484.089000	-0.217716
484.274000	-0.342923
484.460000	-0.194376
484.646000	-0.143821
484.831000	-0.236500
485.017000	-0.181617
485.202000	-0.180044
485.388000	0.037311
485.573000	0.031113
485.759000	-0.171430
485.945000	-0.019161
486.130000	-0.173790
486.316000	-0.162807
486.501000	-0.085229
486.687000	-0.241631
486.872000	-0.287136
487.058000	-0.104839
487.244000	-0.146571
487.429000	-0.324551
487.615000	-0.164505
487.800000	-0.087493
487.986000	-0.162634
488.171000	-0.044657
488.357000	-0.101659
488.543000	-0.109770
488.728000	-0.047994
488.914000	-0.109877
489.099000	-0.214045
489.285000	-0.234482
489.470000	-0.056299
489.656000	-0.015234
489.842000	-0.056125
490.027000	0.052113
490.213000	-0.108970
490.398000	-0.403446
490.584000	-0.132892
490.769000	-0.107659
490.955000	-0.063092
491.141000	-0.062953
491.326000	-0.083008
491.512000	0.042200
491.697000	-0.063765
491.883000	-0.204227
492.068000	-0.239961
492.254000	-0.184346
492.440000	-0.134185
492.625000	-0.196758
492.811000	-0.197546
492.996000	-0.101361
493.182000	-0.116382
493.367000	-0.295454
493.553000	-0.326321
493.739000	-0.240708
493.924000	-0.152212
494.110000	-0.132853
494.295000	-0.245372
494.481000	-0.145567
494.666000	-0.138599
494.852000	0.019298
495.038000	-0.089949
495.223000	-0.214741
495.409000	-0.177866
495.594000	-0.204015
495.780000	-0.149565
495.965000	-0.249449
496.151000	-0.068674
496.337000	0.005152
496.522000	-0.217629
496.708000	-0.130630
496.893000	0.003980
497.079000	-0.171156
497.264000	-0.192969
497.450000	-0.141752
497.636000	-0.060206
497.821000	-0.210173
498.007000	0.017922
498.192000	0.067050
498.378000	-0.074162
498.563000	-0.147671
498.749000	-0.117463
498.935000	-0.110291
499.120000	-0.026285
499.306000	-0.191709
499.491000	-0.248107
499.677000	-0.122622
499.862000	-0.056648
500.048000	-0.007706
500.234000	-0.100863
500.419000	-0.150053
500.605000	0.020321
500.790000	-0.070694
500.976000	-0.206346
501.161000	-0.267033
501.347000	-0.117508
501.533000	-0.020571
501.718000	-0.114010
501.904000	-0.137693
502.089000	-0.028846
502.275000	0.015672
502.460000	-0.123141
502.646000	-0.073083
502.832000	-0.008877
503.017000	-0.051031
503.203000	-0.224571
503.388000	-0.248608
503.574000	-0.041717
503.759000	-0.011246
503.945000	0.011031
504.131000	-0.099278
504.316000	-0.139092
504.502000	-0.086350
504.687000	-0.146575
504.873000	-0.252588
505.058000	-0.254910
505.244000	-0.245436
505.430000	-0.216429
505.615000	-0.132902
505.801000	-0.087027
505.986000	-0.226638
506.172000	-0.150242
506.358000	-0.151765
506.543000	-0.155221
506.729000	0.058302
506.914000	-0.010172
507.100000	0.088301
507.285000	-0.117219
507.471000	-0.238215
507.657000	0.004037
507.842000	-0.071856
508.028000	-0.239205
508.213000	-0.223150
508.399000	-0.155670
508.584000	-0.019806
508.770000	-0.131729
508.956000	-0.204543
509.141000	-0.143624
509.327000	-0.061578
509.512000	-0.110069
509.698000	-0.107855
509.883000	-0.029367
510.069000	-0.126403
510.255000	-0.091730
510.440000	-0.041486
510.626000	-0.125351
510.811000	-0.193938
510.997000	-0.125558
511.182000	0.139556
511.368000	0.074895
511.554000	-0.278139
511.739000	-0.219151
511.925000	-0.018734
512.110000	-0.047512
512.296000	0.084677
512.481000	0.102594
512.667000	-0.007937
512.853000	-0.200393
513.038000	-0.122380
513.224000	-0.135663
513.409000	-0.229615
513.595000	-0.144314
513.780000	-0.275697
513.966000	-0.186001
514.152000	-0.192041
514.337000	-0.265547
514.523000	-0.195747
514.708000	-0.146539
514.894000	-0.121566
515.079000	-0.218591
515.265000	-0.185523
515.451000	-0.133642
515.636000	-0.239799
515.822000	-0.137337
516.007000	-0.237717
516.193000	-0.102193
516.378000	0.013794
516.564000	-0.086512
516.750000	-0.119176
516.935000	-0.055144
517.121000	-0.007980
517.306000	0.024687
517.492000	-0.021331
517.677000	-0.225900
517.863000	-0.248948
518.049000	-0.120637
518.234000	-0.202847
518.420000	-0.061317
518.605000	0.128892
518.791000	0.075553
518.976000	-0.050569
519.162000	-0.165745
519.348000	-0.111167
519.533000	-0.120701
519.719000	0.113302
519.904000	0.013845
520.090000	-0.073447
520.275000	0.101148
520.461000	0.061246
520.647000	-0.128301
520.832000	-0.278495
521.018000	-0.175704
521.203000	-0.136373
521.389000	-0.305708
521.574000	-0.250293
521.760000	-0.108693
521.946000	-0.084688
522.131000	-0.178533
522.317000	-0.185554
522.502000	-0.209783
522.688000	-0.108950
522.873000	-0.129744
523.059000	-0.148106
523.245000	-0.144317
523.430000	-0.267557
523.616000	-0.194399
523.801000	-0.262957
523.987000	-0.224330
524.172000	-0.102135
524.358000	-0.054512
524.544000	-0.119095
524.729000	-0.015334
524.915000	0.050504
525.100000	-0.081214
525.286000	-0.027600
525.471000	-0.036251
525.657000	-0.026480
525.843000	-0.229031
526.028000	-0.118650
526.214000	-0.157894
526.399000	-0.243313
526.585000	-0.296321
526.770000	-0.320915
526.956000	-0.192092
527.142000	-0.257475
527.327000	-0.105778
527.513000	-0.203652
527.698000	-0.208834
527.884000	-0.187218
528.069000	-0.207933
528.255000	-0.090189
528.441000	-0.192286
528.626000	-0.150458
528.812000	0.121417
528.997000	-0.046966
529.183000	-0.190531
529.368000	-0.145004
529.554000	-0.139100
529.740000	-0.100394
529.925000	-0.153398
530.111000	-0.154831
530.296000	-0.096880
530.482000	-0.008368
530.667000	-0.098426
530.853000	-0.033847
531.039000	-0.087480
531.224000	-0.049488
531.410000	0.029991
531.595000	-0.057216
531.781000	-0.039262
531.967000	-0.187858
532.152000	-0.029250
532.338000	-0.144727
532.523000	-0.256742
532.709000	-0.255082
532.894000	-0.180328
533.080000	-0.125420
533.266000	-0.259432
533.451000	-0.298612
533.637000	-0.234801
533.822000	-0.060527
534.008000	-0.177178
534.193000	-0.184490
534.379000	-0.082290
534.565000	-0.163098
534.750000	-0.205436
534.936000	0.051892
535.121000	-0.079394
535.307000	-0.060531
535.492000	-0.105488
535.678000	-0.303038
535.864000	-0.151994
536.049000	0.119422
536.235000	-0.083854
536.420000	-0.128720
536.606000	-0.193215
536.791000	-0.264477
536.977000	-0.225776
537.163000	-0.048831
537.348000	-0.059053
537.534000	0.019149
537.719000	-0.161314
537.905000	-0.305763
538.090000	-0.061510
538.276000	0.002029
538.462000	-0.018317
538.647000	-0.034446
538.833000	-0.153509
539.018000	-0.034797
539.204000	-0.080560
539.389000	-0.253438
539.575000	0.066015
539.761000	0.012552
539.946000	-0.281641
540.132000	-0.184774
540.317000	-0.285062
540.503000	-0.166013
540.688000	-0.135049
540.874000	0.072470
541.060000	0.132053
541.245000	-0.057737
541.431000	-0.201306
541.616000	-0.177127
541.802000	-0.222140
541.987000	-0.120385
542.173000	-0.122402
542.359000	-0.245717
542.544000	-0.150392
542.730000	-0.301044
542.915000	-0.282969
543.101000	-0.140469
543.286000	-0.318284
543.472000	-0.351887
543.658000	-0.241405
543.843000	-0.248343
544.029000	-0.050274
544.214000	-0.163440
544.400000	-0.485767
544.585000	-0.346186
544.771000	-0.271955
544.957000	-0.089348
545.142000	-0.044389
545.328000	-0.013868
545.513000	0.028110
545.699000	0.044457
545.884000	-0.082155
546.070000	-0.139045
546.261000	-0.115097
546.451000	-0.246281
546.642000	-0.444924
546.833000	-0.270106
547.023000	-0.325825
547.214000	-0.297493
547.405000	-0.124509
547.595000	0.125989
547.786000	0.035426
547.977000	-0.193548
548.167000	-0.310004
548.358000	-0.284673
548.549000	0.072686
548.740000	-0.079720
548.930000	-0.393045
549.121000	-0.293363
549.312000	-0.323158
549.502000	-0.403401
549.693000	-0.267928
549.884000	-0.164929
550.074000	-0.056979
550.265000	-0.293390
550.456000	-0.162898
550.646000	-0.076177
550.837000	-0.141130
551.028000	-0.271346
551.218000	-0.110494
551.409000	-0.231230
551.600000	-0.219392
551.790000	-0.089070
551.981000	-0.334167
552.172000	-0.301934
552.362000	-0.001037
552.553000	0.045865
552.744000	-0.100003
552.934000	-0.155695
553.125000	-0.258678
553.316000	-0.257101
553.506000	0.147318
553.697000	-0.044850
553.888000	-0.081498
554.079000	0.081212
554.269000	0.063773
554.460000	-0.222366
554.651000	-0.291166
554.841000	-0.460474
555.032000	-0.334249
555.223000	-0.248214
555.413000	-0.110024
555.604000	-0.099901
555.795000	-0.149714
555.985000	-0.056036
556.176000	-0.165679
556.367000	-0.436405
556.557000	-0.327774
556.748000	-0.227007
556.939000	-0.258631
557.129000	-0.366676
557.320000	-0.192864
557.511000	-0.212003
557.701000	-0.232906
557.892000	-0.157434
558.083000	0.055734
558.273000	-0.068527
558.464000	-0.256724
558.655000	-0.242312
558.845000	-0.172621
559.036000	-0.070089
559.227000	-0.102023
559.418000	0.027327
559.608000	0.061018
559.799000	-0.254398
559.990000	-0.321770
560.180000	-0.286902
560.371000	-0.412807
560.562000	-0.341598
560.752000	-0.204157
560.943000	-0.380939
561.134000	-0.524412
561.324000	-0.265057
561.515000	-0.011594
561.706000	-0.176926
561.896000	-0.392392
562.087000	-0.262235
562.278000	-0.321708
562.468000	-0.444805
562.659000	-0.342138
562.850000	-0.009802
563.040000	0.033956
563.231000	-0.393424
563.422000	-0.212302
563.612000	-0.322650
563.803000	-0.252276
563.994000	-0.317045
564.185000	-0.401449
564.375000	-0.197139
564.566000	-0.212499
564.757000	-0.211352
564.947000	-0.316999
565.138000	-0.175783
565.329000	-0.277302
565.519000	-0.448010
565.710000	-0.343084
565.901000	-0.128962
566.091000	-0.009674
566.282000	-0.168210
566.473000	-0.133327
566.663000	-0.157198
566.854000	-0.348020
567.045000	-0.210725
567.235000	-0.133980
567.426000	-0.128819
567.617000	-0.147031
567.807000	-0.174271
567.998000	-0.145100
568.189000	-0.268776
568.379000	-0.185266
568.570000	-0.078662
568.761000	-0.162720
568.951000	-0.229733
569.142000	-0.299088
569.333000	-0.299083
569.524000	-0.391915
569.714000	-0.448917
569.905000	-0.508436
570.096000	-0.108164
570.286000	-0.004348
570.477000	0.077376
570.668000	-0.092631
570.858000	-0.125944
571.049000	-0.269929
571.240000	-0.374703
571.430000	-0.161894
571.621000	-0.222475
571.812000	-0.137616
572.002000	-0.103231
572.193000	-0.249588
572.384000	-0.160616
572.574000	-0.136040
572.765000	-0.199908
572.956000	-0.240253
573.146000	-0.060072
573.337000	-0.209013
573.528000	-0.192297
573.718000	-0.049906
573.909000	-0.010749
574.100000	-0.073998
574.290000	-0.214493
574.481000	-0.222083
574.672000	-0.227185
574.863000	-0.086263
575.053000	-0.237094
575.244000	-0.158008
575.435000	-0.301944
575.625000	-0.327708
575.816000	-0.316158
576.007000	-0.225420
576.197000	-0.195480
576.388000	-0.194720
576.579000	-0.046997
576.769000	-0.053286
576.960000	-0.352750
577.155000	-0.479780
577.350000	-0.196664
577.545000	-0.074990
577.740000	-0.244409
577.935000	0.088408
578.130000	-0.018197
578.326000	-0.340314
578.521000	-0.065030
578.716000	-0.030498
578.911000	-0.327336
579.106000	-0.203777
579.301000	-0.053413
579.496000	-0.222522
579.691000	-0.489868
579.886000	-0.306098
580.081000	-0.195381
580.276000	-0.158243
580.471000	-0.262065
580.666000	-0.354607
580.861000	-0.380389
581.057000	-0.363862
581.252000	-0.234293
581.447000	-0.322040
581.642000	-0.295140
581.837000	-0.296266
582.032000	-0.233181
582.227000	-0.025054
582.422000	-0.070201
582.617000	-0.230344
582.812000	-0.346422
583.007000	-0.316335
583.202000	-0.411255
583.397000	-0.146618
583.592000	0.068876
583.788000	-0.172528
583.983000	-0.164973
584.178000	-0.089440
584.373000	-0.262806
584.568000	-0.291624
584.763000	-0.349230
584.958000	-0.410934
585.153000	-0.291908
585.348000	-0.284403
585.543000	-0.149406
585.738000	-0.186085
585.933000	-0.369911
586.128000	-0.156672
586.324000	-0.136452
586.519000	-0.142242
586.714000	-0.067199
586.909000	-0.037793
587.104000	-0.048287
587.299000	-0.150059
587.494000	-0.176404
587.689000	-0.212220
587.884000	-0.159496
588.079000	-0.246969
588.274000	-0.232573
588.469000	-0.205428
588.664000	-0.134461
588.859000	-0.124251
589.055000	-0.134810
589.250000	-0.188467
589.445000	-0.303462
589.640000	-0.279839
589.835000	-0.041269
590.030000	0.030494
590.225000	0.036480
590.420000	-0.198523
590.615000	-0.294604
590.810000	-0.256855
591.005000	-0.241373
591.200000	-0.342212
591.395000	-0.370724
591.591000	-0.217009
591.786000	-0.111863
591.981000	-0.220477
592.176000	-0.169688
592.371000	-0.169754
592.566000	-0.214825
592.761000	-0.002410
592.956000	-0.034099
593.151000	0.018719
593.346000	-0.143201
593.541000	-0.094663
593.736000	-0.113157
593.931000	-0.254334
594.126000	-0.216717
594.322000	-0.165039
594.517000	-0.245533
594.712000	-0.390046
594.907000	-0.389924
595.102000	-0.242266
595.297000	-0.109300
595.492000	-0.029984
595.687000	-0.229315
595.882000	-0.306112
596.077000	-0.189924
596.272000	-0.040865
596.467000	-0.005532
596.662000	-0.143984
596.857000	-0.135292
597.053000	-0.129332
597.248000	-0.075153
597.443000	-0.069059
597.638000	-0.153042
597.833000	-0.355159
598.028000	-0.140580
598.223000	-0.041355
598.418000	-0.152009
598.613000	-0.243867
598.808000	-0.128729
599.003000	-0.161631
599.198000	-0.357099
599.393000	-0.267978
599.589000	-0.159095
599.784000	-0.336274
599.979000	-0.236336
600.174000	-0.027639
600.369000	-0.236746
600.564000	-0.189831
600.759000	0.016389
600.954000	0.112330
601.149000	-0.008837
601.344000	-0.334259
601.539000	-0.181242
601.734000	-0.229968
601.929000	-0.430060
602.124000	-0.401894
602.320000	-0.166053
602.515000	0.116541
602.710000	0.038821
602.905000	-0.323889
603.100000	-0.359898
603.295000	-0.253951
603.490000	-0.168509
603.685000	-0.139809
603.880000	-0.108021
604.075000	-0.279707
604.270000	-0.259430
604.465000	-0.204691
604.660000	-0.410355
604.856000	-0.280106
605.051000	-0.087762
605.246000	-0.132659
605.441000	-0.360980
605.636000	-0.390022
605.831000	-0.224844
606.026000	-0.339057
606.221000	-0.400784
606.416000	-0.209203
606.611000	-0.015512
606.806000	-0.020341
607.001000	0.138044
607.196000	-0.072160
607.391000	-0.321772
607.587000	-0.111371
607.782000	-0.158662
607.977000	-0.354524
608.172000	-0.010737
608.367000	0.003904
608.562000	-0.177027
608.757000	-0.237264
608.952000	-0.329284
609.147000	0.132790
609.342000	0.036598
609.537000	-0.248147
609.732000	-0.217390
609.927000	-0.328221
610.122000	-0.296002
610.318000	-0.061687
610.513000	-0.027248
610.708000	-0.268834
610.903000	-0.254329
611.098000	-0.230143
611.293000	-0.309360
611.488000	-0.263223
611.683000	-0.255423
611.878000	-0.262112
612.073000	-0.225818
612.268000	-0.206204
612.463000	-0.087244
612.658000	-0.064024
612.854000	-0.110699
613.049000	-0.188905
613.244000	-0.052578
613.439000	0.013982
613.634000	-0.293012
613.829000	-0.149553
614.024000	-0.260330
614.219000	-0.312150
614.414000	0.029126
614.609000	-0.173677
614.804000	-0.385008
614.999000	-0.359527
615.194000	-0.281516
615.389000	-0.211217
615.585000	-0.371656
615.780000	-0.248877
615.975000	-0.273027
616.170000	-0.236028
616.365000	-0.016248
616.560000	0.081994
616.755000	0.034665
616.950000	-0.062219
617.145000	0.036413
617.340000	-0.118541
617.535000	-0.425104
617.730000	-0.193740
617.925000	-0.368295
618.120000	-0.388916
618.316000	-0.040415
618.511000	-0.133013
618.706000	-0.343339
618.901000	-0.250323
619.096000	-0.080422
619.291000	-0.216571
619.486000	-0.187851
619.681000	-0.503060
619.876000	-0.540912
620.071000	-0.390713
620.266000	-0.079166
620.461000	0.019827
620.656000	-0.128244
620.852000	-0.161147
621.047000	-0.257489
621.242000	-0.402813
621.437000	-0.097354
621.632000	0.018249
621.827000	-0.164390
622.022000	-0.443982
622.217000	-0.228407
622.412000	-0.062809
622.607000	-0.078764
622.802000	-0.297905
622.997000	-0.343271
623.192000	-0.201406
623.387000	-0.155343
623.583000	-0.406183
623.778000	-0.033140
623.973000	-0.022465
624.168000	-0.081494
624.363000	-0.051034
624.558000	0.006077
624.753000	-0.289778
624.948000	-0.096295
625.143000	-0.096364
625.338000	-0.166761
625.533000	-0.260486
625.728000	-0.152565
625.923000	0.011549
626.119000	-0.098756
626.314000	-0.345074
626.509000	-0.380639
626.704000	-0.281499
626.899000	-0.221603
627.094000	-0.305857
627.289000	-0.317535
627.484000	-0.259613
627.679000	-0.302052
627.874000	-0.273043
628.069000	0.050419
628.264000	-0.063611
628.459000	-0.174326
628.654000	-0.209529
628.850000	-0.365740
629.045000	-0.271645
629.240000	-0.283045
629.435000	-0.301986
629.630000	-0.172304
629.825000	-0.203931
630.020000	-0.169242
630.215000	-0.385722
630.410000	-0.336641
630.605000	-0.346296
630.800000	-0.265591
630.995000	-0.074442
631.190000	0.166536
631.385000	-0.052027
631.581000	-0.199399
631.776000	-0.120169
631.971000	-0.279785
632.166000	-0.221193
632.361000	-0.369507
632.556000	-0.261641
632.751000	-0.043112
632.946000	-0.230132
633.141000	-0.272941
633.336000	-0.190937
633.531000	-0.187679
633.726000	-0.197051
633.921000	-0.303505
634.117000	-0.464372
634.312000	-0.561439
634.507000	-0.465342
634.702000	-0.336359
634.897000	-0.319376
635.092000	-0.232674
635.287000	-0.112284
635.482000	-0.251346
635.677000	-0.149761
635.872000	0.006648
636.067000	0.053700
636.262000	-0.144807
636.457000	-0.428348
636.652000	-0.440762
636.848000	-0.425993
637.043000	-0.330990
637.238000	-0.331856
637.433000	-0.484687
637.628000	-0.373706
637.823000	-0.110332
638.018000	-0.060839
638.213000	-0.234336
638.408000	-0.310344
638.603000	-0.382695
638.798000	-0.421256
638.993000	-0.359938
639.188000	-0.334000
639.383000	-0.360368
639.579000	0.028863
639.774000	-0.182105
639.969000	-0.345058
640.164000	-0.374063
640.359000	-0.406748
640.554000	-0.166869
640.749000	-0.187587
640.944000	-0.127089
641.139000	-0.132908
641.334000	-0.301609
641.529000	-0.674379
641.724000	-0.538783
641.919000	-0.352192
642.115000	-0.064635
642.310000	-0.040033
642.505000	-0.195194
642.700000	-0.197593
642.895000	-0.343865
643.090000	-0.200183
643.285000	0.006975
643.480000	-0.056746
643.675000	-0.015639
643.870000	0.277096
644.065000	0.120639
644.260000	-0.267649
644.455000	-0.197801
644.650000	-0.308223
644.846000	-0.169257
645.041000	-0.395181
645.236000	-0.576963
645.431000	-0.482048
645.626000	-0.679370
645.821000	-0.454539
646.016000	-0.370367
646.211000	0.032176
646.406000	-0.112199
646.601000	-0.137183
646.796000	-0.260509
646.991000	-0.519845
647.186000	-0.365913
647.381000	-0.129180
647.577000	-0.162889
647.772000	-0.089426
647.967000	-0.108531
648.162000	-0.133877
648.357000	-0.207831
648.552000	-0.026548
648.747000	-0.032888
648.942000	-0.043457
649.137000	-0.068982
649.332000	-0.274592
649.527000	-0.314716
649.722000	-0.030910
649.917000	0.064550
650.113000	-0.215474
650.308000	-0.328342
650.503000	-0.300571
650.698000	-0.167324
650.893000	-0.252656
651.088000	-0.169685
651.283000	-0.080328
651.478000	-0.373013
651.673000	-0.127200
651.868000	-0.300673
652.063000	-0.054854
652.258000	0.078056
652.453000	0.236112
652.648000	-0.121217
652.844000	-0.183457
653.039000	-0.142978
653.234000	-0.551046
653.429000	-0.666050
653.624000	-0.431236
653.819000	-0.199502
654.014000	-0.231864
654.209000	-0.396674
654.404000	-0.247340
654.599000	-0.306393
654.794000	-0.318825
654.989000	-0.014299
655.184000	-0.072878
655.380000	-0.397905
655.575000	-0.393615
655.770000	-0.348676
655.965000	-0.294472
656.160000	-0.340256
656.355000	-0.177262
656.550000	-0.206134
656.745000	-0.129957
656.940000	-0.254452
657.135000	-0.180211
657.330000	-0.171554
657.525000	-0.350779
657.720000	-0.143533
657.915000	-0.077821
658.111000	-0.224367
658.306000	0.042458
658.501000	-0.168029
658.696000	-0.413545
658.891000	-0.102228
659.086000	-0.220600
659.281000	-0.201192
659.476000	-0.366443
659.671000	-0.768886
659.866000	-0.527192
660.061000	-0.214894
660.256000	-0.076217
660.451000	-0.118174
660.646000	-0.339095
660.842000	-0.215715
661.037000	-0.383835
661.232000	-0.435312
661.427000	-0.288945
661.622000	-0.373705
661.817000	-0.444514
662.012000	-0.203488
662.207000	-0.425928
662.402000	-0.469344
662.597000	-0.275644
662.792000	-0.634112
662.987000	-0.622460
663.182000	-0.302518
663.378000	-0.280433
663.573000	-0.648191
663.768000	-0.660248
663.963000	-0.482088
664.158000	-0.410160
664.353000	0.081650
664.548000	0.243070
664.743000	-0.095632
664.938000	-0.425585
665.133000	-0.385785
665.328000	0.009907
665.523000	-0.087078
665.718000	-0.276607
665.913000	-0.315435
666.109000	-0.264054
666.304000	-0.055691
666.499000	-0.250227
666.694000	-0.107999
666.889000	0.202816
667.084000	-0.167532
667.279000	-0.274352
667.474000	-0.263126
667.669000	-0.178864
667.864000	-0.231477
668.059000	-0.202166
668.254000	-0.204708
668.449000	-0.383346
668.644000	-0.353935
668.840000	-0.095113
669.035000	-0.347106
669.230000	-0.587215
669.425000	-0.187595
669.620000	-0.337002
669.815000	-0.386671
670.010000	-0.437023
670.205000	-0.275904
670.400000	-0.250082
670.595000	-0.181549
670.790000	-0.251180
670.985000	-0.246812
671.180000	-0.063973
671.376000	-0.379544
671.571000	-0.466414
671.766000	-0.409232
671.961000	-0.472335
672.156000	-0.482260
672.351000	-0.325940
672.546000	-0.385120
672.741000	-0.230194
672.936000	-0.134650
673.131000	0.371293
673.326000	-0.022565
673.521000	-0.448402
673.716000	-0.570724
673.911000	-0.677070
674.107000	-0.055664
674.302000	0.156722
674.497000	-0.126655
674.692000	-0.434149
674.887000	-0.525793
675.082000	-0.374504
675.277000	-0.063298
675.472000	-0.177753
675.667000	-0.392802
675.862000	-0.404940
676.057000	-0.302475
676.252000	-0.228892
676.447000	-0.337460
676.643000	-0.154922
676.838000	0.113889
677.033000	-0.172278
677.228000	0.123984
677.423000	0.034756
677.618000	-0.417715
677.813000	-0.577106
678.008000	-0.326606
678.203000	-0.217644
678.398000	-0.424887
678.593000	-0.225418
678.788000	-0.145556
678.983000	-0.425889
679.178000	-0.284557
679.374000	-0.341183
679.569000	-0.268440
679.764000	-0.355215
679.959000	-0.518586
680.154000	-0.531006
680.349000	-0.715733
680.544000	-0.616048
680.739000	-0.416348
680.934000	-0.518117
681.129000	-0.492300
681.324000	-0.559919
681.519000	-0.320180
681.714000	-0.417427
681.909000	-0.506472
682.105000	-0.630133
682.300000	-0.164280
682.495000	0.016019
682.690000	-0.081783
682.885000	-0.265129
683.080000	-0.432030
683.275000	-0.391944
683.470000	-0.064563
683.665000	0.114750
683.860000	0.398518
684.055000	0.158080
684.250000	-0.285532
684.445000	-0.340777
684.641000	0.044185
684.836000	-0.238082
685.031000	-0.292551
685.226000	-0.269940
685.421000	0.029223
685.616000	-0.242501
685.811000	-0.410107
686.006000	-0.153134
686.201000	-0.222803
686.396000	-0.530991
686.591000	-0.457011
686.786000	-0.045618
686.981000	-0.240036
687.176000	-0.204241
687.372000	-0.287716
687.567000	-0.006767
687.762000	-0.103346
687.957000	-0.158145
688.152000	-0.284012
688.347000	-0.239986
688.542000	-0.521611
688.737000	-0.867917
688.932000	-0.874651
689.127000	-0.457159
689.322000	-0.104580
689.517000	-0.318426
689.712000	-0.563323
689.908000	-0.492280
690.103000	-0.490577
690.298000	-0.341813
690.493000	-0.369357
690.688000	-0.625961
690.883000	-0.432666
691.078000	-0.031068
691.273000	-0.001607
691.468000	-0.302195
691.663000	-0.273711
691.858000	-0.114785
692.053000	-0.112085
692.248000	-0.050166
692.443000	-0.128377
692.639000	-0.252964
692.834000	-0.031428
693.029000	0.402212
693.224000	0.355104
693.419000	-0.238773
693.614000	-0.471350
693.809000	-0.529085
694.004000	-0.571154
694.199000	-0.579217
694.394000	-0.262576
694.589000	-0.543305
694.784000	-0.543857
694.979000	-0.293406
695.174000	-0.307946
695.370000	0.166384
695.565000	-0.087261
695.760000	-0.386375
695.955000	0.031629
696.150000	0.070493
696.345000	-0.352716
696.540000	-0.185877
696.740000	-0.297307
696.940000	-0.169142
697.140000	-0.052182
697.340000	-0.251809
697.539000	-0.097290
697.739000	-0.226726
697.939000	-0.201549
698.139000	-0.579351
698.339000	-0.909622
698.539000	-0.589672
698.739000	-0.628104
698.939000	-0.497050
699.138000	-0.577713
699.338000	0.117649
699.538000	0.197971
699.738000	-0.247759
699.938000	-0.348186
700.138000	-0.489318
700.338000	-0.671951
700.538000	-0.365071
700.737000	-0.310179
700.937000	-0.740384
701.137000	-0.678193
701.337000	-0.071181
701.537000	-0.048138
701.737000	-0.329013
701.937000	-0.448773
702.137000	-0.387834
702.337000	-0.455364
702.536000	-0.564103
702.736000	-0.579368
702.936000	-0.737988
703.136000	-0.262546
703.336000	-0.233191
703.536000	-0.357221
703.736000	-0.699884
703.936000	-0.671979
704.135000	-0.636386
704.335000	-0.249257
704.535000	-0.509919
704.735000	-0.696755
704.935000	-0.187689
705.135000	-0.277567
705.335000	-0.474869
705.535000	-0.254859
705.735000	-0.216116
705.934000	-0.236833
706.134000	-0.486921
706.334000	-0.529843
706.534000	-0.527617
706.734000	-0.486176
706.934000	-0.644610
707.134000	-0.731506
707.334000	-0.424373
707.533000	-0.323071
707.733000	-0.382844
707.933000	-0.545408
708.133000	-0.181782
708.333000	-0.164636
708.533000	-0.421716
708.733000	-0.086384
708.933000	-0.352494
709.132000	-0.531889
709.332000	-0.444799
709.532000	-0.543088
709.732000	-0.414768
709.932000	-0.808390
710.132000	-0.740965
710.332000	-0.950408
710.532000	-0.379176
710.732000	-0.157457
710.931000	-0.475164
711.131000	-0.501547
711.331000	-0.323986
711.531000	-0.481272
711.731000	-0.485564
711.931000	-0.436992
712.131000	-0.464210
712.331000	-0.251604
712.530000	-0.328290
712.730000	-0.576174
712.930000	-0.467946
713.130000	-0.398343
713.330000	-0.494978
713.530000	-0.319371
713.730000	0.350036
713.930000	-0.061019
714.129000	-0.455920
714.329000	-0.622741
714.529000	-0.391567
714.729000	-0.086222
714.929000	-0.236181
715.129000	-0.521336
715.329000	-0.446647
715.529000	-0.442187
715.729000	0.258661
715.928000	0.042169
716.128000	-0.341973
716.328000	-0.282981
716.528000	-0.295952
716.728000	-0.216957
716.928000	-0.460525
717.128000	-0.261843
717.328000	-0.252292
717.527000	-0.490599
717.727000	-0.475195
717.927000	-0.412991
718.127000	-0.397284
718.327000	-0.877143
718.527000	-0.860740
718.727000	-0.394977
718.927000	-0.462922
719.127000	-0.712283
719.326000	-0.574941
719.526000	-0.203972
719.726000	-0.300816
719.926000	-0.711623
720.126000	-0.653664
720.326000	-0.437431
720.526000	-0.531081
720.726000	-0.429126
720.925000	-0.173573
721.125000	-0.600006
721.325000	-0.346062
721.525000	-0.408731
721.725000	-0.555232
721.925000	-0.547005
722.125000	-0.566634
722.325000	-0.119450
722.524000	-0.339143
722.724000	-0.821379
722.924000	-0.909820
723.124000	-0.658273
723.324000	-0.264763
723.524000	-0.140064
723.724000	-0.627236
723.924000	-0.513892
724.124000	-0.381918
724.323000	-0.064838
724.523000	-0.200295
724.723000	0.127192
724.923000	-0.005301
725.123000	-0.088226
725.323000	-0.041866
725.523000	-0.281636
725.723000	-0.534082
725.922000	-0.534685
726.122000	-0.425296
726.322000	-0.583518
726.522000	-0.664377
726.722000	0.178433
726.922000	-0.135570
727.122000	-0.286827
727.322000	0.078509
727.521000	-0.150003
727.721000	-0.439894
727.921000	-0.423073
728.121000	-0.422967
728.321000	-0.690274
728.521000	-0.428213
728.721000	-0.239204
728.921000	-0.056224
729.121000	0.666296
729.320000	0.123626
729.520000	-0.294147
729.720000	-0.556603
729.920000	-0.501140
730.120000	-0.329381
730.320000	-0.285753
730.520000	-0.538913
730.720000	-0.496017
730.919000	-0.458199
731.119000	-0.211652
731.319000	-0.700694
731.519000	-0.790066
731.719000	-0.346433
731.919000	-0.505111
732.119000	-1.016729
732.319000	-1.012996
732.519000	-0.421210
732.718000	-0.761670
732.918000	-0.675539
733.118000	-0.513660
733.318000	-0.194049
733.518000	-0.420939
733.718000	-0.921343
733.918000	-0.886908
734.118000	-0.613907
734.317000	-0.444403
734.517000	-0.699684
734.717000	-0.498760
734.917000	-0.069193
735.117000	-0.182357
735.317000	-0.330703
735.517000	0.171470
735.717000	0.488215
735.916000	-0.432139
736.116000	-0.623501
736.316000	-0.455863
736.516000	-0.398577
736.716000	-0.466672
736.916000	-0.906294
737.116000	-0.672755
737.316000	-0.002163
737.516000	-0.049122
737.715000	-0.208177
737.915000	-0.728949
738.115000	-0.727636
738.315000	-0.412366
738.515000	-0.757068
738.715000	-0.531526
738.915000	0.041673
739.115000	-0.452566
739.314000	-0.525322
739.514000	-0.057273
739.714000	0.016195
739.914000	-0.164636
740.114000	-0.427525
740.314000	-0.172469
740.514000	0.312848
740.714000	-0.444827
740.913000	-0.892441
741.113000	-0.699849
741.313000	-0.405137
741.513000	-0.398796
741.713000	-0.373609
741.913000	-0.367837
742.113000	-0.480171
742.313000	-0.929959
742.513000	-0.549588
742.712000	-0.388532
742.912000	-0.733331
743.112000	-0.625590
743.312000	-0.904540
743.512000	-0.616598
743.712000	-0.457807
743.912000	-1.025979
744.112000	-1.176258
744.311000	-1.133275
744.511000	-0.672871
744.711000	-0.346160
744.911000	-0.675514
745.111000	-0.598878
745.311000	-0.176982
745.511000	-0.515355
745.711000	-0.714241
745.911000	-0.387967
746.110000	-0.848012
746.310000	-0.958859
746.510000	-0.659504
746.710000	-0.171330
746.910000	-0.132152
747.110000	-0.746914
747.310000	-1.091549
747.510000	-0.810490
747.709000	-0.517770
747.909000	-0.455503
748.109000	-0.134002
748.309000	-0.521916
748.509000	-0.794910
748.709000	-0.914360
748.909000	-0.729334
749.109000	-0.631676
749.308000	0.029880
749.508000	-0.314482
749.708000	-0.456476
749.908000	-0.148408
750.108000	-0.136648
750.308000	-0.920699
750.508000	-0.198849
750.708000	-0.690066
750.908000	-1.093531
751.107000	-0.356308
751.307000	0.301640
751.507000	-0.291362
751.707000	-0.303357
751.907000	-0.490035
752.107000	-0.359028
752.307000	-0.792851
752.507000	-0.678149
752.706000	-0.702695
752.906000	0.268978
753.106000	-0.513837
753.306000	-1.049325
753.506000	-0.154287
753.706000	-0.640343
753.906000	-0.315152
754.106000	-0.146363
754.305000	-0.286329
754.505000	-0.244612
754.705000	-0.438095
754.905000	-0.413086
755.105000	-0.250960
755.305000	-1.014675
755.505000	-0.824056
755.705000	-0.260961
755.905000	-0.408600
756.104000	-0.983909
756.304000	-1.328984
756.504000	-1.627083
756.704000	-0.552746
756.904000	-0.325524
757.104000	-0.582154
757.304000	-0.508563
757.504000	-0.090399
757.703000	-0.498416
757.903000	-0.196152
758.103000	0.098718
758.303000	-0.254560
758.503000	-0.481218
758.703000	-0.726621
758.903000	-0.900239
759.103000	-0.421511
759.303000	-0.387718
759.502000	-0.550626
759.702000	-0.132890
759.902000	-0.462977
760.102000	-0.654063
760.302000	-0.629034
760.502000	-0.165613
760.702000	-0.102411
760.902000	-0.411419
761.101000	-0.913553
761.301000	-1.120449
761.501000	-0.742034
761.701000	-0.871562
761.901000	-0.563535
762.101000	-0.200838
762.301000	-0.435768
762.501000	-0.892538
762.700000	-0.993909
762.900000	-0.873803
763.100000	-0.573304
763.300000	-0.361409
763.500000	-0.529597
763.703000	-0.736914
763.905000	-1.000901
764.108000	-0.175991
764.311000	-0.461571
764.513000	-0.612110
764.716000	-0.374588
764.919000	-0.445773
765.121000	-1.025769
765.324000	-1.151785
765.527000	-0.986808
765.729000	-0.801400
765.932000	-0.040945
766.135000	-0.107568
766.337000	-0.531449
766.540000	-0.652638
766.743000	-0.296496
766.945000	-0.800299
767.148000	-1.269126
767.351000	-1.033066
767.553000	-0.210672
767.756000	-0.622048
767.958000	-1.120151
768.161000	-0.670932
768.364000	-0.935767
768.566000	-1.239708
768.769000	-0.628274
768.972000	-0.335098
769.174000	-0.752592
769.377000	-1.280513
769.580000	-1.268470
769.782000	-0.553981
769.985000	-0.999956
770.188000	-1.902751
770.390000	-1.111700
770.593000	0.404202
770.796000	0.116282
770.998000	-0.445512
771.201000	-0.849155
771.404000	-0.496455
771.606000	-0.793677
771.809000	-0.673355
772.012000	-0.659615
772.214000	-1.442665
772.417000	-1.437804
772.620000	-0.398100
772.822000	-0.688465
773.025000	-1.006168
773.228000	-1.043400
773.430000	-0.852906
773.633000	-0.570696
773.836000	-0.480120
774.038000	-0.374952
774.241000	-0.573480
774.444000	-0.764264
774.646000	0.201121
774.849000	-0.263992
775.052000	-0.550401
775.254000	-0.377230
775.457000	-0.776304
775.659000	-0.731967
775.862000	-0.778348
776.065000	-0.558495
776.267000	-0.080363
776.470000	0.255622
776.673000	-0.417356
776.875000	0.100750
777.078000	-0.174218
777.281000	-0.976409
777.483000	-0.384289
777.686000	-0.092067
777.889000	-0.186427
778.091000	-0.087229
778.294000	-1.120816
778.497000	-1.027685
778.699000	-0.854985
778.902000	-0.857905
779.105000	-0.768263
779.307000	0.171204
779.510000	-0.659866
779.713000	-0.385976
779.915000	-0.749966
780.118000	0.253081
780.321000	0.376346
780.523000	-0.480098
780.726000	-1.043148
780.929000	-1.133867
781.131000	-1.017551
781.334000	-1.457658
781.537000	-1.380709
781.739000	-0.387125
781.942000	-0.950196
782.145000	-1.504461
782.347000	-1.440100
782.550000	-1.070693
782.753000	-1.167099
782.955000	-0.994950
783.158000	-0.868425
783.361000	-0.661984
783.563000	-0.667582
783.766000	-0.894986
783.968000	0.796030
784.171000	0.810758
784.374000	-0.463016
784.576000	-0.673277
784.779000	-0.301835
784.982000	0.118983
785.184000	-0.573547
785.387000	-0.109734
785.590000	0.505848
785.792000	0.372961
785.995000	0.007876
786.198000	-0.245671
786.400000	-0.603189
786.603000	-0.547992
786.806000	-0.738580
787.008000	-0.472734
787.211000	-0.440390
787.414000	-1.045518
787.616000	-0.769383
787.819000	-0.650875
788.022000	-1.426285
788.224000	-0.791412
788.427000	-1.419133
788.630000	-0.962114
788.832000	-0.632253
789.035000	-1.040175
789.238000	-1.646565
789.440000	-1.307013
789.643000	-0.206738
789.846000	-0.783880
790.048000	-0.318749
790.251000	-0.126129
790.454000	-0.562947
790.656000	0.037434
790.859000	-0.748074
791.062000	-1.001930
791.264000	-0.273455
791.467000	-1.193914
791.669000	-1.691390
791.872000	-0.727147
792.075000	-1.129153
792.277000	-0.898255
792.480000	-0.611226
792.683000	-1.072962
792.885000	-1.371343
793.088000	-1.197312
793.291000	-1.284077
793.493000	-1.268434
793.696000	-0.447364
793.899000	-0.274210
794.101000	-0.636485
794.304000	-0.861439
794.507000	-0.626770
794.709000	-0.325175
794.912000	-0.813772
795.115000	-1.187609
795.317000	-0.845619
795.520000	-0.598075
795.723000	-0.908113
795.925000	-1.359231
796.128000	-1.542095
796.331000	-1.022388
796.533000	-1.371378
796.736000	-0.700329
796.939000	-0.627191
797.141000	-0.941393
797.344000	-0.335371
797.547000	-0.210324
797.749000	-0.298387
797.952000	-1.043353
798.155000	-1.455995
798.357000	-1.648175
798.560000	-1.294945
798.763000	-0.518461
798.965000	-0.644924
799.168000	-0.659538
799.371000	-0.513714
799.573000	-0.931096
799.776000	-1.572937
799.978000	-1.584825
800.181000	-0.705715
800.384000	0.770006
800.586000	0.009050
800.789000	-1.347833
800.992000	-1.295265
801.194000	-1.505204
801.397000	-1.560998
801.600000	-1.423116
801.802000	-0.003912
802.005000	-0.330955
802.208000	-1.814300
802.410000	-0.764158
802.613000	-0.477896
802.816000	-0.906821
803.018000	-1.523763
803.221000	-1.334623
803.424000	0.082261
803.626000	-0.269755
803.829000	-0.783851
804.032000	0.296726
804.234000	0.944687
804.437000	-0.587774
804.640000	-0.848742
804.842000	-0.817087
805.045000	-1.185807
805.248000	-0.985060
805.450000	-0.957064
805.653000	-0.861104
805.856000	-0.962079
806.058000	0.057248
806.261000	-1.062947
806.464000	-1.139229
806.666000	-0.517780
806.869000	-0.886418
807.072000	-2.168252
807.274000	-2.445540
807.477000	-1.290422
807.679000	-0.827775
807.882000	-1.336087
808.085000	-1.163514
808.287000	-0.556467
808.490000	-1.573142
808.693000	-1.377996
808.895000	-1.112898
809.098000	-0.839641
809.301000	-0.764967
809.503000	-0.973444
809.706000	0.002845
809.909000	0.173530
810.111000	-0.032761
810.314000	-0.425431
810.517000	-0.964781
810.719000	-1.192023
810.922000	-0.888103
811.125000	-0.076000
811.327000	0.017306
811.530000	-0.489386
811.735000	-0.748874
811.940000	-1.069315
812.146000	-1.066539
812.351000	-0.389979
812.556000	-0.712391
812.761000	-1.329722
812.967000	-0.283859
813.172000	-0.327636
813.377000	-0.674987
813.582000	0.076961
813.788000	-0.451544
813.993000	-1.498397
814.198000	-0.562449
814.403000	-1.261090
814.609000	-0.580639
814.814000	-0.733581
815.019000	0.235577
815.224000	0.062988
815.429000	-1.061308
815.635000	-0.845050
815.840000	-0.755002
816.045000	-0.590915
816.250000	-0.286782
816.456000	-1.486785
816.661000	-2.514414
816.866000	-1.966108
817.071000	-1.688128
817.277000	-2.395332
817.482000	-1.508195
817.687000	-0.701724
817.892000	-0.916004
818.097000	-0.504739
818.303000	0.096884
818.508000	0.509986
818.713000	6.982847
818.918000	3.628612
819.124000	0.183703
819.329000	-1.084823
819.534000	-1.206666
819.739000	-1.285847
819.945000	-1.188623
820.150000	-0.891739
820.355000	-0.861449
820.560000	-0.459906
820.766000	-0.493104
820.971000	-0.568408
821.176000	-2.046720
821.381000	-2.708748
821.586000	-1.721128
821.792000	-0.061742
821.997000	-0.565953
822.202000	-0.908369
822.407000	-1.531603
822.613000	-1.739352
822.818000	-0.931826
823.023000	-0.670156
823.228000	-1.021645
823.434000	-0.120584
823.639000	0.235064
823.844000	-0.710370
824.049000	-0.254128
824.255000	-0.038326
824.460000	-0.724895
824.665000	-1.228840
824.870000	-0.206902
825.075000	-0.341905
825.281000	-0.190895
825.486000	0.776605
825.691000	-1.604913
825.896000	-2.878469
826.102000	-1.250728
826.307000	-0.834709
826.512000	-1.155451
826.717000	-1.029852
826.923000	-1.024158
827.128000	-0.697538
827.333000	-1.634045
827.538000	-0.582276
827.744000	0.056090
827.949000	-1.133678
828.154000	-0.848433
828.359000	-0.040381
828.564000	-0.464069
828.770000	-0.838069
828.975000	0.092343
829.180000	-0.674668
829.385000	-1.896558
829.591000	-1.375995
829.796000	-1.022748
830.001000	-1.160005
830.206000	-1.625153
830.412000	-1.279994
830.617000	-1.400883
830.822000	-0.269554
831.027000	-0.950424
831.232000	-1.632654
831.438000	-1.460066
831.643000	-0.778758
831.848000	-1.066727
832.053000	-1.117114
832.259000	-1.201967
832.464000	-2.758521
832.669000	-2.236448
832.874000	-1.915970
833.080000	-2.018041
833.285000	-0.277510
833.490000	-0.380908
833.695000	-1.714986
833.901000	-1.495339
834.106000	-1.687673
834.311000	-1.362203
834.516000	-0.560642
834.721000	-1.073730
834.927000	-0.208678
835.132000	-0.567244
835.337000	1.205978
835.542000	-0.278907
835.748000	-2.069255
835.953000	-0.220728
836.158000	-0.221270
836.363000	-0.438418
836.569000	-0.511160
836.774000	-1.176940
836.979000	-1.685091
837.184000	-2.316649
837.390000	-1.931736
837.595000	-1.336628
837.800000	-1.048895
838.005000	-0.611399
838.210000	-0.964936
838.416000	-1.485436
838.621000	-1.113518
838.826000	-1.204220
839.031000	-1.220609
839.237000	-1.887781
839.442000	-2.766170
839.647000	-2.844304
839.852000	-2.092339
840.058000	-1.913334
840.263000	-1.620678
840.468000	-2.445975
840.673000	-1.528627
840.878000	-1.269143
841.084000	-1.906662
841.289000	-1.216766
841.494000	1.456308
841.699000	1.280347
841.905000	0.452072
842.110000	0.583151
842.315000	-1.413715
842.520000	-0.854246
842.726000	-1.437186
842.931000	-2.059442
843.136000	-0.937566
843.341000	-2.318858
843.547000	-1.486865
843.752000	-1.150752
843.957000	-1.984166
844.162000	-2.048776
844.367000	-1.278851
844.573000	-0.595515
844.778000	-0.726914
844.983000	-0.684264
845.188000	-0.207672
845.394000	-2.012108
845.599000	-1.625065
845.804000	-1.348691
846.009000	-0.812991
846.215000	-1.957483
846.420000	-1.768319
846.625000	-0.856056
846.830000	-0.052596
847.036000	-1.385624
847.241000	-1.991483
847.446000	-0.133826
847.651000	-0.759995
847.856000	-1.935903
848.062000	-1.718872
848.267000	0.004691
848.472000	-1.336965
848.677000	-2.709721
848.883000	-1.055228
849.088000	0.421131
849.293000	-0.795422
849.498000	-1.331170
849.704000	-0.497597
849.909000	-1.122495
850.114000	-1.722173
850.319000	-0.896668
850.524000	-1.094971
850.730000	-0.785170
850.935000	-1.227637
851.140000	-0.411107
851.345000	-0.423282
851.551000	-0.228230
851.756000	-0.032075
851.961000	-1.392777
852.166000	-1.554383
852.372000	-1.223404
852.577000	-1.144855
852.782000	-1.556521
852.987000	0.042695
853.193000	-0.373038
853.398000	-0.637883
853.603000	-2.205992
853.808000	-2.826568
854.013000	-1.763212
854.219000	-0.313520
854.424000	1.348504
854.629000	1.005276
854.834000	-1.324360
855.040000	-1.176956
855.245000	-0.409134
855.450000	-2.834471
855.655000	-3.937397
855.861000	-3.688328
856.066000	-2.586744
856.271000	-2.814945
856.476000	-0.655909
856.682000	-1.441651
856.887000	-4.106283
857.092000	-2.652876
857.297000	-0.021351
857.502000	-0.475998
857.708000	-1.133367
857.913000	-0.276452
858.118000	-0.834293
858.323000	-1.325752
858.529000	-1.160951
858.734000	-1.436098
858.939000	-1.222100
859.144000	-1.883147
859.350000	-2.978420
859.555000	-2.671934
859.760000	-0.422441
859.965000	0.350552
860.171000	-1.782514
860.376000	-1.024422
860.581000	-2.618151
860.786000	-4.899520
860.991000	-4.020037
861.197000	-2.709338
861.402000	-1.151173
861.607000	-2.055366
861.812000	-2.985734
862.018000	-2.911797
862.223000	-1.591244
862.428000	-0.854814
862.633000	0.134881
862.839000	-0.773930
863.044000	-1.857820
863.249000	-2.723992
863.454000	-0.691848
863.659000	-1.452043
863.865000	-2.352988
864.070000	-2.285712
864.275000	-2.730963
864.480000	-2.181759
864.686000	-4.014668
864.891000	-3.765588
865.096000	-1.530452
865.301000	-0.845864
865.507000	-0.715547
865.712000	-0.550153
865.917000	-1.189072
866.122000	-0.600703
866.328000	-3.548381
866.533000	-3.241012
866.738000	0.174011
866.943000	-0.498658
867.148000	0.313798
867.354000	-2.303743
867.559000	-3.839649
867.764000	-1.894924
867.969000	-0.573240
868.175000	-2.225904
868.380000	-3.048249
868.585000	-3.710971
868.790000	-1.347234
868.996000	-1.720522
869.201000	-3.424643
869.406000	-4.683729
869.611000	-3.635985
869.817000	-2.594701
870.022000	2.040692
870.227000	-0.362895
870.432000	-2.494683
870.637000	-1.382853
870.843000	-2.333312
871.048000	-2.464492
871.253000	-0.270015
871.458000	-1.464826
871.664000	-3.448431
871.869000	-3.435707
872.074000	-2.848474
872.279000	-1.652514
872.485000	-2.464687
872.690000	-2.643082
872.895000	-2.603485
873.100000	-2.960624
873.306000	-2.922416
873.511000	-1.357156
873.716000	0.348576
873.921000	-1.833770
874.126000	-2.570681
874.332000	-1.596219
874.537000	-0.495439
874.742000	-0.821916
874.947000	-1.276252
875.153000	0.007001
875.358000	-1.449142
875.563000	-1.956106
875.768000	-4.217293
875.974000	-4.570424
876.179000	-0.931450
876.384000	-0.669063
876.589000	-2.829782
876.794000	-2.509437
877.000000	-3.177164
877.205000	-4.520732
877.410000	-1.744248
877.615000	-3.435730
877.821000	-5.393889
878.026000	-3.395127
878.231000	-3.812740
878.436000	-4.584427
878.642000	-3.735461
878.847000	-1.684331
879.052000	-0.580229
879.257000	-2.826354
879.463000	-3.924523
879.668000	-2.960983
879.873000	-0.327824
880.078000	-3.278802
880.283000	-4.866124
880.489000	-5.128438
880.694000	-4.058829
880.899000	-2.040930
881.104000	-1.001755
881.310000	1.188364
881.515000	-0.144570
881.720000	0.846626
881.925000	1.752658
882.131000	3.670457
882.336000	0.529490
882.541000	-3.653774
882.746000	-3.632652
882.952000	-3.804376
883.157000	-3.284606
883.362000	-3.466304
883.567000	-4.426901
883.772000	-4.388431
883.978000	-3.258084
884.183000	-1.968075
884.388000	-2.521054
884.593000	-4.315014
884.799000	0.688368
885.004000	0.515451
885.209000	-1.291211
885.414000	-0.922601
885.620000	-3.986098
885.825000	-1.223306
886.030000	-1.630617
886.235000	-2.980344
886.440000	-2.423249
886.646000	-4.975197
886.851000	-4.727785
887.056000	-0.580252
887.261000	-1.254013
887.467000	-4.301276
887.672000	-1.267696
887.877000	-2.321711
888.082000	-4.803063
888.288000	-5.513213
888.493000	-7.757389
888.698000	-6.030258
888.903000	-2.812377
889.109000	-3.607807
889.314000	-0.511360
889.519000	-1.955640
889.724000	0.203195
889.929000	-1.311488
890.135000	-2.443413
890.340000	-2.396062
890.545000	-3.531271
890.750000	-4.612176
890.956000	-3.309146
891.161000	-0.956642
891.366000	-3.511734
891.571000	-2.549558
891.777000	-2.066273
891.982000	-0.013310
892.187000	-1.060456
892.392000	-0.413394
892.598000	-0.169878
892.803000	-0.825329
893.008000	-3.753101
893.213000	-4.596976
893.418000	-3.860077
893.624000	-4.220543
893.829000	-6.383604
894.034000	-3.342236
894.239000	-1.800764
894.445000	-3.830904
894.650000	-4.194803
894.855000	-4.246037
895.060000	-4.261914
895.266000	-3.826954
895.471000	-5.332224
895.676000	-2.264710
895.881000	-1.605496
896.087000	-2.916668
896.292000	-4.042987
896.497000	0.411966
896.702000	-1.806329
896.907000	-3.887475
897.113000	0.530991
897.318000	0.388565
897.523000	-0.299318
897.728000	-2.875933
897.934000	-3.104365
898.139000	-2.683885
898.344000	-0.158793
898.549000	-1.224347
898.755000	-2.583009
898.960000	-3.013427
899.165000	-5.405142
899.370000	-1.949758
899.575000	1.556911
899.781000	-3.536392
899.986000	-4.029135
900.191000	-2.146405
900.396000	-3.538484
900.602000	-2.261650
900.807000	-2.730144
901.012000	-2.368377
901.217000	-0.979127
901.423000	-3.427837
901.628000	-4.631405
901.833000	-0.448624
902.038000	-0.143854
902.244000	-4.037337
902.449000	-3.391131
902.654000	-3.244592
902.859000	-1.808145
903.064000	0.036545
903.270000	-0.408681
903.475000	-4.865985
903.680000	-7.034859
903.885000	-5.348563
904.091000	-4.765769
904.296000	-5.983556
904.501000	-4.750207
904.706000	-4.389834
904.912000	-0.423109
905.117000	-2.304170
905.322000	-5.398076
905.527000	-4.689797
905.733000	-3.981836
905.938000	-3.869161
906.143000	-4.946091
906.348000	-6.705993
906.553000	-1.673085
906.759000	0.011222
906.964000	-1.623951
907.169000	-3.220834
907.374000	-5.872809
907.580000	-4.027064
907.785000	-3.633583
907.990000	24.412722
908.195000	16.674827
908.401000	-0.426927
908.606000	-8.367879
908.811000	-9.886961
909.016000	-2.041656
909.221000	-2.136401
909.427000	-3.421131
909.632000	-4.943890
909.837000	-4.828031
910.042000	-6.289194
910.248000	-7.865680
910.453000	-3.884798
910.658000	-4.773374
910.863000	-5.013560
911.069000	-6.692702
911.274000	-2.001487
911.479000	-0.392785
911.684000	-7.306812
911.890000	-4.034404
912.095000	-4.667586
912.300000	-7.484697
912.506000	-5.969387
912.711000	-6.171955
912.917000	-3.483243
913.123000	-2.780095
913.328000	-2.991079
913.534000	-3.083711
913.740000	6.053119
913.946000	2.619425
914.151000	-5.705442
914.357000	-6.726351
914.563000	-1.736812
914.768000	-5.544203
914.974000	-8.057922
915.180000	-6.879862
915.385000	-5.373201
915.591000	-9.066957
915.797000	-3.402619
916.002000	0.326534
916.208000	-3.790120
916.414000	-6.558717
916.620000	-7.098283
916.825000	-3.113908
917.031000	-3.890075
917.237000	-9.837648
917.442000	-6.017722
917.648000	-6.856343
917.854000	-7.894327
918.059000	-1.469553
918.265000	-0.853153
918.471000	-3.691496
918.676000	-7.329654
918.882000	-9.078374
919.088000	-7.317471
919.294000	-11.889226
919.499000	-7.913312
919.705000	-2.100549
919.911000	-3.649356
920.116000	-2.197794
920.322000	-8.146470
920.528000	-5.801611
920.733000	-8.460626
920.939000	-9.672182
921.145000	-8.593679
921.350000	-6.999564
921.556000	-4.659467
921.762000	-5.724011
921.968000	-7.099480
922.173000	-8.676261
922.379000	-10.622262
922.585000	-5.258522
922.790000	-6.496731
922.996000	-7.290408
923.202000	-7.963451
923.407000	-8.728021
923.613000	-6.592707
923.819000	-3.406578
924.024000	-4.687691
924.230000	-3.364646
924.436000	-5.427700
924.642000	5.874191
924.847000	1.975479
925.053000	-6.285362
925.259000	-10.124247
925.464000	-3.925423
925.670000	-5.892121
925.876000	-7.330960
926.081000	-7.236750
926.287000	-3.639565
926.493000	-2.614420
926.698000	-4.300984
926.904000	-2.421977
927.110000	-5.436670
927.316000	-5.505252
927.521000	2.093581
927.727000	-3.679070
927.933000	-6.562672
928.138000	-6.402526
928.344000	-12.017514
928.550000	-6.964773
928.755000	-1.577328
928.961000	-6.451318
929.167000	-7.219386
929.372000	-0.858448
929.578000	-1.801618
929.784000	-6.822872
929.990000	-9.145661
930.195000	-6.572735
930.401000	-5.715957
930.607000	-4.519228
930.812000	-4.512467
931.018000	-8.622539
931.224000	-14.439035
931.429000	-9.974825
931.635000	-12.031169
931.841000	-12.043965
932.046000	-7.661072
932.252000	-3.047288
932.458000	3.918274
932.664000	-1.327991
932.869000	-8.246476
933.075000	-10.642173
933.281000	-10.296995
933.486000	-2.940885
933.692000	-6.211560
933.898000	-10.849898
934.103000	-3.035832
934.309000	-6.164532
934.515000	-4.443717
934.720000	-2.158715
934.926000	0.796978
935.132000	-0.214286
935.338000	-4.067407
935.543000	-11.510625
935.749000	-12.234634
935.955000	-13.714348
936.160000	-11.932485
936.366000	-3.881316
936.572000	-4.793057
936.777000	-2.727509
936.983000	-1.025218
937.189000	-5.735901
937.394000	-10.646754
937.600000	-2.535791
937.806000	1.521687
938.012000	-6.941918
938.217000	3.573283
938.423000	0.728156
938.629000	-8.094908
938.834000	-15.910800
939.040000	-15.102339
939.246000	-9.313682
939.451000	-12.196386
939.657000	-7.613591
939.863000	-10.776940
940.068000	-5.689081
940.274000	-9.289027
940.480000	-4.345459
940.686000	-3.799417
940.891000	-8.728727
941.097000	17.054907
941.303000	5.173042
941.508000	-7.526491
941.714000	-4.527657
941.920000	-16.094986
942.125000	-6.157946
942.331000	-4.713613
942.537000	1.422826
942.742000	0.033041
942.948000	-10.293749
943.154000	-12.509067
943.360000	-24.897723
943.565000	-10.077618
943.771000	1.905403
943.977000	4.595788
944.182000	-13.797484
944.388000	-16.144353
944.594000	-2.626566
944.799000	4.456700
945.005000	-4.484384
945.211000	3.026962
945.416000	-1.094016
945.622000	-14.937271
945.828000	-12.458848
946.034000	-2.289274
946.239000	-0.953194
946.445000	-6.958969
946.651000	-19.791855
946.856000	-18.163787
947.062000	-3.510907
947.268000	-0.232130
947.473000	-14.934632
947.679000	-19.985982
947.885000	-3.673060
948.090000	-0.054615
948.296000	12.625837
948.502000	1.131275
948.708000	-9.718200
948.913000	-14.117217
949.119000	-1.545250
949.325000	-8.439064
949.530000	-21.214013
949.736000	-26.249732
949.942000	-16.524578
950.147000	-17.110826
950.353000	-16.595941
950.559000	-10.226646
950.764000	11.516676
950.970000	5.393553
951.176000	-9.277337
951.382000	-16.171380
951.587000	-6.703924
951.793000	0.629573
951.999000	-0.543045
952.204000	-13.375905
952.410000	-24.805389
952.616000	-12.575758
952.821000	-5.582425
953.027000	-14.329827
953.233000	-19.825388
953.438000	-18.276000
953.644000	0.437802
953.850000	-4.739389
954.056000	-11.128630
954.261000	-12.007757
954.467000	-1.278687
954.673000	4.496422
954.878000	-6.462952
955.084000	-7.081403
955.290000	-21.922361
955.495000	-23.113421
955.701000	-18.147106
955.907000	0.041621
956.112000	-3.600544
956.318000	5.198086
956.524000	5.779593
956.730000	-10.342253
956.935000	-14.731278
957.141000	-17.375854
957.347000	-4.777482
957.552000	-9.159750
957.758000	-24.050151
957.964000	-34.029589
958.169000	-0.282600
958.375000	0.697785
958.581000	-14.089598
958.786000	-26.430426
958.992000	-32.374720
959.198000	-10.371893
959.404000	-4.977800
959.609000	-13.213458
959.815000	-16.178485
960.021000	3.000424
960.226000	-5.343090
960.432000	-31.273463
960.638000	-21.381157
960.843000	-13.318984
961.049000	-12.172227
961.255000	-2.187094
961.460000	-15.467253
961.666000	-36.001539
961.872000	-22.751424
962.078000	-19.337668
962.283000	-29.454852
962.489000	-29.360781
962.695000	-19.582584
962.900000	-16.993802
963.106000	-14.593639
963.312000	-17.400870
963.517000	-23.796645
963.723000	-29.031568
963.929000	-4.878891
964.134000	3.961071
964.340000	-16.786877
964.546000	-17.455595
964.752000	-24.789008
964.957000	-28.265032
965.163000	-4.682527
965.369000	-10.607349
965.574000	-6.677890
965.780000	-10.186892
966.000000	-18.826043
966.220000	-14.597416
966.440000	-14.538276
966.661000	-5.021753
966.881000	-23.892236
967.101000	-41.239057
967.321000	-37.856233
967.541000	-13.748537
967.761000	-22.935010
967.981000	-14.321049
968.202000	-13.071855
968.422000	-2.839263
968.642000	-4.274675
968.862000	-5.543479
969.082000	-15.386167
969.302000	-9.906432
969.522000	-13.354166
969.743000	2.847394
969.963000	-13.890848
970.183000	-27.633937
970.403000	-25.355763
970.623000	-23.894069
970.843000	0.216963
971.063000	-0.881247
971.284000	-23.051613
971.504000	-35.170783
971.724000	-14.892662
971.944000	-31.880652
972.164000	-39.124026
972.384000	-25.992454
972.604000	-43.437224
972.825000	-48.279048
973.045000	-33.665174
973.265000	21.444632
973.485000	10.104302
973.705000	-11.221525
973.925000	-17.816244
974.145000	-51.995573
974.365000	-17.180152
974.586000	-21.037539
974.806000	-39.214913
975.026000	-8.908440
975.246000	-21.499296
975.466000	-32.609067
975.686000	-16.374166
975.906000	-25.158161
976.127000	-47.919630
976.347000	-41.152551
976.567000	-6.274494
976.787000	-4.795322
977.007000	-15.763679
977.227000	-24.683696
977.447000	-34.679902
977.668000	-54.263228
977.888000	-38.645398
978.108000	-38.372406
978.328000	-21.902929
978.548000	7.826774
978.768000	8.579724
978.988000	-4.566155
979.209000	-19.907259
979.429000	-23.196519
979.649000	-8.193304
979.869000	-31.024452
980.089000	-46.844990
980.309000	-51.929264
980.529000	-58.136400
980.750000	-39.034681
980.970000	-51.277591
981.190000	-35.988831
981.410000	-36.492545
981.630000	-44.625662
981.850000	-24.799502
982.070000	-18.479439
982.291000	-57.335166
982.511000	-56.615324
982.731000	-16.856764
982.951000	-33.744666
983.171000	-33.612662
983.391000	-23.425341
983.611000	3.292680
983.832000	-29.274334
984.052000	-56.402549
984.272000	-36.077508
984.492000	-24.364631
984.712000	-31.418166
984.932000	-56.462467
985.152000	-69.282743
985.373000	-54.438657
985.593000	-22.722181
985.813000	-32.655271
986.033000	-42.156574
986.253000	3.191005
986.473000	5.429844
986.693000	-31.681571
986.914000	-43.484503
987.134000	2.696104
987.354000	-29.938055
987.574000	182.767083
987.794000	104.125552
988.014000	-51.461445
988.234000	-34.849068
988.455000	-16.297823
988.675000	-15.445226
988.895000	-17.917513
989.115000	-41.299889
989.335000	-24.616296
989.555000	-4.623082
989.775000	-48.097771
989.995000	-40.394152
990.216000	-35.573948
990.436000	-32.304462
990.656000	8.027082
990.876000	-29.759460
991.096000	-22.457331
991.316000	-1.899243
991.536000	-28.049233
991.757000	-37.975008
991.977000	-77.619639
992.197000	-17.610803
992.417000	-35.390928
992.637000	-84.121927
992.857000	-90.931903
993.077000	-83.930007
993.298000	-49.599969
993.518000	-50.413590
993.738000	-95.626386
993.958000	-39.714184
994.178000	-49.009192
994.398000	-47.176411
994.618000	-85.566925
994.839000	-126.841065
995.059000	-34.208697
995.279000	27.282787
995.499000	-17.592416
995.719000	-10.270151
995.939000	-35.394694
996.159000	-37.799836
996.380000	-18.880394
996.600000	-72.736617
996.820000	-43.693259
997.040000	0.182151
997.260000	-62.403588
997.480000	-43.421240
997.700000	-117.048433
997.921000	-82.754197
998.141000	16.726895
998.361000	-10.952491
998.581000	-61.984061
998.801000	-102.877537
999.021000	-79.018424
999.241000	-49.425876
999.462000	-60.472144
999.682000	-110.576529
999.902000	-78.877117
1000.122000	-89.564489
1000.342000	-138.999622
1000.562000	-74.936492
1000.782000	-84.654257
1001.003000	-1070.775831
