Wavelength	Irradiance
(nm)	(mW/cm2/nm)

294.396000	0.000000
294.577000	0.000000
294.757000	0.000000
294.938000	-0.000000
295.118000	-0.000000
295.299000	0.000000
295.479000	-0.000000
295.660000	-0.000000
295.840000	-0.000000
296.021000	-0.000000
296.202000	-0.000000
296.382000	-0.000000
296.563000	-0.000000
296.743000	-0.000000
296.924000	0.000000
297.104000	-0.000000
297.285000	-0.000000
297.465000	-0.000000
297.646000	-0.000000
297.826000	-0.000000
298.007000	0.000000
298.187000	-0.000000
298.368000	-0.000000
298.548000	0.000000
298.729000	0.000000
298.909000	-0.000000
299.090000	-0.000000
299.270000	-0.000000
299.451000	-0.000000
299.631000	-0.000000
299.812000	-0.000000
299.992000	0.000000
300.173000	0.000000
300.353000	-0.000000
300.534000	0.000000
300.714000	0.000000
300.895000	0.000000
301.075000	-0.000000
301.256000	0.000000
301.436000	-0.000000
301.617000	-0.000000
301.797000	-0.000000
301.978000	-0.000000
302.159000	0.000000
302.339000	0.000000
302.520000	-0.000000
302.700000	-0.000000
302.881000	0.000000
303.061000	0.000000
303.242000	0.000000
303.422000	0.000000
303.603000	-0.000000
303.783000	-0.000000
303.964000	0.000000
304.144000	-0.000000
304.325000	-0.000000
304.505000	-0.000000
304.686000	-0.000000
304.866000	0.000000
305.047000	-0.000000
305.227000	-0.000000
305.408000	-0.000000
305.588000	-0.000000
305.769000	-0.000000
305.949000	-0.000000
306.130000	-0.000000
306.310000	-0.000000
306.491000	-0.000000
306.671000	0.000000
306.852000	-0.000000
307.032000	-0.000000
307.213000	-0.000000
307.393000	-0.000000
307.574000	0.000000
307.755000	0.000000
307.935000	0.000000
308.116000	-0.000000
308.296000	-0.000000
308.477000	-0.000000
308.657000	0.000000
308.838000	0.000000
309.018000	0.000000
309.199000	-0.000000
309.379000	-0.000000
309.560000	0.000000
309.740000	-0.000000
309.921000	0.000000
310.101000	0.000000
310.282000	-0.000000
310.462000	-0.000000
310.643000	-0.000000
310.823000	-0.000000
311.004000	-0.000000
311.184000	-0.000000
311.365000	0.000000
311.545000	0.000000
311.726000	-0.000000
311.906000	-0.000000
312.087000	0.000000
312.267000	-0.000000
312.448000	-0.000000
312.628000	-0.000000
312.809000	-0.000000
312.989000	-0.000000
313.170000	-0.000000
313.344000	-0.000000
313.518000	-0.000000
313.691000	-0.000000
313.865000	-0.000000
314.039000	-0.000000
314.213000	-0.000000
314.387000	-0.000000
314.560000	-0.000000
314.734000	-0.000000
314.908000	-0.000000
315.082000	-0.000000
315.255000	0.000000
315.429000	0.000000
315.603000	0.000000
315.777000	-0.000000
315.951000	0.000000
316.124000	-0.000000
316.298000	-0.000000
316.472000	-0.000000
316.646000	-0.000000
316.820000	-0.000000
316.993000	0.000000
317.167000	-0.000000
317.341000	-0.000000
317.515000	-0.000000
317.688000	-0.000000
317.862000	-0.000000
318.036000	-0.000000
318.210000	-0.000000
318.384000	-0.000000
318.557000	-0.000000
318.731000	-0.000000
318.905000	-0.000000
319.079000	-0.000000
319.253000	-0.000000
319.426000	0.000000
319.600000	0.000000
319.774000	-0.000000
319.948000	-0.000000
320.122000	0.000000
320.295000	-0.000000
320.469000	-0.000000
320.643000	-0.000000
320.817000	-0.000000
320.990000	-0.000000
321.164000	-0.000000
321.338000	-0.000000
321.512000	-0.000000
321.686000	-0.000000
321.859000	-0.000000
322.033000	-0.000000
322.207000	-0.000000
322.381000	-0.000000
322.555000	0.000000
322.728000	0.000000
322.902000	-0.000000
323.076000	-0.000000
323.250000	-0.000000
323.423000	-0.000000
323.597000	-0.000000
323.771000	-0.000000
323.945000	-0.000000
324.119000	-0.000000
324.292000	0.000000
324.466000	-0.000000
324.640000	0.000000
324.814000	0.000000
324.988000	-0.000000
325.161000	-0.000000
325.335000	-0.000000
325.509000	-0.000000
325.683000	-0.000000
325.856000	-0.000000
326.030000	-0.000000
326.204000	-0.000000
326.378000	-0.000000
326.552000	-0.000000
326.725000	-0.000000
326.899000	-0.000000
327.073000	-0.000000
327.247000	-0.000000
327.421000	0.000000
327.594000	0.000000
327.768000	-0.000000
327.942000	-0.000000
328.116000	0.000000
328.289000	0.000000
328.463000	-0.000000
328.637000	0.000000
328.811000	-0.000000
328.985000	-0.000000
329.158000	-0.000000
329.332000	-0.000000
329.506000	0.000000
329.680000	-0.000000
329.854000	-0.000000
330.027000	-0.000000
330.201000	0.000000
330.375000	0.000000
330.549000	0.000000
330.723000	-0.000000
330.896000	-0.000000
331.070000	-0.000000
331.244000	-0.000000
331.418000	-0.000000
331.591000	-0.000000
331.765000	-0.000000
331.939000	-0.000000
332.113000	-0.000000
332.287000	-0.000000
332.460000	0.000000
332.634000	0.000000
332.808000	-0.000000
332.982000	-0.000000
333.156000	-0.000000
333.329000	-0.000000
333.503000	-0.000000
333.677000	-0.000000
333.851000	-0.000000
334.024000	-0.000000
334.198000	-0.000000
334.372000	-0.000000
334.546000	-0.000000
334.720000	-0.000000
334.893000	-0.000000
335.067000	-0.000000
335.241000	0.000000
335.415000	-0.000000
335.589000	-0.000000
335.762000	-0.000000
335.936000	-0.000000
336.110000	-0.000000
336.284000	-0.000000
336.458000	-0.000000
336.631000	-0.000000
336.805000	-0.000000
336.979000	-0.000000
337.153000	-0.000000
337.326000	-0.000000
337.500000	-0.000000
337.674000	-0.000000
337.848000	-0.000000
338.022000	-0.000000
338.195000	-0.000000
338.369000	-0.000000
338.543000	-0.000000
338.717000	-0.000000
338.891000	0.000000
339.064000	0.000000
339.238000	-0.000000
339.412000	-0.000000
339.586000	-0.000000
339.759000	-0.000000
339.933000	-0.000000
340.107000	0.000000
340.281000	-0.000000
340.455000	-0.000000
340.628000	-0.000000
340.802000	-0.000000
340.976000	-0.000000
341.150000	-0.000000
341.324000	-0.000000
341.497000	-0.000000
341.671000	-0.000000
341.845000	-0.000000
342.019000	-0.000000
342.192000	-0.000000
342.366000	-0.000000
342.540000	-0.000000
342.714000	-0.000000
342.888000	-0.000000
343.061000	-0.000000
343.235000	-0.000000
343.409000	-0.000000
343.583000	-0.000000
343.757000	-0.000000
343.930000	-0.000000
344.104000	-0.000000
344.278000	0.000000
344.452000	0.000000
344.626000	-0.000000
344.799000	-0.000000
344.973000	-0.000000
345.147000	-0.000000
345.321000	-0.000000
345.494000	-0.000000
345.668000	0.000000
345.842000	0.000000
346.016000	-0.000000
346.190000	0.000000
346.363000	0.000000
346.537000	-0.000000
346.711000	-0.000000
346.885000	-0.000000
347.059000	-0.000000
347.232000	0.000000
347.406000	0.000000
347.580000	-0.000000
347.754000	-0.000000
347.927000	0.000000
348.101000	0.000000
348.275000	-0.000000
348.449000	-0.000000
348.623000	-0.000000
348.796000	0.000000
348.970000	0.000000
349.144000	-0.000000
349.318000	-0.000000
349.492000	-0.000000
349.665000	-0.000000
349.839000	-0.000000
350.013000	-0.000000
350.187000	-0.000000
350.361000	-0.000000
350.534000	-0.000000
350.708000	-0.000000
350.882000	-0.000000
351.056000	0.000000
351.229000	-0.000000
351.403000	-0.000000
351.577000	-0.000000
351.751000	-0.000000
351.925000	-0.000000
352.098000	-0.000000
352.272000	-0.000000
352.446000	-0.000000
352.620000	-0.000000
352.794000	-0.000000
352.967000	-0.000000
353.141000	0.000000
353.315000	0.000000
353.489000	-0.000000
353.662000	-0.000000
353.836000	-0.000000
354.010000	-0.000000
354.184000	-0.000000
354.358000	-0.000000
354.531000	-0.000000
354.705000	-0.000000
354.879000	-0.000000
355.053000	-0.000000
355.227000	0.000000
355.400000	-0.000000
355.574000	0.000000
355.748000	0.000000
355.922000	-0.000000
356.095000	-0.000000
356.269000	-0.000000
356.443000	-0.000000
356.617000	-0.000000
356.791000	-0.000000
356.964000	-0.000000
357.138000	-0.000000
357.312000	-0.000000
357.486000	-0.000000
357.660000	-0.000000
357.833000	-0.000000
358.007000	-0.000000
358.181000	-0.000000
358.355000	-0.000000
358.529000	-0.000000
358.702000	-0.000000
358.876000	-0.000000
359.050000	-0.000000
359.224000	-0.000000
359.397000	0.000000
359.571000	-0.000000
359.745000	-0.000000
359.919000	-0.000000
360.093000	-0.090513
360.266000	-0.032036
360.440000	0.073185
360.614000	0.123982
360.788000	-0.007744
360.962000	-0.261049
361.135000	-0.113408
361.309000	-0.189559
361.483000	-0.328164
361.657000	-0.266687
361.830000	-0.263551
362.004000	-0.082281
362.178000	-0.324705
362.352000	-0.254577
362.526000	-0.100870
362.699000	-0.118095
362.873000	-0.407924
363.047000	-0.406561
363.221000	-0.360607
363.395000	-0.192471
363.568000	-0.198288
363.742000	-0.229838
363.916000	-0.258204
364.090000	-0.339777
364.263000	-0.288260
364.437000	-0.381368
364.611000	-0.070420
364.785000	-0.064810
364.959000	-0.252254
365.132000	-0.284629
365.306000	-0.317254
365.480000	-0.117326
365.656000	-0.183847
365.831000	-0.208156
366.007000	-0.187033
366.183000	-0.155974
366.358000	-0.295407
366.534000	-0.221164
366.710000	-0.388742
366.886000	-0.298168
367.061000	-0.113011
367.237000	0.025467
367.413000	-0.141671
367.588000	-0.370219
367.764000	-0.349731
367.940000	-0.353056
368.115000	-0.286692
368.291000	-0.360555
368.467000	-0.233990
368.643000	0.093954
368.818000	-0.298632
368.994000	-0.370295
369.170000	-0.258482
369.345000	-0.209924
369.521000	-0.257180
369.697000	-0.136513
369.872000	-0.263847
370.048000	-0.346069
370.224000	-0.234652
370.399000	-0.490227
370.575000	-0.425060
370.751000	-0.481136
370.927000	-0.413479
371.102000	-0.387665
371.278000	-0.367552
371.454000	-0.252525
371.629000	-0.007584
371.805000	-0.081536
371.981000	0.058045
372.156000	0.213517
372.332000	0.010290
372.508000	-0.094234
372.683000	-0.124181
372.859000	-0.170248
373.035000	-0.168422
373.211000	0.237917
373.386000	0.017920
373.562000	-0.401176
373.738000	-0.495159
373.913000	-0.616643
374.089000	-0.458381
374.265000	-0.056938
374.440000	-0.048238
374.616000	-0.004042
374.792000	-0.209466
374.968000	0.180416
375.143000	-0.095853
375.319000	-0.294314
375.495000	-0.342545
375.670000	-0.206825
375.846000	-0.147027
376.022000	-0.307740
376.197000	-0.221738
376.373000	-0.396485
376.549000	-0.432467
376.724000	-0.474266
376.900000	-0.341142
377.076000	-0.199819
377.252000	0.072975
377.427000	0.163036
377.603000	-0.236890
377.779000	-0.285014
377.954000	-0.431358
378.130000	-0.239813
378.306000	-0.196254
378.481000	-0.200721
378.657000	-0.238169
378.833000	-0.283158
379.009000	-0.166760
379.184000	-0.056745
379.360000	-0.112146
379.536000	-0.098986
379.711000	-0.166882
379.887000	-0.284399
380.063000	-0.337237
380.238000	-0.353673
380.414000	-0.087740
380.590000	-0.319771
380.765000	-0.361004
380.941000	-0.129081
381.117000	-0.104058
381.293000	-0.131407
381.468000	-0.290240
381.644000	-0.259955
381.820000	-0.164909
381.995000	-0.068569
382.171000	0.164851
382.347000	0.136566
382.522000	-0.319774
382.698000	-0.007294
382.874000	0.072486
383.050000	-0.326778
383.225000	0.006623
383.401000	0.223461
383.577000	-0.139467
383.752000	-0.281842
383.928000	-0.188162
384.104000	-0.106330
384.279000	-0.246062
384.455000	-0.142917
384.631000	-0.184412
384.806000	-0.387414
384.982000	-0.124348
385.158000	-0.227913
385.334000	-0.079028
385.509000	-0.151501
385.685000	-0.502834
385.861000	-0.307454
386.036000	-0.423679
386.212000	-0.565948
386.388000	-0.360385
386.563000	-0.272841
386.739000	-0.329081
386.915000	-0.542972
387.090000	-0.277495
387.266000	-0.090105
387.442000	-0.045183
387.618000	-0.138925
387.793000	-0.390333
387.969000	-0.502240
388.145000	-0.406213
388.320000	-0.391252
388.496000	-0.366622
388.672000	-0.567302
388.847000	-0.146770
389.023000	-0.128865
389.199000	-0.403427
389.375000	-0.209195
389.550000	-0.349160
389.726000	-0.230097
389.902000	-0.418527
390.077000	-0.219156
390.253000	-0.154972
390.429000	-0.275528
390.604000	-0.166685
390.780000	-0.138833
390.956000	-0.268481
391.131000	-0.334876
391.307000	-0.052225
391.483000	-0.216183
391.659000	-0.327687
391.834000	-0.140742
392.010000	-0.332515
392.186000	-0.342889
392.361000	-0.266597
392.537000	-0.408322
392.713000	0.072109
392.888000	0.225552
393.064000	-0.088029
393.240000	-0.277614
393.416000	-0.328398
393.591000	-0.428250
393.767000	-0.490935
393.943000	-0.360388
394.118000	-0.063800
394.294000	0.103769
394.470000	-0.074950
394.645000	-0.001941
394.821000	0.235520
394.997000	-0.085992
395.172000	-0.133774
395.348000	-0.224255
395.524000	-0.512277
395.700000	-0.376607
395.875000	-0.126408
396.051000	-0.154934
396.227000	-0.246018
396.402000	-0.290912
396.578000	-0.183892
396.754000	-0.320625
396.929000	-0.309627
397.105000	-0.035342
397.281000	-0.132411
397.457000	-0.228823
397.632000	-0.229553
397.808000	-0.499636
397.984000	-0.616778
398.159000	-0.484510
398.335000	-0.350384
398.511000	0.121428
398.686000	-0.079288
398.862000	-0.359562
399.038000	-0.444695
399.213000	-0.199654
399.389000	-0.492898
399.565000	-0.206805
399.741000	-0.005000
399.916000	-0.055534
400.092000	0.184942
400.268000	-0.199614
400.443000	-0.315438
400.619000	0.067310
400.795000	-0.052405
400.970000	-0.266656
401.146000	-0.295845
401.322000	-0.011334
401.497000	0.369358
401.673000	0.047119
401.849000	-0.279257
402.025000	-0.067793
402.200000	-0.161508
402.376000	-0.303790
402.552000	0.092362
402.727000	-0.067540
402.903000	-0.379426
403.079000	-0.303183
403.254000	-0.044064
403.430000	0.002794
403.606000	-0.109138
403.782000	-0.237877
403.957000	-0.426965
404.133000	-0.548278
404.309000	-0.356147
404.484000	-0.115389
404.660000	-0.121949
404.841000	-0.231252
405.023000	-0.004966
405.204000	-0.070352
405.385000	-0.378701
405.566000	-0.394120
405.748000	-0.292854
405.929000	-0.028768
406.110000	-0.051871
406.292000	-0.230779
406.473000	-0.172426
406.654000	-0.325400
406.835000	-0.168530
407.017000	-0.239272
407.198000	-0.231999
407.379000	-0.199226
407.560000	-0.265852
407.742000	-0.284930
407.923000	-0.188519
408.104000	-0.345524
408.286000	-0.194968
408.467000	-0.159040
408.648000	-0.416143
408.829000	-0.491700
409.011000	-0.293352
409.192000	-0.464814
409.373000	-0.249258
409.555000	-0.117846
409.736000	-0.126273
409.917000	-0.257801
410.098000	-0.253032
410.280000	-0.158444
410.461000	-0.161199
410.642000	-0.166059
410.823000	0.058981
411.005000	-0.018569
411.186000	-0.231813
411.367000	-0.318903
411.549000	-0.317150
411.730000	-0.056651
411.911000	0.040744
412.092000	-0.183710
412.274000	-0.239491
412.455000	-0.166122
412.636000	-0.124026
412.818000	-0.312891
412.999000	-0.406305
413.180000	-0.284119
413.361000	-0.282163
413.543000	-0.327131
413.724000	-0.392091
413.905000	-0.404067
414.087000	-0.395920
414.268000	-0.398991
414.449000	-0.407162
414.630000	-0.453465
414.812000	-0.549243
414.993000	-0.175806
415.174000	-0.088830
415.355000	-0.292783
415.537000	-0.491034
415.718000	-0.232601
415.899000	-0.330749
416.081000	-0.414600
416.262000	-0.192359
416.443000	-0.329350
416.624000	-0.324211
416.806000	-0.222502
416.987000	-0.086959
417.168000	-0.143383
417.350000	-0.318522
417.531000	-0.381902
417.712000	-0.368814
417.893000	-0.127920
418.075000	-0.034967
418.256000	-0.313296
418.437000	-0.222897
418.618000	-0.123514
418.800000	-0.045160
418.981000	-0.246568
419.162000	-0.187743
419.344000	0.032840
419.525000	-0.103107
419.706000	-0.210503
419.887000	-0.084206
420.069000	0.093656
420.250000	-0.024853
420.431000	-0.093981
420.613000	-0.149459
420.794000	-0.377547
420.975000	0.006893
421.156000	-0.201714
421.338000	-0.261929
421.519000	-0.247503
421.700000	-0.321756
421.882000	-0.314493
422.063000	-0.142627
422.244000	0.344465
422.425000	0.110282
422.607000	-0.273077
422.788000	-0.328137
422.969000	-0.370330
423.150000	-0.419581
423.332000	-0.462758
423.513000	-0.238724
423.694000	-0.203880
423.876000	-0.171592
424.057000	-0.103951
424.238000	-0.069657
424.419000	-0.059714
424.601000	-0.184337
424.782000	-0.178360
424.963000	-0.037616
425.145000	-0.129855
425.326000	-0.109229
425.507000	-0.053246
425.688000	-0.165729
425.870000	-0.338267
426.051000	-0.423456
426.232000	-0.366047
426.413000	-0.335016
426.595000	-0.344743
426.776000	-0.391925
426.957000	-0.334545
427.139000	-0.232703
427.320000	-0.186179
427.501000	-0.078407
427.682000	-0.082343
427.864000	-0.079419
428.045000	0.081959
428.226000	-0.007530
428.408000	-0.322909
428.589000	-0.174598
428.770000	-0.169890
428.951000	-0.297305
429.133000	-0.426602
429.314000	-0.241716
429.495000	-0.248033
429.677000	-0.226049
429.858000	-0.239168
430.039000	-0.203646
430.220000	-0.114875
430.402000	-0.043122
430.583000	-0.290825
430.764000	-0.266858
430.945000	-0.133118
431.127000	-0.061262
431.308000	-0.227550
431.489000	-0.044286
431.671000	0.039622
431.852000	-0.100798
432.033000	-0.222573
432.214000	-0.150070
432.396000	-0.111621
432.577000	-0.272888
432.758000	-0.419482
432.940000	-0.339811
433.121000	-0.234874
433.302000	-0.165079
433.483000	-0.018556
433.665000	0.067230
433.846000	-0.017156
434.027000	-0.165173
434.208000	-0.287767
434.390000	-0.357464
434.571000	-0.022701
434.752000	0.339119
434.934000	0.151892
435.115000	0.046874
435.296000	0.091223
435.477000	-0.117772
435.659000	-0.317593
435.840000	-0.177254
436.026000	-0.158947
436.211000	-0.296777
436.397000	-0.532502
436.582000	-0.385509
436.768000	-0.175730
436.953000	-0.285514
437.139000	-0.211704
437.325000	0.038862
437.510000	-0.029952
437.696000	0.136984
437.881000	0.107211
438.067000	-0.228689
438.252000	-0.224849
438.438000	-0.278125
438.624000	-0.239396
438.809000	-0.117347
438.995000	-0.057409
439.180000	-0.189713
439.366000	-0.253040
439.551000	-0.246093
439.737000	-0.171732
439.923000	-0.113845
440.108000	-0.235040
440.294000	-0.197503
440.479000	-0.055293
440.665000	0.032284
440.850000	-0.052040
441.036000	-0.082001
441.222000	-0.121437
441.407000	-0.266458
441.593000	-0.148946
441.778000	-0.024767
441.964000	0.058037
442.149000	-0.250622
442.335000	-0.280179
442.521000	-0.174694
442.706000	0.007409
442.892000	-0.094581
443.077000	-0.175472
443.263000	-0.107240
443.448000	-0.168884
443.634000	-0.215949
443.820000	0.094302
444.005000	-0.029230
444.191000	-0.252757
444.376000	-0.226436
444.562000	0.113400
444.747000	0.105204
444.933000	-0.046568
445.119000	-0.163847
445.304000	-0.213403
445.490000	-0.061353
445.675000	-0.028917
445.861000	-0.216456
446.046000	-0.248406
446.232000	-0.149685
446.418000	-0.076128
446.603000	-0.089801
446.789000	-0.099643
446.974000	-0.123622
447.160000	-0.297016
447.345000	-0.237404
447.531000	-0.277922
447.717000	-0.080957
447.902000	-0.038902
448.088000	-0.017601
448.273000	-0.097667
448.459000	-0.135513
448.644000	-0.206947
448.830000	-0.289228
449.016000	-0.366724
449.201000	-0.272559
449.387000	-0.148442
449.572000	-0.067965
449.758000	-0.157744
449.943000	-0.252850
450.129000	-0.297252
450.315000	-0.286893
450.500000	-0.281012
450.686000	-0.201688
450.871000	-0.294092
451.057000	-0.147531
451.243000	-0.176784
451.428000	-0.157380
451.614000	-0.145985
451.799000	-0.211993
451.985000	-0.039395
452.170000	0.024201
452.356000	-0.183454
452.542000	-0.209354
452.727000	-0.041690
452.913000	-0.169967
453.098000	-0.031988
453.284000	0.169396
453.469000	-0.013685
453.655000	0.091238
453.841000	0.028985
454.026000	-0.180907
454.212000	-0.151372
454.397000	-0.146733
454.583000	-0.262808
454.768000	-0.340322
454.954000	-0.124588
455.140000	-0.085810
455.325000	-0.241933
455.511000	-0.343395
455.696000	-0.316843
455.882000	-0.160599
456.067000	0.032328
456.253000	-0.141385
456.439000	-0.268012
456.624000	-0.273141
456.810000	-0.279583
456.995000	-0.267955
457.181000	-0.329510
457.366000	-0.138424
457.552000	-0.129551
457.738000	-0.027493
457.923000	-0.056032
458.109000	0.130742
458.294000	0.069945
458.480000	0.005717
458.665000	-0.088110
458.851000	-0.219531
459.037000	-0.357014
459.222000	-0.223974
459.408000	-0.200428
459.593000	-0.142036
459.779000	-0.004906
459.964000	0.112107
460.150000	0.248293
460.336000	0.148496
460.521000	-0.046753
460.707000	-0.166155
460.892000	-0.273532
461.078000	-0.053627
461.263000	0.042525
461.449000	-0.132437
461.635000	-0.126503
461.820000	-0.091566
462.006000	-0.029011
462.191000	-0.062166
462.377000	-0.233525
462.562000	0.080079
462.748000	0.266404
462.934000	-0.154899
463.119000	-0.325247
463.305000	-0.103563
463.490000	-0.150523
463.676000	-0.110121
463.861000	-0.129946
464.047000	-0.156758
464.233000	-0.102767
464.418000	-0.136424
464.604000	-0.229347
464.789000	-0.050804
464.975000	-0.025993
465.160000	-0.145000
465.346000	-0.115755
465.532000	-0.224882
465.717000	-0.290684
465.903000	-0.031575
466.088000	-0.074031
466.274000	-0.262795
466.459000	-0.288718
466.645000	0.083434
466.831000	0.060742
467.016000	0.047363
467.202000	-0.054689
467.387000	-0.148752
467.573000	-0.292772
467.758000	-0.010114
467.944000	-0.106804
468.130000	-0.225535
468.315000	-0.089732
468.501000	0.020701
468.686000	-0.070521
468.872000	-0.058458
469.057000	-0.003515
469.243000	-0.090427
469.429000	-0.114543
469.614000	-0.199806
469.800000	-0.266709
469.985000	-0.117197
470.171000	-0.011110
470.356000	-0.119379
470.542000	-0.058382
470.728000	-0.071304
470.913000	-0.119918
471.099000	-0.016529
471.284000	-0.110832
471.470000	-0.174606
471.655000	-0.142821
471.841000	-0.133621
472.027000	-0.190550
472.212000	-0.002395
472.398000	0.117730
472.583000	-0.025364
472.769000	-0.085654
472.954000	-0.092082
473.140000	-0.226717
473.326000	-0.261899
473.511000	0.026985
473.697000	0.037911
473.882000	-0.098669
474.068000	-0.166808
474.253000	-0.258852
474.439000	-0.155427
474.625000	-0.052587
474.810000	-0.076644
474.996000	-0.062451
475.181000	-0.235174
475.367000	-0.090595
475.552000	0.146523
475.738000	-0.150490
475.924000	-0.156285
476.109000	-0.064583
476.295000	-0.183593
476.480000	-0.133520
476.666000	-0.150773
476.851000	-0.144151
477.037000	-0.083523
477.223000	-0.173814
477.408000	-0.274335
477.594000	-0.339541
477.779000	-0.206854
477.965000	-0.185052
478.151000	-0.294361
478.336000	-0.149067
478.522000	-0.219682
478.707000	-0.274247
478.893000	-0.157756
479.078000	-0.317169
479.264000	-0.310668
479.450000	-0.221901
479.635000	-0.107622
479.821000	-0.189053
480.006000	-0.107729
480.192000	-0.127355
480.377000	-0.112254
480.563000	-0.109950
480.749000	-0.286801
480.934000	-0.290882
481.120000	-0.170698
481.305000	-0.072245
481.491000	-0.081305
481.676000	-0.035363
481.862000	-0.032142
482.048000	-0.198381
482.233000	-0.147844
482.419000	-0.164618
482.604000	-0.229517
482.790000	-0.229522
482.975000	-0.185808
483.161000	-0.050583
483.347000	-0.080016
483.532000	-0.088779
483.718000	-0.298590
483.903000	-0.260562
484.089000	-0.223771
484.274000	-0.342677
484.460000	-0.198652
484.646000	-0.151523
484.831000	-0.262448
485.017000	-0.189438
485.202000	-0.167245
485.388000	0.042329
485.573000	0.013937
485.759000	-0.159586
485.945000	-0.003494
486.130000	-0.168226
486.316000	-0.174839
486.501000	-0.080766
486.687000	-0.246957
486.872000	-0.328777
487.058000	-0.138479
487.244000	-0.125492
487.429000	-0.311952
487.615000	-0.134929
487.800000	-0.053441
487.986000	-0.149541
488.171000	-0.056614
488.357000	-0.105064
488.543000	-0.126220
488.728000	-0.067009
488.914000	-0.117719
489.099000	-0.222153
489.285000	-0.252139
489.470000	-0.031358
489.656000	-0.009887
489.842000	-0.063379
490.027000	0.031807
490.213000	-0.119955
490.398000	-0.405348
490.584000	-0.147604
490.769000	-0.111290
490.955000	-0.054590
491.141000	-0.047022
491.326000	-0.064880
491.512000	0.057008
491.697000	-0.059430
491.883000	-0.184286
492.068000	-0.217108
492.254000	-0.186757
492.440000	-0.135800
492.625000	-0.188203
492.811000	-0.203633
492.996000	-0.086520
493.182000	-0.087293
493.367000	-0.257996
493.553000	-0.333846
493.739000	-0.248222
493.924000	-0.143296
494.110000	-0.121867
494.295000	-0.251148
494.481000	-0.154099
494.666000	-0.114399
494.852000	0.029077
495.038000	-0.116070
495.223000	-0.224960
495.409000	-0.175415
495.594000	-0.210178
495.780000	-0.163787
495.965000	-0.223401
496.151000	-0.020001
496.337000	0.032054
496.522000	-0.199254
496.708000	-0.136509
496.893000	-0.003329
497.079000	-0.143421
497.264000	-0.165935
497.450000	-0.118334
497.636000	-0.043767
497.821000	-0.185373
498.007000	0.003931
498.192000	0.048593
498.378000	-0.089346
498.563000	-0.140180
498.749000	-0.112300
498.935000	-0.096585
499.120000	-0.015714
499.306000	-0.174135
499.491000	-0.206704
499.677000	-0.104456
499.862000	-0.049939
500.048000	0.014323
500.234000	-0.093383
500.419000	-0.139189
500.605000	0.014326
500.790000	-0.059313
500.976000	-0.214162
501.161000	-0.287826
501.347000	-0.089501
501.533000	0.002909
501.718000	-0.109233
501.904000	-0.154241
502.089000	-0.029393
502.275000	0.009149
502.460000	-0.114227
502.646000	-0.064547
502.832000	-0.005399
503.017000	-0.050147
503.203000	-0.265880
503.388000	-0.293672
503.574000	-0.073122
503.759000	-0.029366
503.945000	0.011266
504.131000	-0.086787
504.316000	-0.144070
504.502000	-0.105538
504.687000	-0.130916
504.873000	-0.261769
505.058000	-0.291027
505.244000	-0.278407
505.430000	-0.200345
505.615000	-0.127158
505.801000	-0.074835
505.986000	-0.215682
506.172000	-0.117431
506.358000	-0.114551
506.543000	-0.142797
506.729000	0.063783
506.914000	0.001892
507.100000	0.119000
507.285000	-0.090035
507.471000	-0.208158
507.657000	0.055727
507.842000	-0.085584
508.028000	-0.270213
508.213000	-0.238111
508.399000	-0.197283
508.584000	-0.044756
508.770000	-0.127256
508.956000	-0.210000
509.141000	-0.141004
509.327000	-0.045826
509.512000	-0.099530
509.698000	-0.110263
509.883000	-0.052208
510.069000	-0.119380
510.255000	-0.100273
510.440000	-0.063094
510.626000	-0.138693
510.811000	-0.190097
510.997000	-0.093042
511.182000	0.164974
511.368000	0.059532
511.554000	-0.280968
511.739000	-0.212510
511.925000	-0.036508
512.110000	-0.065269
512.296000	0.078903
512.481000	0.098029
512.667000	-0.011973
512.853000	-0.203360
513.038000	-0.130838
513.224000	-0.157644
513.409000	-0.264712
513.595000	-0.146083
513.780000	-0.276796
513.966000	-0.179879
514.152000	-0.197014
514.337000	-0.280553
514.523000	-0.208882
514.708000	-0.128757
514.894000	-0.109778
515.079000	-0.214204
515.265000	-0.177364
515.451000	-0.139845
515.636000	-0.242777
515.822000	-0.152812
516.007000	-0.254941
516.193000	-0.108662
516.378000	-0.001291
516.564000	-0.096876
516.750000	-0.093686
516.935000	0.014834
517.121000	0.001934
517.306000	0.060024
517.492000	0.046109
517.677000	-0.212207
517.863000	-0.242383
518.049000	-0.110032
518.234000	-0.177726
518.420000	-0.045456
518.605000	0.133307
518.791000	0.100953
518.976000	-0.025068
519.162000	-0.164154
519.348000	-0.081124
519.533000	-0.084237
519.719000	0.086048
519.904000	0.012738
520.090000	-0.027149
520.275000	0.155023
520.461000	0.088359
520.647000	-0.107134
520.832000	-0.274191
521.018000	-0.181671
521.203000	-0.139091
521.389000	-0.293902
521.574000	-0.213437
521.760000	-0.089715
521.946000	-0.078090
522.131000	-0.173419
522.317000	-0.155858
522.502000	-0.195765
522.688000	-0.094251
522.873000	-0.130042
523.059000	-0.155035
523.245000	-0.130012
523.430000	-0.252557
523.616000	-0.195103
523.801000	-0.264746
523.987000	-0.226122
524.172000	-0.102298
524.358000	-0.029551
524.544000	-0.098920
524.729000	-0.031588
524.915000	0.037736
525.100000	-0.081512
525.286000	-0.040382
525.471000	-0.049205
525.657000	-0.045987
525.843000	-0.233695
526.028000	-0.093020
526.214000	-0.168290
526.399000	-0.257433
526.585000	-0.307843
526.770000	-0.318753
526.956000	-0.202133
527.142000	-0.252565
527.327000	-0.117751
527.513000	-0.202580
527.698000	-0.235837
527.884000	-0.184760
528.069000	-0.229603
528.255000	-0.141564
528.441000	-0.213595
528.626000	-0.182091
528.812000	0.083992
528.997000	-0.066841
529.183000	-0.203321
529.368000	-0.123987
529.554000	-0.141084
529.740000	-0.169509
529.925000	-0.196457
530.111000	-0.174223
530.296000	-0.086791
530.482000	0.012172
530.667000	-0.069000
530.853000	-0.017192
531.039000	-0.114713
531.224000	-0.078862
531.410000	-0.008203
531.595000	-0.059525
531.781000	0.006615
531.967000	-0.157351
532.152000	-0.017487
532.338000	-0.121269
532.523000	-0.285499
532.709000	-0.291191
532.894000	-0.193608
533.080000	-0.143671
533.266000	-0.260482
533.451000	-0.295420
533.637000	-0.230570
533.822000	-0.030912
534.008000	-0.165272
534.193000	-0.181266
534.379000	-0.070297
534.565000	-0.165960
534.750000	-0.213244
534.936000	0.000961
535.121000	-0.150779
535.307000	-0.095546
535.492000	-0.079992
535.678000	-0.300486
535.864000	-0.161492
536.049000	0.126302
536.235000	-0.097415
536.420000	-0.105274
536.606000	-0.158859
536.791000	-0.263262
536.977000	-0.253924
537.163000	0.002258
537.348000	-0.006561
537.534000	0.016260
537.719000	-0.195092
537.905000	-0.340312
538.090000	-0.086249
538.276000	0.001030
538.462000	-0.015765
538.647000	0.012715
538.833000	-0.141149
539.018000	-0.017300
539.204000	-0.040920
539.389000	-0.235314
539.575000	0.051279
539.761000	-0.004250
539.946000	-0.293851
540.132000	-0.186482
540.317000	-0.293156
540.503000	-0.169918
540.688000	-0.118147
540.874000	0.083987
541.060000	0.158681
541.245000	-0.028937
541.431000	-0.241416
541.616000	-0.203609
541.802000	-0.187282
541.987000	-0.088531
542.173000	-0.129012
542.359000	-0.234491
542.544000	-0.091612
542.730000	-0.267039
542.915000	-0.280218
543.101000	-0.127091
543.286000	-0.296325
543.472000	-0.365622
543.658000	-0.244956
543.843000	-0.231463
544.029000	-0.039880
544.214000	-0.175865
544.400000	-0.479423
544.585000	-0.371084
544.771000	-0.271100
544.957000	-0.090276
545.142000	-0.001716
545.328000	0.015480
545.513000	0.071514
545.699000	0.061727
545.884000	-0.088324
546.070000	-0.114355
546.261000	-0.117670
546.451000	-0.264851
546.642000	-0.416747
546.833000	-0.254097
547.023000	-0.331330
547.214000	-0.344384
547.405000	-0.149616
547.595000	0.153620
547.786000	0.127725
547.977000	-0.127188
548.167000	-0.305980
548.358000	-0.273215
548.549000	0.084559
548.740000	-0.092598
548.930000	-0.386008
549.121000	-0.293027
549.312000	-0.358614
549.502000	-0.406068
549.693000	-0.267591
549.884000	-0.147505
550.074000	-0.056074
550.265000	-0.290406
550.456000	-0.139649
550.646000	-0.042814
550.837000	-0.133953
551.028000	-0.246671
551.218000	-0.085446
551.409000	-0.209508
551.600000	-0.211215
551.790000	-0.066284
551.981000	-0.316370
552.172000	-0.301588
552.362000	0.073444
552.553000	0.103158
552.744000	-0.069755
552.934000	-0.126966
553.125000	-0.240149
553.316000	-0.266623
553.506000	0.162600
553.697000	-0.040801
553.888000	-0.074930
554.079000	0.103927
554.269000	0.041737
554.460000	-0.271975
554.651000	-0.270692
554.841000	-0.399297
555.032000	-0.334093
555.223000	-0.209022
555.413000	-0.070616
555.604000	-0.108569
555.795000	-0.130877
555.985000	-0.053908
556.176000	-0.162375
556.367000	-0.453355
556.557000	-0.320711
556.748000	-0.218547
556.939000	-0.276631
557.129000	-0.345812
557.320000	-0.159753
557.511000	-0.209876
557.701000	-0.237861
557.892000	-0.177217
558.083000	0.086461
558.273000	-0.046079
558.464000	-0.260709
558.655000	-0.235256
558.845000	-0.141807
559.036000	-0.093137
559.227000	-0.134141
559.418000	-0.008202
559.608000	0.021758
559.799000	-0.290066
559.990000	-0.318285
560.180000	-0.273218
560.371000	-0.441709
560.562000	-0.353204
560.752000	-0.166717
560.943000	-0.305003
561.134000	-0.485880
561.324000	-0.261576
561.515000	0.010619
561.706000	-0.155079
561.896000	-0.359088
562.087000	-0.272986
562.278000	-0.293127
562.468000	-0.429059
562.659000	-0.334597
562.850000	0.007468
563.040000	0.060366
563.231000	-0.370886
563.422000	-0.233098
563.612000	-0.337448
563.803000	-0.270149
563.994000	-0.310524
564.185000	-0.411695
564.375000	-0.156107
564.566000	-0.183650
564.757000	-0.218150
564.947000	-0.288875
565.138000	-0.178705
565.329000	-0.265830
565.519000	-0.408356
565.710000	-0.298207
565.901000	-0.146287
566.091000	-0.004914
566.282000	-0.155035
566.473000	-0.166773
566.663000	-0.178783
566.854000	-0.360403
567.045000	-0.220045
567.235000	-0.159397
567.426000	-0.160854
567.617000	-0.157256
567.807000	-0.169402
567.998000	-0.144949
568.189000	-0.247348
568.379000	-0.188121
568.570000	-0.102332
568.761000	-0.159014
568.951000	-0.223043
569.142000	-0.299687
569.333000	-0.280222
569.524000	-0.388037
569.714000	-0.437211
569.905000	-0.509404
570.096000	-0.123829
570.286000	-0.030024
570.477000	0.099017
570.668000	-0.102479
570.858000	-0.120243
571.049000	-0.229018
571.240000	-0.359053
571.430000	-0.125623
571.621000	-0.189822
571.812000	-0.091013
572.002000	-0.107298
572.193000	-0.275418
572.384000	-0.181680
572.574000	-0.129123
572.765000	-0.175650
572.956000	-0.236283
573.146000	-0.071780
573.337000	-0.191031
573.528000	-0.180524
573.718000	-0.059727
573.909000	-0.003185
574.100000	-0.063757
574.290000	-0.214529
574.481000	-0.226960
574.672000	-0.209985
574.863000	-0.048925
575.053000	-0.208751
575.244000	-0.115666
575.435000	-0.247902
575.625000	-0.279395
575.816000	-0.274803
576.007000	-0.198392
576.197000	-0.188783
576.388000	-0.189461
576.579000	-0.053912
576.769000	-0.029885
576.960000	-0.291863
577.155000	-0.465241
577.350000	-0.195296
577.545000	-0.042291
577.740000	-0.227864
577.935000	0.112582
578.130000	0.010876
578.326000	-0.328359
578.521000	-0.071144
578.716000	-0.059751
578.911000	-0.309755
579.106000	-0.154433
579.301000	-0.031835
579.496000	-0.232815
579.691000	-0.479994
579.886000	-0.256547
580.081000	-0.130934
580.276000	-0.096670
580.471000	-0.205253
580.666000	-0.348542
580.861000	-0.374158
581.057000	-0.371690
581.252000	-0.226700
581.447000	-0.306009
581.642000	-0.268580
581.837000	-0.265512
582.032000	-0.239118
582.227000	-0.017709
582.422000	-0.051153
582.617000	-0.282864
582.812000	-0.404459
583.007000	-0.329823
583.202000	-0.408801
583.397000	-0.136407
583.592000	0.072306
583.788000	-0.218595
583.983000	-0.206561
584.178000	-0.117024
584.373000	-0.298481
584.568000	-0.283499
584.763000	-0.346487
584.958000	-0.415703
585.153000	-0.292920
585.348000	-0.286231
585.543000	-0.142740
585.738000	-0.162273
585.933000	-0.402779
586.128000	-0.171402
586.324000	-0.162681
586.519000	-0.141621
586.714000	-0.048729
586.909000	-0.005511
587.104000	-0.006846
587.299000	-0.148615
587.494000	-0.157590
587.689000	-0.222269
587.884000	-0.208445
588.079000	-0.238767
588.274000	-0.185081
588.469000	-0.186028
588.664000	-0.140100
588.859000	-0.145587
589.055000	-0.133851
589.250000	-0.165674
589.445000	-0.312935
589.640000	-0.299927
589.835000	-0.026848
590.030000	0.062184
590.225000	0.052893
590.420000	-0.138670
590.615000	-0.261338
590.810000	-0.231775
591.005000	-0.211348
591.200000	-0.288953
591.395000	-0.345033
591.591000	-0.207037
591.786000	-0.141553
591.981000	-0.231539
592.176000	-0.136902
592.371000	-0.108814
592.566000	-0.209167
592.761000	-0.029724
592.956000	-0.074033
593.151000	0.003757
593.346000	-0.081003
593.541000	-0.079575
593.736000	-0.098696
593.931000	-0.245769
594.126000	-0.193448
594.322000	-0.131302
594.517000	-0.259579
594.712000	-0.369136
594.907000	-0.388093
595.102000	-0.269116
595.297000	-0.114253
595.492000	-0.015230
595.687000	-0.214191
595.882000	-0.294729
596.077000	-0.176470
596.272000	-0.054897
596.467000	-0.015300
596.662000	-0.132908
596.857000	-0.115592
597.053000	-0.122662
597.248000	-0.101991
597.443000	-0.095245
597.638000	-0.160320
597.833000	-0.338622
598.028000	-0.136822
598.223000	-0.037589
598.418000	-0.160869
598.613000	-0.243902
598.808000	-0.131880
599.003000	-0.168079
599.198000	-0.319643
599.393000	-0.259857
599.589000	-0.142253
599.784000	-0.345711
599.979000	-0.234627
600.174000	-0.005863
600.369000	-0.229445
600.564000	-0.179373
600.759000	0.052950
600.954000	0.168932
601.149000	0.013747
601.344000	-0.335873
601.539000	-0.167571
601.734000	-0.215086
601.929000	-0.442234
602.124000	-0.383440
602.320000	-0.147038
602.515000	0.090043
602.710000	0.022345
602.905000	-0.302890
603.100000	-0.356050
603.295000	-0.269014
603.490000	-0.164821
603.685000	-0.133638
603.880000	-0.133801
604.075000	-0.297898
604.270000	-0.297103
604.465000	-0.224155
604.660000	-0.432689
604.856000	-0.251265
605.051000	-0.051721
605.246000	-0.121631
605.441000	-0.367445
605.636000	-0.400418
605.831000	-0.225058
606.026000	-0.322278
606.221000	-0.374308
606.416000	-0.202603
606.611000	0.004022
606.806000	-0.047642
607.001000	0.101728
607.196000	-0.126847
607.391000	-0.337290
607.587000	-0.092647
607.782000	-0.134675
607.977000	-0.354921
608.172000	0.018510
608.367000	0.070568
608.562000	-0.177063
608.757000	-0.223358
608.952000	-0.260175
609.147000	0.122966
609.342000	0.024399
609.537000	-0.273827
609.732000	-0.272803
609.927000	-0.330439
610.122000	-0.341202
610.318000	-0.070291
610.513000	0.002626
610.708000	-0.222312
610.903000	-0.213787
611.098000	-0.198124
611.293000	-0.252413
611.488000	-0.240719
611.683000	-0.251421
611.878000	-0.263251
612.073000	-0.188383
612.268000	-0.144457
612.463000	-0.054846
612.658000	-0.091706
612.854000	-0.145087
613.049000	-0.198365
613.244000	-0.028396
613.439000	0.042611
613.634000	-0.243547
613.829000	-0.133826
614.024000	-0.296246
614.219000	-0.302150
614.414000	0.022022
614.609000	-0.210410
614.804000	-0.368463
614.999000	-0.351746
615.194000	-0.289952
615.389000	-0.215552
615.585000	-0.389664
615.780000	-0.199642
615.975000	-0.239087
616.170000	-0.218219
616.365000	0.019257
616.560000	0.147273
616.755000	0.043501
616.950000	-0.044124
617.145000	0.016335
617.340000	-0.163807
617.535000	-0.451445
617.730000	-0.232246
617.925000	-0.378392
618.120000	-0.404333
618.316000	-0.076415
618.511000	-0.145050
618.706000	-0.307637
618.901000	-0.198974
619.096000	-0.060135
619.291000	-0.168904
619.486000	-0.157139
619.681000	-0.478863
619.876000	-0.537105
620.071000	-0.379013
620.266000	-0.111419
620.461000	0.002783
620.656000	-0.048324
620.852000	-0.099310
621.047000	-0.245316
621.242000	-0.358988
621.437000	-0.037665
621.632000	0.019965
621.827000	-0.159550
622.022000	-0.437771
622.217000	-0.260365
622.412000	-0.059908
622.607000	-0.072524
622.802000	-0.278312
622.997000	-0.287162
623.192000	-0.198885
623.387000	-0.178435
623.583000	-0.439390
623.778000	-0.039911
623.973000	-0.008241
624.168000	-0.082923
624.363000	-0.078037
624.558000	-0.011440
624.753000	-0.285633
624.948000	-0.062600
625.143000	-0.030683
625.338000	-0.137987
625.533000	-0.253321
625.728000	-0.187871
625.923000	-0.019569
626.119000	-0.130549
626.314000	-0.333447
626.509000	-0.350614
626.704000	-0.311077
626.899000	-0.272468
627.094000	-0.315023
627.289000	-0.304365
627.484000	-0.272488
627.679000	-0.282519
627.874000	-0.261651
628.069000	0.061828
628.264000	-0.034645
628.459000	-0.182148
628.654000	-0.242975
628.850000	-0.378737
629.045000	-0.242451
629.240000	-0.265775
629.435000	-0.322250
629.630000	-0.180616
629.825000	-0.197150
630.020000	-0.191285
630.215000	-0.431816
630.410000	-0.368547
630.605000	-0.345504
630.800000	-0.263757
630.995000	-0.093909
631.190000	0.168796
631.385000	-0.055629
631.581000	-0.205105
631.776000	-0.119581
631.971000	-0.261503
632.166000	-0.187510
632.361000	-0.322712
632.556000	-0.203160
632.751000	-0.076643
632.946000	-0.242896
633.141000	-0.296378
633.336000	-0.242313
633.531000	-0.184944
633.726000	-0.155695
633.921000	-0.296486
634.117000	-0.465273
634.312000	-0.587671
634.507000	-0.474840
634.702000	-0.312075
634.897000	-0.260778
635.092000	-0.181920
635.287000	-0.104313
635.482000	-0.222724
635.677000	-0.099406
635.872000	-0.002086
636.067000	0.071077
636.262000	-0.126269
636.457000	-0.446245
636.652000	-0.455633
636.848000	-0.446141
637.043000	-0.342663
637.238000	-0.311880
637.433000	-0.463594
637.628000	-0.405453
637.823000	-0.139701
638.018000	-0.090486
638.213000	-0.250100
638.408000	-0.303519
638.603000	-0.408705
638.798000	-0.448415
638.993000	-0.353080
639.188000	-0.353202
639.383000	-0.360635
639.579000	0.067348
639.774000	-0.159370
639.969000	-0.338176
640.164000	-0.398069
640.359000	-0.407465
640.554000	-0.187116
640.749000	-0.173226
640.944000	-0.103223
641.139000	-0.124623
641.334000	-0.301654
641.529000	-0.721652
641.724000	-0.539733
641.919000	-0.332286
642.115000	-0.074908
642.310000	-0.069354
642.505000	-0.181854
642.700000	-0.202184
642.895000	-0.348698
643.090000	-0.162626
643.285000	0.056161
643.480000	-0.025951
643.675000	-0.073531
643.870000	0.276363
644.065000	0.115314
644.260000	-0.279398
644.455000	-0.221066
644.650000	-0.335925
644.846000	-0.208713
645.041000	-0.398452
645.236000	-0.567541
645.431000	-0.516553
645.626000	-0.673407
645.821000	-0.431020
646.016000	-0.328473
646.211000	0.072059
646.406000	-0.052471
646.601000	-0.106326
646.796000	-0.243829
646.991000	-0.489222
647.186000	-0.378534
647.381000	-0.136449
647.577000	-0.170165
647.772000	-0.048888
647.967000	-0.121898
648.162000	-0.150062
648.357000	-0.204599
648.552000	-0.034086
648.747000	-0.017240
648.942000	-0.036003
649.137000	-0.124515
649.332000	-0.307363
649.527000	-0.294055
649.722000	-0.006022
649.917000	0.052471
650.113000	-0.285036
650.308000	-0.408150
650.503000	-0.332458
650.698000	-0.172575
650.893000	-0.229507
651.088000	-0.098912
651.283000	-0.019370
651.478000	-0.366889
651.673000	-0.154044
651.868000	-0.323532
652.063000	-0.087996
652.258000	0.098737
652.453000	0.246758
652.648000	-0.120313
652.844000	-0.196602
653.039000	-0.166402
653.234000	-0.519597
653.429000	-0.623788
653.624000	-0.422685
653.819000	-0.136353
654.014000	-0.193843
654.209000	-0.353752
654.404000	-0.186476
654.599000	-0.306200
654.794000	-0.332553
654.989000	-0.021568
655.184000	-0.079433
655.380000	-0.410716
655.575000	-0.401129
655.770000	-0.353549
655.965000	-0.237817
656.160000	-0.351892
656.355000	-0.181897
656.550000	-0.180518
656.745000	-0.126371
656.940000	-0.217645
657.135000	-0.172987
657.330000	-0.167237
657.525000	-0.386746
657.720000	-0.144311
657.915000	-0.058682
658.111000	-0.150064
658.306000	0.085208
658.501000	-0.123231
658.696000	-0.378511
658.891000	-0.127138
659.086000	-0.207004
659.281000	-0.150723
659.476000	-0.293663
659.671000	-0.743276
659.866000	-0.522595
660.061000	-0.176534
660.256000	-0.066965
660.451000	-0.114059
660.646000	-0.353616
660.842000	-0.271511
661.037000	-0.413119
661.232000	-0.380252
661.427000	-0.220654
661.622000	-0.353067
661.817000	-0.457366
662.012000	-0.261049
662.207000	-0.413381
662.402000	-0.446117
662.597000	-0.242242
662.792000	-0.564843
662.987000	-0.530739
663.182000	-0.250264
663.378000	-0.256419
663.573000	-0.585321
663.768000	-0.621830
663.963000	-0.435678
664.158000	-0.387621
664.353000	0.063406
664.548000	0.272669
664.743000	-0.090194
664.938000	-0.423390
665.133000	-0.416060
665.328000	0.021614
665.523000	-0.026469
665.718000	-0.279164
665.913000	-0.307702
666.109000	-0.266118
666.304000	-0.050711
666.499000	-0.181398
666.694000	-0.054857
666.889000	0.243601
667.084000	-0.109665
667.279000	-0.287547
667.474000	-0.245220
667.669000	-0.131885
667.864000	-0.233299
668.059000	-0.231627
668.254000	-0.179119
668.449000	-0.344005
668.644000	-0.289375
668.840000	-0.014633
669.035000	-0.275161
669.230000	-0.561995
669.425000	-0.174107
669.620000	-0.302826
669.815000	-0.385953
670.010000	-0.393792
670.205000	-0.264933
670.400000	-0.246039
670.595000	-0.133865
670.790000	-0.298517
670.985000	-0.245320
671.180000	-0.023076
671.376000	-0.386040
671.571000	-0.523301
671.766000	-0.435437
671.961000	-0.460471
672.156000	-0.458969
672.351000	-0.299271
672.546000	-0.333178
672.741000	-0.220388
672.936000	-0.160417
673.131000	0.345456
673.326000	-0.052652
673.521000	-0.487664
673.716000	-0.573390
673.911000	-0.663782
674.107000	-0.094765
674.302000	0.161128
674.497000	-0.111742
674.692000	-0.429210
674.887000	-0.483400
675.082000	-0.355283
675.277000	-0.074456
675.472000	-0.150802
675.667000	-0.356794
675.862000	-0.431257
676.057000	-0.318987
676.252000	-0.266456
676.447000	-0.371648
676.643000	-0.164568
676.838000	0.097817
677.033000	-0.227137
677.228000	0.106777
677.423000	0.100406
677.618000	-0.379046
677.813000	-0.548672
678.008000	-0.246316
678.203000	-0.134300
678.398000	-0.404932
678.593000	-0.301206
678.788000	-0.202324
678.983000	-0.440579
679.178000	-0.288950
679.374000	-0.358888
679.569000	-0.296525
679.764000	-0.402216
679.959000	-0.569531
680.154000	-0.525861
680.349000	-0.688053
680.544000	-0.594987
680.739000	-0.446037
680.934000	-0.527785
681.129000	-0.549093
681.324000	-0.633604
681.519000	-0.345686
681.714000	-0.376802
681.909000	-0.504593
682.105000	-0.627971
682.300000	-0.165171
682.495000	0.004005
682.690000	-0.051735
682.885000	-0.210228
683.080000	-0.418938
683.275000	-0.345260
683.470000	0.010760
683.665000	0.177039
683.860000	0.368642
684.055000	0.089624
684.250000	-0.336304
684.445000	-0.358274
684.641000	0.089838
684.836000	-0.185853
685.031000	-0.261406
685.226000	-0.268577
685.421000	0.036002
685.616000	-0.205531
685.811000	-0.375046
686.006000	-0.142057
686.201000	-0.203993
686.396000	-0.606519
686.591000	-0.522626
686.786000	-0.032716
686.981000	-0.226269
687.176000	-0.182933
687.372000	-0.354254
687.567000	-0.072178
687.762000	-0.111813
687.957000	-0.165162
688.152000	-0.321265
688.347000	-0.244993
688.542000	-0.462720
688.737000	-0.889561
688.932000	-0.891072
689.127000	-0.417131
689.322000	-0.075589
689.517000	-0.364251
689.712000	-0.558672
689.908000	-0.408347
690.103000	-0.413864
690.298000	-0.302889
690.493000	-0.301313
690.688000	-0.519885
690.883000	-0.319383
691.078000	0.066183
691.273000	0.087619
691.468000	-0.219952
691.663000	-0.256709
691.858000	-0.096282
692.053000	-0.144178
692.248000	-0.125146
692.443000	-0.141922
692.639000	-0.187861
692.834000	-0.029381
693.029000	0.452444
693.224000	0.444909
693.419000	-0.199159
693.614000	-0.427716
693.809000	-0.539774
694.004000	-0.584601
694.199000	-0.533352
694.394000	-0.259280
694.589000	-0.535729
694.784000	-0.541166
694.979000	-0.232915
695.174000	-0.287466
695.370000	0.207644
695.565000	-0.091311
695.760000	-0.386744
695.955000	0.043898
696.150000	0.135188
696.345000	-0.352159
696.540000	-0.129500
696.740000	-0.263281
696.940000	-0.134470
697.140000	-0.042893
697.340000	-0.285283
697.539000	-0.157964
697.739000	-0.280548
697.939000	-0.128110
698.139000	-0.503958
698.339000	-0.890515
698.539000	-0.621144
698.739000	-0.635410
698.939000	-0.534437
699.138000	-0.611361
699.338000	0.140952
699.538000	0.288557
699.738000	-0.231929
699.938000	-0.311026
700.138000	-0.418633
700.338000	-0.647405
700.538000	-0.377310
700.737000	-0.256753
700.937000	-0.677536
701.137000	-0.686253
701.337000	-0.015947
701.537000	0.004640
701.737000	-0.314597
701.937000	-0.436582
702.137000	-0.317905
702.337000	-0.424412
702.536000	-0.549599
702.736000	-0.558040
702.936000	-0.704292
703.136000	-0.109915
703.336000	-0.169783
703.536000	-0.350432
703.736000	-0.728424
703.936000	-0.695560
704.135000	-0.616864
704.335000	-0.194324
704.535000	-0.509984
704.735000	-0.733952
704.935000	-0.189394
705.135000	-0.240400
705.335000	-0.471298
705.535000	-0.199018
705.735000	-0.183107
705.934000	-0.198881
706.134000	-0.455570
706.334000	-0.514992
706.534000	-0.611337
706.734000	-0.521458
706.934000	-0.643680
707.134000	-0.662456
707.334000	-0.368163
707.533000	-0.323471
707.733000	-0.379244
707.933000	-0.505096
708.133000	-0.219179
708.333000	-0.126509
708.533000	-0.397952
708.733000	-0.126724
708.933000	-0.328376
709.132000	-0.431327
709.332000	-0.394298
709.532000	-0.508693
709.732000	-0.356807
709.932000	-0.801355
710.132000	-0.768408
710.332000	-0.919397
710.532000	-0.400884
710.732000	-0.179563
710.931000	-0.429425
711.131000	-0.545556
711.331000	-0.420527
711.531000	-0.593343
711.731000	-0.504461
711.931000	-0.395570
712.131000	-0.499212
712.331000	-0.271886
712.530000	-0.389267
712.730000	-0.579674
712.930000	-0.376442
713.130000	-0.352981
713.330000	-0.469202
713.530000	-0.280012
713.730000	0.306714
713.930000	-0.091874
714.129000	-0.558964
714.329000	-0.682782
714.529000	-0.394061
714.729000	0.004998
714.929000	-0.169950
715.129000	-0.492894
715.329000	-0.345791
715.529000	-0.389141
715.729000	0.214295
715.928000	-0.008951
716.128000	-0.325249
716.328000	-0.230764
716.528000	-0.357503
716.728000	-0.270441
716.928000	-0.481331
717.128000	-0.279525
717.328000	-0.290749
717.527000	-0.516761
717.727000	-0.432561
717.927000	-0.309318
718.127000	-0.349174
718.327000	-0.806940
718.527000	-0.778156
718.727000	-0.369838
718.927000	-0.430268
719.127000	-0.686283
719.326000	-0.498539
719.526000	-0.103198
719.726000	-0.237682
719.926000	-0.717430
720.126000	-0.697471
720.326000	-0.436428
720.526000	-0.562700
720.726000	-0.498237
720.925000	-0.256762
721.125000	-0.650638
721.325000	-0.346856
721.525000	-0.327447
721.725000	-0.556028
721.925000	-0.493770
722.125000	-0.496711
722.325000	-0.006382
722.524000	-0.256649
722.724000	-0.766825
722.924000	-0.900789
723.124000	-0.645220
723.324000	-0.202058
723.524000	-0.167170
723.724000	-0.746511
723.924000	-0.529011
724.124000	-0.352991
724.323000	-0.144673
724.523000	-0.256189
724.723000	0.084795
724.923000	-0.068327
725.123000	-0.094933
725.323000	0.028944
725.523000	-0.255078
725.723000	-0.464689
725.922000	-0.512563
726.122000	-0.415371
726.322000	-0.532348
726.522000	-0.515028
726.722000	0.207318
726.922000	-0.160874
727.122000	-0.310357
727.322000	0.023262
727.521000	-0.147088
727.721000	-0.467663
727.921000	-0.362890
728.121000	-0.356813
728.321000	-0.729335
728.521000	-0.484662
728.721000	-0.310807
728.921000	0.014451
729.121000	0.720125
729.320000	0.074870
729.520000	-0.441409
729.720000	-0.653830
729.920000	-0.501976
730.120000	-0.337034
730.320000	-0.340898
730.520000	-0.550768
730.720000	-0.461029
730.919000	-0.488380
731.119000	-0.229672
731.319000	-0.655266
731.519000	-0.832582
731.719000	-0.334265
731.919000	-0.493702
732.119000	-0.982293
732.319000	-1.016151
732.519000	-0.453232
732.718000	-0.731302
732.918000	-0.630102
733.118000	-0.483190
733.318000	-0.075076
733.518000	-0.351209
733.718000	-0.910935
733.918000	-0.846184
734.118000	-0.581743
734.317000	-0.390657
734.517000	-0.645622
734.717000	-0.507840
734.917000	-0.016318
735.117000	-0.082304
735.317000	-0.233031
735.517000	0.204063
735.717000	0.394173
735.916000	-0.528170
736.116000	-0.657114
736.316000	-0.505562
736.516000	-0.419688
736.716000	-0.448487
736.916000	-0.845778
737.116000	-0.596723
737.316000	0.041014
737.516000	-0.055222
737.715000	-0.119509
737.915000	-0.672382
738.115000	-0.687414
738.315000	-0.529816
738.515000	-0.816830
738.715000	-0.490640
738.915000	0.038342
739.115000	-0.410743
739.314000	-0.540443
739.514000	-0.114873
739.714000	0.025519
739.914000	-0.125343
740.114000	-0.388570
740.314000	-0.184889
740.514000	0.236572
740.714000	-0.519709
740.913000	-0.967431
741.113000	-0.760035
741.313000	-0.342216
741.513000	-0.379758
741.713000	-0.377444
741.913000	-0.355777
742.113000	-0.452240
742.313000	-0.912445
742.513000	-0.614679
742.712000	-0.401240
742.912000	-0.677439
743.112000	-0.595269
743.312000	-0.951577
743.512000	-0.594213
743.712000	-0.432799
743.912000	-1.023082
744.112000	-1.105582
744.311000	-1.176958
744.511000	-0.685802
744.711000	-0.244510
744.911000	-0.691935
745.111000	-0.668691
745.311000	-0.142138
745.511000	-0.567262
745.711000	-0.751069
745.911000	-0.402336
746.110000	-0.800900
746.310000	-0.976369
746.510000	-0.741301
746.710000	-0.217263
746.910000	0.023773
747.110000	-0.617001
747.310000	-0.996925
747.510000	-0.666209
747.709000	-0.370730
747.909000	-0.431743
748.109000	-0.153145
748.309000	-0.501580
748.509000	-0.858150
748.709000	-0.922038
748.909000	-0.536202
749.109000	-0.506273
749.308000	0.063887
749.508000	-0.299713
749.708000	-0.523232
749.908000	-0.216980
750.108000	-0.177860
750.308000	-0.933033
750.508000	-0.164389
750.708000	-0.677424
750.908000	-1.090888
751.107000	-0.505432
751.307000	0.192874
751.507000	-0.330889
751.707000	-0.363443
751.907000	-0.379027
752.107000	-0.240273
752.307000	-0.766136
752.507000	-0.608730
752.706000	-0.574974
752.906000	0.348242
753.106000	-0.511136
753.306000	-1.103136
753.506000	-0.094427
753.706000	-0.391227
753.906000	-0.203530
754.106000	-0.034593
754.305000	-0.185239
754.505000	-0.181949
754.705000	-0.357536
754.905000	-0.384673
755.105000	-0.198712
755.305000	-1.007146
755.505000	-0.822718
755.705000	-0.299335
755.905000	-0.453808
756.104000	-1.053652
756.304000	-1.391690
756.504000	-1.537413
756.704000	-0.396634
756.904000	-0.198592
757.104000	-0.570147
757.304000	-0.578446
757.504000	-0.070993
757.703000	-0.480476
757.903000	-0.039876
758.103000	0.234259
758.303000	-0.275773
758.503000	-0.504949
758.703000	-0.596931
758.903000	-0.786783
759.103000	-0.365171
759.303000	-0.279372
759.502000	-0.404012
759.702000	-0.116528
759.902000	-0.578396
760.102000	-0.587822
760.302000	-0.646281
760.502000	-0.286378
760.702000	-0.198175
760.902000	-0.481149
761.101000	-0.802332
761.301000	-1.099767
761.501000	-0.824279
761.701000	-0.911294
761.901000	-0.491114
762.101000	-0.148223
762.301000	-0.430752
762.501000	-0.849100
762.700000	-0.885945
762.900000	-0.878025
763.100000	-0.540938
763.300000	-0.224380
763.500000	-0.535398
763.703000	-0.698813
763.905000	-1.024843
764.108000	-0.217181
764.311000	-0.575066
764.513000	-0.738240
764.716000	-0.448419
764.919000	-0.402944
765.121000	-0.998114
765.324000	-1.156619
765.527000	-0.943076
765.729000	-0.702215
765.932000	0.100722
766.135000	-0.123539
766.337000	-0.449541
766.540000	-0.535955
766.743000	-0.244727
766.945000	-0.812148
767.148000	-1.199154
767.351000	-1.062057
767.553000	-0.288627
767.756000	-0.632904
767.958000	-0.998270
768.161000	-0.573148
768.364000	-0.894847
768.566000	-1.191124
768.769000	-0.656609
768.972000	-0.309154
769.174000	-0.780465
769.377000	-1.337403
769.580000	-1.357762
769.782000	-0.516918
769.985000	-0.979226
770.188000	-1.993013
770.390000	-1.061540
770.593000	0.546440
770.796000	0.250896
770.998000	-0.420761
771.201000	-0.850371
771.404000	-0.439521
771.606000	-0.797125
771.809000	-0.534504
772.012000	-0.441971
772.214000	-1.454481
772.417000	-1.494772
772.620000	-0.405435
772.822000	-0.744577
773.025000	-0.968753
773.228000	-0.916692
773.430000	-0.738353
773.633000	-0.478452
773.836000	-0.461060
774.038000	-0.290723
774.241000	-0.526058
774.444000	-0.750187
774.646000	0.185127
774.849000	-0.310151
775.052000	-0.519255
775.254000	-0.351717
775.457000	-0.715538
775.659000	-0.717252
775.862000	-0.972992
776.065000	-0.677462
776.267000	-0.010074
776.470000	0.357848
776.673000	-0.433581
776.875000	0.072937
777.078000	-0.014749
777.281000	-0.838310
777.483000	-0.168010
777.686000	-0.066028
777.889000	-0.340736
778.091000	-0.066327
778.294000	-0.989751
778.497000	-0.953662
778.699000	-0.856270
778.902000	-0.868575
779.105000	-0.643502
779.307000	0.276181
779.510000	-0.702351
779.713000	-0.393183
779.915000	-0.678964
780.118000	0.355002
780.321000	0.521752
780.523000	-0.453426
780.726000	-0.949161
780.929000	-1.020266
781.131000	-0.940746
781.334000	-1.356028
781.537000	-1.388631
781.739000	-0.419085
781.942000	-0.953322
782.145000	-1.509417
782.347000	-1.457153
782.550000	-1.051450
782.753000	-1.079190
782.955000	-1.013943
783.158000	-0.916002
783.361000	-0.645029
783.563000	-0.610975
783.766000	-0.715304
783.968000	0.988851
784.171000	0.875245
784.374000	-0.424370
784.576000	-0.463616
784.779000	-0.222107
784.982000	0.097855
785.184000	-0.592305
785.387000	-0.085597
785.590000	0.575980
785.792000	0.278597
785.995000	0.094008
786.198000	-0.041070
786.400000	-0.599542
786.603000	-0.510300
786.806000	-0.604235
787.008000	-0.367933
787.211000	-0.303682
787.414000	-1.043746
787.616000	-0.844454
787.819000	-0.724213
788.022000	-1.408564
788.224000	-0.783232
788.427000	-1.392406
788.630000	-0.837759
788.832000	-0.457396
789.035000	-1.111977
789.238000	-1.677550
789.440000	-1.304556
789.643000	-0.099110
789.846000	-0.663652
790.048000	-0.473258
790.251000	-0.229419
790.454000	-0.513865
790.656000	0.201729
790.859000	-0.522167
791.062000	-0.956381
791.264000	-0.225336
791.467000	-1.122019
791.669000	-1.763651
791.872000	-0.781317
792.075000	-1.238554
792.277000	-0.912212
792.480000	-0.599444
792.683000	-1.120623
792.885000	-1.449445
793.088000	-1.131126
793.291000	-1.293518
793.493000	-1.333175
793.696000	-0.507466
793.899000	-0.246949
794.101000	-0.654701
794.304000	-0.785054
794.507000	-0.329115
794.709000	-0.216783
794.912000	-0.802401
795.115000	-1.080606
795.317000	-0.738645
795.520000	-0.491315
795.723000	-0.744866
795.925000	-1.288168
796.128000	-1.483430
796.331000	-0.945009
796.533000	-1.277312
796.736000	-0.670060
796.939000	-0.671664
797.141000	-0.890136
797.344000	-0.151278
797.547000	-0.017805
797.749000	-0.212855
797.952000	-0.706770
798.155000	-1.135514
798.357000	-1.558366
798.560000	-1.448439
798.763000	-0.520720
798.965000	-0.745922
799.168000	-0.765075
799.371000	-0.556347
799.573000	-0.848104
799.776000	-1.526825
799.978000	-1.492138
800.181000	-0.544883
800.384000	0.996293
800.586000	0.228686
800.789000	-1.356592
800.992000	-1.418808
801.194000	-1.554242
801.397000	-1.500588
801.600000	-1.187449
801.802000	0.103158
802.005000	-0.193020
802.208000	-1.563735
802.410000	-0.647794
802.613000	-0.662355
802.816000	-0.897448
803.018000	-1.498947
803.221000	-1.266362
803.424000	0.181622
803.626000	-0.237420
803.829000	-0.741785
804.032000	0.278013
804.234000	1.026195
804.437000	-0.537973
804.640000	-0.829524
804.842000	-0.747801
805.045000	-1.177704
805.248000	-0.957397
805.450000	-0.980495
805.653000	-0.920204
805.856000	-0.991672
806.058000	0.035136
806.261000	-1.082074
806.464000	-1.064922
806.666000	-0.530869
806.869000	-1.036682
807.072000	-2.255705
807.274000	-2.410444
807.477000	-1.249083
807.679000	-0.887144
807.882000	-1.511981
808.085000	-1.211780
808.287000	-0.367871
808.490000	-1.283791
808.693000	-1.147629
808.895000	-0.805865
809.098000	-0.750092
809.301000	-0.727556
809.503000	-0.963382
809.706000	-0.108751
809.909000	0.118847
810.111000	-0.032919
810.314000	-0.464453
810.517000	-1.101703
810.719000	-1.317792
810.922000	-0.908222
811.125000	-0.071380
811.327000	0.037176
811.530000	-0.458176
811.735000	-0.990788
811.940000	-1.334309
812.146000	-1.074784
812.351000	-0.292323
812.556000	-0.520344
812.761000	-1.368123
812.967000	-0.315072
813.172000	-0.347389
813.377000	-0.558068
813.582000	0.163132
813.788000	-0.405346
813.993000	-1.481220
814.198000	-0.576668
814.403000	-1.343048
814.609000	-0.560021
814.814000	-0.662762
815.019000	0.305433
815.224000	0.051990
815.429000	-1.121863
815.635000	-0.533078
815.840000	-0.533656
816.045000	-0.617314
816.250000	-0.136950
816.456000	-1.223792
816.661000	-2.109502
816.866000	-1.628680
817.071000	-1.654987
817.277000	-2.380889
817.482000	-1.372307
817.687000	-0.724272
817.892000	-0.811456
818.097000	-0.188908
818.303000	0.325029
818.508000	0.539272
818.713000	1.674854
818.918000	0.520635
819.124000	0.235865
819.329000	-0.961484
819.534000	-1.069781
819.739000	-1.048781
819.945000	-1.307980
820.150000	-0.882151
820.355000	-0.670372
820.560000	-0.405967
820.766000	-0.449700
820.971000	-0.609737
821.176000	-2.096221
821.381000	-2.726810
821.586000	-1.591778
821.792000	-0.160312
821.997000	-0.659194
822.202000	-0.891366
822.407000	-1.445606
822.613000	-1.717717
822.818000	-1.102443
823.023000	-0.651176
823.228000	-0.839064
823.434000	-0.155640
823.639000	0.167745
823.844000	-0.790775
824.049000	-0.112208
824.255000	0.042955
824.460000	-0.663697
824.665000	-1.081871
824.870000	-0.083733
825.075000	-0.413205
825.281000	-0.219238
825.486000	0.889706
825.691000	-1.423564
825.896000	-2.601081
826.102000	-0.994971
826.307000	-0.807341
826.512000	-1.283452
826.717000	-0.935324
826.923000	-1.007079
827.128000	-0.624650
827.333000	-1.526812
827.538000	-0.669899
827.744000	0.107507
827.949000	-0.849092
828.154000	-0.626127
828.359000	-0.001561
828.564000	-0.668165
828.770000	-0.883546
828.975000	0.314125
829.180000	-0.382351
829.385000	-1.888827
829.591000	-1.283625
829.796000	-0.801873
830.001000	-0.859530
830.206000	-1.465493
830.412000	-1.383647
830.617000	-1.250062
830.822000	-0.123040
831.027000	-0.752747
831.232000	-1.472374
831.438000	-1.278197
831.643000	-0.762598
831.848000	-1.092565
832.053000	-0.635646
832.259000	-0.850775
832.464000	-2.828998
832.669000	-2.333107
832.874000	-1.815739
833.080000	-1.740566
833.285000	0.073336
833.490000	-0.268533
833.695000	-1.873641
833.901000	-1.427024
834.106000	-1.623477
834.311000	-1.275380
834.516000	-0.477938
834.721000	-0.993767
834.927000	-0.182056
835.132000	-0.647050
835.337000	0.972021
835.542000	-0.123092
835.748000	-1.723406
835.953000	-0.010418
836.158000	-0.254123
836.363000	-0.726983
836.569000	-0.618147
836.774000	-1.342554
836.979000	-1.794604
837.184000	-2.339003
837.390000	-1.926414
837.595000	-1.175664
837.800000	-0.768343
838.005000	-0.674400
838.210000	-0.961796
838.416000	-1.352812
838.621000	-0.995213
838.826000	-1.202189
839.031000	-1.126716
839.237000	-1.692651
839.442000	-2.409385
839.647000	-2.497192
839.852000	-1.764386
840.058000	-1.743122
840.263000	-1.668359
840.468000	-2.429988
840.673000	-1.484833
840.878000	-1.124417
841.084000	-1.644414
841.289000	-1.031046
841.494000	1.750490
841.699000	1.576684
841.905000	0.509885
842.110000	0.560283
842.315000	-1.672968
842.520000	-1.079850
842.726000	-1.388419
842.931000	-1.903229
843.136000	-0.868037
843.341000	-2.386967
843.547000	-1.414542
843.752000	-1.232119
843.957000	-1.955112
844.162000	-1.797585
844.367000	-1.260659
844.573000	-0.564900
844.778000	-0.395961
844.983000	-0.574664
845.188000	-0.398968
845.394000	-2.014862
845.599000	-1.760175
845.804000	-1.485515
846.009000	-0.536948
846.215000	-1.847467
846.420000	-1.801617
846.625000	-0.501852
846.830000	0.252056
847.036000	-1.166303
847.241000	-1.694312
847.446000	-0.022561
847.651000	-0.784711
847.856000	-2.059559
848.062000	-1.659205
848.267000	0.081317
848.472000	-1.163306
848.677000	-2.572295
848.883000	-0.734891
849.088000	0.991893
849.293000	-0.522319
849.498000	-1.274445
849.704000	-0.374261
849.909000	-0.940209
850.114000	-2.155514
850.319000	-1.038500
850.524000	-1.044211
850.730000	-1.082546
850.935000	-1.010963
851.140000	-0.034803
851.345000	-0.154415
851.551000	-0.340299
851.756000	0.250018
851.961000	-1.156662
852.166000	-1.630288
852.372000	-1.072030
852.577000	-1.124302
852.782000	-1.446260
852.987000	-0.069205
853.193000	-0.685583
853.398000	-0.573731
853.603000	-1.720545
853.808000	-2.699032
854.013000	-1.404464
854.219000	-0.036252
854.424000	1.658122
854.629000	1.205875
854.834000	-1.470938
855.040000	-0.752883
855.245000	-0.278510
855.450000	-2.939451
855.655000	-3.921834
855.861000	-3.482696
856.066000	-2.493473
856.271000	-2.532630
856.476000	-0.437272
856.682000	-1.264948
856.887000	-4.046157
857.092000	-2.577856
857.297000	0.104383
857.502000	-0.251964
857.708000	-1.228931
857.913000	-0.384111
858.118000	-0.796973
858.323000	-0.883834
858.529000	-1.039190
858.734000	-1.465110
858.939000	-1.251197
859.144000	-1.948838
859.350000	-2.861619
859.555000	-2.638676
859.760000	-0.530122
859.965000	0.341044
860.171000	-1.825945
860.376000	-0.633459
860.581000	-2.396715
860.786000	-4.848445
860.991000	-4.156416
861.197000	-2.615870
861.402000	-0.805069
861.607000	-1.784329
861.812000	-2.963995
862.018000	-2.975365
862.223000	-1.802269
862.428000	-0.971466
862.633000	-0.091834
862.839000	-0.875324
863.044000	-1.710928
863.249000	-2.829182
863.454000	-0.764844
863.659000	-1.635412
863.865000	-2.477035
864.070000	-1.948176
864.275000	-2.526925
864.480000	-2.183730
864.686000	-3.985326
864.891000	-3.289115
865.096000	-0.824727
865.301000	-0.401179
865.507000	-0.310004
865.712000	-0.243176
865.917000	-1.360860
866.122000	-0.393727
866.328000	-3.460578
866.533000	-3.173596
866.738000	-0.179099
866.943000	-0.179476
867.148000	0.530517
867.354000	-2.221405
867.559000	-3.641843
867.764000	-1.914317
867.969000	-0.796341
868.175000	-2.139532
868.380000	-2.954612
868.585000	-3.808913
868.790000	-1.499725
868.996000	-1.636379
869.201000	-3.292627
869.406000	-3.973299
869.611000	-2.842899
869.817000	-2.541864
870.022000	1.862359
870.227000	-0.274045
870.432000	-2.412567
870.637000	-0.864463
870.843000	-1.866072
871.048000	-2.025926
871.253000	0.257363
871.458000	-1.078275
871.664000	-3.191042
871.869000	-3.415847
872.074000	-2.894953
872.279000	-1.802206
872.485000	-2.051309
872.690000	-2.090017
872.895000	-2.368098
873.100000	-2.670631
873.306000	-2.862591
873.511000	-1.912597
873.716000	-0.428316
873.921000	-2.108722
874.126000	-2.476229
874.332000	-2.010308
874.537000	-0.911578
874.742000	-0.908635
874.947000	-1.359486
875.153000	0.650336
875.358000	-0.907615
875.563000	-1.716948
875.768000	-4.305691
875.974000	-4.496194
876.179000	-0.868882
876.384000	-0.540945
876.589000	-2.221690
876.794000	-2.080412
877.000000	-3.169568
877.205000	-4.443270
877.410000	-1.544023
877.615000	-3.287918
877.821000	-5.273055
878.026000	-3.205498
878.231000	-3.689853
878.436000	-4.133354
878.642000	-3.313886
878.847000	-1.850231
879.052000	-0.460266
879.257000	-2.900851
879.463000	-4.157801
879.668000	-3.136614
879.873000	-0.665582
880.078000	-3.223201
880.283000	-4.951933
880.489000	-5.135103
880.694000	-4.320716
880.899000	-2.363803
881.104000	-0.697462
881.310000	1.249305
881.515000	-0.037199
881.720000	1.250871
881.925000	2.604485
882.131000	3.542185
882.336000	-0.209563
882.541000	-3.690995
882.746000	-3.256860
882.952000	-3.843910
883.157000	-3.783698
883.362000	-3.754617
883.567000	-4.190817
883.772000	-4.070583
883.978000	-3.349250
884.183000	-1.458425
884.388000	-1.490418
884.593000	-4.359727
884.799000	0.138741
885.004000	-0.021646
885.209000	-1.645820
885.414000	-1.316460
885.620000	-4.278647
885.825000	-1.189553
886.030000	-1.660662
886.235000	-2.825075
886.440000	-2.405237
886.646000	-5.415862
886.851000	-4.921517
887.056000	-0.340116
887.261000	-1.107197
887.467000	-4.435544
887.672000	-1.554133
887.877000	-2.797265
888.082000	-5.712886
888.288000	-5.863258
888.493000	-7.652695
888.698000	-5.525692
888.903000	-2.241415
889.109000	-3.718972
889.314000	-1.043907
889.519000	-1.980104
889.724000	0.476523
889.929000	-1.485103
890.135000	-2.434251
890.340000	-2.374686
890.545000	-3.733279
890.750000	-5.143133
890.956000	-3.382877
891.161000	-1.057084
891.366000	-3.622240
891.571000	-2.434872
891.777000	-2.123179
891.982000	-0.201130
892.187000	-0.756478
892.392000	0.193609
892.598000	-0.182793
892.803000	-1.186629
893.008000	-3.308055
893.213000	-3.279346
893.418000	-3.624259
893.624000	-4.046709
893.829000	-5.989779
894.034000	-3.023566
894.239000	-1.287060
894.445000	-4.047288
894.650000	-4.190209
894.855000	-4.113652
895.060000	-4.678307
895.266000	-4.071402
895.471000	-5.039844
895.676000	-1.530432
895.881000	-0.815490
896.087000	-2.917189
896.292000	-3.648217
896.497000	0.374610
896.702000	-1.911659
896.907000	-3.615084
897.113000	0.670060
897.318000	0.817144
897.523000	0.059125
897.728000	-2.547906
897.934000	-2.814371
898.139000	-2.546698
898.344000	-0.303685
898.549000	-1.595899
898.755000	-3.235088
898.960000	-3.991897
899.165000	-5.945006
899.370000	-1.767955
899.575000	1.851049
899.781000	-3.266046
899.986000	-3.922961
900.191000	-1.965197
900.396000	-3.092383
900.602000	-2.445267
900.807000	-2.708356
901.012000	-2.298653
901.217000	-0.793674
901.423000	-3.599735
901.628000	-4.829242
901.833000	0.040784
902.038000	0.109603
902.244000	-3.488551
902.449000	-3.028082
902.654000	-3.360904
902.859000	-2.106039
903.064000	-0.677534
903.270000	-0.121091
903.475000	-4.036344
903.680000	-6.313738
903.885000	-6.059006
904.091000	-5.288223
904.296000	-6.327520
904.501000	-5.211438
904.706000	-4.250303
904.912000	-0.125366
905.117000	-2.522663
905.322000	-5.227842
905.527000	-4.742027
905.733000	-4.088796
905.938000	-3.992079
906.143000	-4.114316
906.348000	-5.851872
906.553000	-1.477205
906.759000	0.069824
906.964000	-1.608915
907.169000	-4.163394
907.374000	-6.517800
907.580000	-4.403732
907.785000	-3.733873
907.990000	23.698763
908.195000	15.580719
908.401000	-1.122876
908.606000	-8.525345
908.811000	-9.717903
909.016000	-2.821292
909.221000	-2.594809
909.427000	-3.398771
909.632000	-5.126997
909.837000	-4.601560
910.042000	-5.794072
910.248000	-8.219844
910.453000	-3.523516
910.658000	-3.713988
910.863000	-4.309400
911.069000	-5.856115
911.274000	-1.933325
911.479000	-0.116381
911.684000	-6.760722
911.890000	-3.714412
912.095000	-3.551470
912.300000	-7.204206
912.506000	-6.195164
912.711000	-6.044485
912.917000	-2.799709
913.123000	-1.774923
913.328000	-2.790813
913.534000	-3.251045
913.740000	6.501012
913.946000	2.692004
914.151000	-4.702883
914.357000	-5.967056
914.563000	-1.532093
914.768000	-5.951680
914.974000	-7.628944
915.180000	-6.042989
915.385000	-4.945891
915.591000	-8.230737
915.797000	-3.104305
916.002000	0.024702
916.208000	-4.032958
916.414000	-6.190459
916.620000	-7.075704
916.825000	-3.505197
917.031000	-3.664189
917.237000	-9.767811
917.442000	-6.415096
917.648000	-6.817173
917.854000	-7.387851
918.059000	-0.006435
918.265000	0.250644
918.471000	-3.720563
918.676000	-7.252946
918.882000	-9.305087
919.088000	-7.478765
919.294000	-12.080787
919.499000	-7.521696
919.705000	-1.249247
919.911000	-3.230440
920.116000	-1.261697
920.322000	-8.045140
920.528000	-6.752709
920.733000	-8.964948
920.939000	-9.280832
921.145000	-7.659697
921.350000	-6.806673
921.556000	-5.051086
921.762000	-5.428155
921.968000	-5.727908
922.173000	-7.232900
922.379000	-9.319293
922.585000	-4.986827
922.790000	-5.905953
922.996000	-7.786709
923.202000	-9.403501
923.407000	-9.200765
923.613000	-6.705907
923.819000	-3.801993
924.024000	-3.591843
924.230000	-1.886156
924.436000	-5.301035
924.642000	5.389938
924.847000	1.500707
925.053000	-6.614747
925.259000	-10.802292
925.464000	-4.252542
925.670000	-5.572077
925.876000	-6.736771
926.081000	-7.445436
926.287000	-4.448357
926.493000	-3.356786
926.698000	-5.261810
926.904000	-3.582758
927.110000	-6.028623
927.316000	-5.201941
927.521000	2.574192
927.727000	-3.919349
927.933000	-6.652514
928.138000	-5.506466
928.344000	-11.174739
928.550000	-6.641621
928.755000	-1.943973
928.961000	-7.219638
929.167000	-6.659066
929.372000	1.292007
929.578000	-0.490058
929.784000	-5.870844
929.990000	-9.572945
930.195000	-7.067743
930.401000	-5.823299
930.607000	-4.043992
930.812000	-3.902429
931.018000	-7.282619
931.224000	-12.816270
931.429000	-8.894277
931.635000	-12.522944
931.841000	-13.251625
932.046000	-8.100719
932.252000	-2.736916
932.458000	4.213657
932.664000	-1.017287
932.869000	-7.503128
933.075000	-10.310889
933.281000	-9.329467
933.486000	-1.749373
933.692000	-5.052118
933.898000	-9.723649
934.103000	-2.376307
934.309000	-7.001120
934.515000	-4.608299
934.720000	-1.530892
934.926000	0.465234
935.132000	-0.063492
935.338000	-2.043063
935.543000	-10.752473
935.749000	-13.427021
935.955000	-14.368984
936.160000	-12.420803
936.366000	-3.091611
936.572000	-3.152538
936.777000	-2.634261
936.983000	0.514069
937.189000	-4.368528
937.394000	-10.931682
937.600000	-2.949431
937.806000	3.248682
938.012000	-6.268735
938.217000	3.695327
938.423000	0.672144
938.629000	-8.290978
938.834000	-15.685115
939.040000	-15.512242
939.246000	-9.594753
939.451000	-12.691227
939.657000	-8.897221
939.863000	-12.732920
940.068000	-4.561967
940.274000	-8.162625
940.480000	-5.200219
940.686000	-4.669791
940.891000	-7.248961
941.097000	18.830803
941.303000	4.626383
941.508000	-8.429952
941.714000	-5.347150
941.920000	-17.447491
942.125000	-5.661980
942.331000	-2.051295
942.537000	2.602155
942.742000	0.058739
942.948000	-9.928410
943.154000	-13.730269
943.360000	-24.089702
943.565000	-9.077721
943.771000	3.160550
943.977000	3.739710
944.182000	-16.507503
944.388000	-16.277995
944.594000	-1.388628
944.799000	6.304506
945.005000	-2.515954
945.211000	1.808957
945.416000	-2.099275
945.622000	-16.186879
945.828000	-13.389546
946.034000	-0.333853
946.239000	-0.815311
946.445000	-9.459633
946.651000	-21.321235
946.856000	-18.784167
947.062000	-2.301201
947.268000	0.619014
947.473000	-14.677653
947.679000	-21.420997
947.885000	-7.334057
948.090000	-1.391673
948.296000	11.749557
948.502000	-1.151549
948.708000	-10.814361
948.913000	-13.260500
949.119000	-2.747111
949.325000	-9.289801
949.530000	-21.640696
949.736000	-25.777043
949.942000	-15.642527
950.147000	-14.845122
950.353000	-13.076336
950.559000	-10.783492
950.764000	10.602061
950.970000	5.245298
951.176000	-9.480121
951.382000	-15.960366
951.587000	-4.360700
951.793000	2.780615
951.999000	2.999675
952.204000	-11.158555
952.410000	-24.343874
952.616000	-12.684889
952.821000	-9.235124
953.027000	-16.845421
953.233000	-18.202372
953.438000	-18.510478
953.644000	0.778315
953.850000	-4.973924
954.056000	-11.019066
954.261000	-11.267538
954.467000	-0.288663
954.673000	6.733381
954.878000	-4.624782
955.084000	-4.540057
955.290000	-19.631829
955.495000	-22.603432
955.701000	-18.819221
955.907000	1.183873
956.112000	-0.943495
956.318000	5.940669
956.524000	4.618111
956.730000	-9.343821
956.935000	-11.545051
957.141000	-15.032331
957.347000	-4.018131
957.552000	-10.386757
957.758000	-24.004939
957.964000	-32.998390
958.169000	-0.115938
958.375000	2.694224
958.581000	-13.751175
958.786000	-25.439937
958.992000	-28.936520
959.198000	-9.976133
959.404000	-5.674741
959.609000	-11.607810
959.815000	-16.443870
960.021000	-0.121229
960.226000	-9.498827
960.432000	-30.491436
960.638000	-18.863641
960.843000	-11.797774
961.049000	-12.675778
961.255000	-2.111316
961.460000	-14.969837
961.666000	-34.611559
961.872000	-22.754105
962.078000	-21.914398
962.283000	-29.029367
962.489000	-26.274962
962.695000	-17.254051
962.900000	-14.629494
963.106000	-16.100308
963.312000	-19.855052
963.517000	-20.103870
963.723000	-25.760684
963.929000	-2.494217
964.134000	6.369111
964.340000	-17.030658
964.546000	-22.437930
964.752000	-26.128799
964.957000	-30.065851
965.163000	-6.453820
965.369000	-9.381374
965.574000	-5.529006
965.780000	-9.486207
966.000000	-17.525421
966.220000	-14.253735
966.440000	-12.147053
966.661000	0.585414
966.881000	-20.332256
967.101000	-38.578473
967.321000	-38.380099
967.541000	-13.286844
967.761000	-18.831972
967.981000	-11.176182
968.202000	-9.644380
968.422000	1.133130
968.642000	-1.180991
968.862000	-2.909343
969.082000	-12.303653
969.302000	-4.252916
969.522000	-9.003260
969.743000	2.061344
969.963000	-18.427792
970.183000	-29.949517
970.403000	-27.002330
970.623000	-23.730021
970.843000	-0.027551
971.063000	-2.126183
971.284000	-23.389366
971.504000	-37.122911
971.724000	-15.325110
971.944000	-28.991445
972.164000	-40.166903
972.384000	-29.952284
972.604000	-44.243441
972.825000	-51.451036
973.045000	-32.777333
973.265000	21.496592
973.485000	12.519808
973.705000	-6.568698
973.925000	-17.935868
974.145000	-54.103133
974.365000	-20.424896
974.586000	-14.025026
974.806000	-33.698909
975.026000	-1.309126
975.246000	-13.845352
975.466000	-32.471885
975.686000	-18.304744
975.906000	-28.343191
976.127000	-52.262688
976.347000	-39.332669
976.567000	-7.004858
976.787000	-10.190059
977.007000	-21.249991
977.227000	-23.673253
977.447000	-27.754515
977.668000	-48.685739
977.888000	-35.159321
978.108000	-33.493907
978.328000	-19.935385
978.548000	11.089033
978.768000	10.036658
978.988000	-7.365978
979.209000	-20.426335
979.429000	-23.177706
979.649000	-13.462399
979.869000	-37.338836
980.089000	-47.738211
980.309000	-55.368000
980.529000	-58.629537
980.750000	-31.082353
980.970000	-45.896335
981.190000	-33.867240
981.410000	-31.112135
981.630000	-36.428253
981.850000	-25.363369
982.070000	-21.421755
982.291000	-54.587277
982.511000	-51.734509
982.731000	-11.453127
982.951000	-30.341524
983.171000	-34.450620
983.391000	-24.831832
983.611000	7.164172
983.832000	-21.022620
984.052000	-56.606168
984.272000	-31.747289
984.492000	-17.035985
984.712000	-33.986517
984.932000	-53.384405
985.152000	-58.343363
985.373000	-46.155805
985.593000	-20.810970
985.813000	-29.663248
986.033000	-40.856482
986.253000	-3.035498
986.473000	6.813922
986.693000	-33.910609
986.914000	-42.885332
987.134000	4.538123
987.354000	-37.142122
987.574000	181.557222
987.794000	107.000321
988.014000	-45.374608
988.234000	-26.777610
988.455000	-16.029291
988.675000	-17.493518
988.895000	-28.129493
989.115000	-40.364715
989.335000	-21.486389
989.555000	-7.092948
989.775000	-44.409314
989.995000	-46.380993
990.216000	-33.774708
990.436000	-26.581628
990.656000	7.257153
990.876000	-25.719749
991.096000	-14.971554
991.316000	11.696926
991.536000	-20.682047
991.757000	-34.586665
991.977000	-76.904288
992.197000	-24.221900
992.417000	-41.123595
992.637000	-86.871931
992.857000	-94.575127
993.077000	-89.217003
993.298000	-44.294563
993.518000	-42.854271
993.738000	-93.345328
993.958000	-55.559742
994.178000	-57.534400
994.398000	-41.100068
994.618000	-82.141317
994.839000	-134.171972
995.059000	-33.274961
995.279000	30.907104
995.499000	-17.794627
995.719000	-11.207174
995.939000	-31.685084
996.159000	-39.398410
996.380000	-33.180223
996.600000	-75.687745
996.820000	-31.914384
997.040000	2.752510
997.260000	-60.396734
997.480000	-46.855332
997.700000	-100.093113
997.921000	-69.299729
998.141000	16.665624
998.361000	-11.633154
998.581000	-58.617253
998.801000	-90.827022
999.021000	-72.225669
999.241000	-40.113754
999.462000	-63.109670
999.682000	-113.608209
999.902000	-76.757967
1000.122000	-85.641471
1000.342000	-134.148346
1000.562000	-69.189864
1000.782000	-67.467933
1001.003000	-1024.505312
