Wavelength	Irradiance
(nm)	(mW/cm2/nm)

294.396000	0.000000
294.577000	0.000000
294.757000	0.000000
294.938000	-0.000000
295.118000	-0.000000
295.299000	0.000000
295.479000	0.000000
295.660000	-0.000000
295.840000	-0.000000
296.021000	-0.000000
296.202000	-0.000000
296.382000	-0.000000
296.563000	-0.000000
296.743000	-0.000000
296.924000	-0.000000
297.104000	-0.000000
297.285000	-0.000000
297.465000	-0.000000
297.646000	-0.000000
297.826000	-0.000000
298.007000	0.000000
298.187000	0.000000
298.368000	-0.000000
298.548000	0.000000
298.729000	0.000000
298.909000	-0.000000
299.090000	-0.000000
299.270000	-0.000000
299.451000	-0.000000
299.631000	-0.000000
299.812000	0.000000
299.992000	0.000000
300.173000	0.000000
300.353000	-0.000000
300.534000	0.000000
300.714000	0.000000
300.895000	0.000000
301.075000	-0.000000
301.256000	0.000000
301.436000	-0.000000
301.617000	-0.000000
301.797000	-0.000000
301.978000	-0.000000
302.159000	0.000000
302.339000	0.000000
302.520000	-0.000000
302.700000	-0.000000
302.881000	0.000000
303.061000	0.000000
303.242000	0.000000
303.422000	0.000000
303.603000	-0.000000
303.783000	-0.000000
303.964000	0.000000
304.144000	0.000000
304.325000	0.000000
304.505000	0.000000
304.686000	0.000000
304.866000	0.000000
305.047000	0.000000
305.227000	-0.000000
305.408000	-0.000000
305.588000	-0.000000
305.769000	-0.000000
305.949000	-0.000000
306.130000	-0.000000
306.310000	-0.000000
306.491000	-0.000000
306.671000	-0.000000
306.852000	-0.000000
307.032000	-0.000000
307.213000	-0.000000
307.393000	-0.000000
307.574000	0.000000
307.755000	0.000000
307.935000	0.000000
308.116000	-0.000000
308.296000	-0.000000
308.477000	-0.000000
308.657000	0.000000
308.838000	0.000000
309.018000	0.000000
309.199000	0.000000
309.379000	0.000000
309.560000	0.000000
309.740000	-0.000000
309.921000	-0.000000
310.101000	0.000000
310.282000	-0.000000
310.462000	-0.000000
310.643000	-0.000000
310.823000	-0.000000
311.004000	-0.000000
311.184000	0.000000
311.365000	0.000000
311.545000	0.000000
311.726000	-0.000000
311.906000	0.000000
312.087000	0.000000
312.267000	-0.000000
312.448000	-0.000000
312.628000	-0.000000
312.809000	0.000000
312.989000	-0.000000
313.170000	-0.000000
313.344000	-0.000000
313.518000	-0.000000
313.691000	-0.000000
313.865000	-0.000000
314.039000	-0.000000
314.213000	-0.000000
314.387000	-0.000000
314.560000	-0.000000
314.734000	-0.000000
314.908000	-0.000000
315.082000	0.000000
315.255000	0.000000
315.429000	0.000000
315.603000	0.000000
315.777000	-0.000000
315.951000	0.000000
316.124000	-0.000000
316.298000	-0.000000
316.472000	-0.000000
316.646000	-0.000000
316.820000	-0.000000
316.993000	-0.000000
317.167000	-0.000000
317.341000	-0.000000
317.515000	0.000000
317.688000	0.000000
317.862000	-0.000000
318.036000	-0.000000
318.210000	-0.000000
318.384000	-0.000000
318.557000	-0.000000
318.731000	-0.000000
318.905000	0.000000
319.079000	0.000000
319.253000	-0.000000
319.426000	0.000000
319.600000	0.000000
319.774000	-0.000000
319.948000	-0.000000
320.122000	0.000000
320.295000	-0.000000
320.469000	-0.000000
320.643000	-0.000000
320.817000	-0.000000
320.990000	-0.000000
321.164000	-0.000000
321.338000	-0.000000
321.512000	-0.000000
321.686000	-0.000000
321.859000	-0.000000
322.033000	0.000000
322.207000	0.000000
322.381000	0.000000
322.555000	0.000000
322.728000	-0.000000
322.902000	-0.000000
323.076000	-0.000000
323.250000	-0.000000
323.423000	-0.000000
323.597000	-0.000000
323.771000	-0.000000
323.945000	-0.000000
324.119000	-0.000000
324.292000	-0.000000
324.466000	-0.000000
324.640000	0.000000
324.814000	0.000000
324.988000	0.000000
325.161000	-0.000000
325.335000	-0.000000
325.509000	-0.000000
325.683000	0.000000
325.856000	-0.000000
326.030000	-0.000000
326.204000	-0.000000
326.378000	-0.000000
326.552000	-0.000000
326.725000	-0.000000
326.899000	-0.000000
327.073000	-0.000000
327.247000	-0.000000
327.421000	0.000000
327.594000	0.000000
327.768000	-0.000000
327.942000	-0.000000
328.116000	0.000000
328.289000	0.000000
328.463000	0.000000
328.637000	0.000000
328.811000	-0.000000
328.985000	-0.000000
329.158000	-0.000000
329.332000	-0.000000
329.506000	-0.000000
329.680000	-0.000000
329.854000	0.000000
330.027000	0.000000
330.201000	0.000000
330.375000	0.000000
330.549000	0.000000
330.723000	-0.000000
330.896000	-0.000000
331.070000	-0.000000
331.244000	-0.000000
331.418000	-0.000000
331.591000	-0.000000
331.765000	-0.000000
331.939000	-0.000000
332.113000	0.000000
332.287000	-0.000000
332.460000	0.000000
332.634000	0.000000
332.808000	-0.000000
332.982000	-0.000000
333.156000	-0.000000
333.329000	0.000000
333.503000	0.000000
333.677000	-0.000000
333.851000	-0.000000
334.024000	-0.000000
334.198000	-0.000000
334.372000	-0.000000
334.546000	-0.000000
334.720000	0.000000
334.893000	-0.000000
335.067000	0.000000
335.241000	0.000000
335.415000	0.000000
335.589000	-0.000000
335.762000	-0.000000
335.936000	-0.000000
336.110000	-0.000000
336.284000	-0.000000
336.458000	0.000000
336.631000	0.000000
336.805000	-0.000000
336.979000	-0.000000
337.153000	-0.000000
337.326000	-0.000000
337.500000	-0.000000
337.674000	0.000000
337.848000	-0.000000
338.022000	-0.000000
338.195000	-0.000000
338.369000	-0.000000
338.543000	-0.000000
338.717000	-0.000000
338.891000	-0.000000
339.064000	0.000000
339.238000	-0.000000
339.412000	-0.000000
339.586000	-0.000000
339.759000	-0.000000
339.933000	-0.000000
340.107000	0.000000
340.281000	-0.000000
340.455000	-0.000000
340.628000	-0.000000
340.802000	-0.000000
340.976000	0.000000
341.150000	-0.000000
341.324000	0.000000
341.497000	-0.000000
341.671000	-0.000000
341.845000	-0.000000
342.019000	-0.000000
342.192000	0.000000
342.366000	-0.000000
342.540000	-0.000000
342.714000	-0.000000
342.888000	-0.000000
343.061000	0.000000
343.235000	0.000000
343.409000	-0.000000
343.583000	-0.000000
343.757000	-0.000000
343.930000	-0.000000
344.104000	-0.000000
344.278000	0.000000
344.452000	0.000000
344.626000	-0.000000
344.799000	-0.000000
344.973000	-0.000000
345.147000	-0.000000
345.321000	-0.000000
345.494000	-0.000000
345.668000	0.000000
345.842000	0.000000
346.016000	-0.000000
346.190000	0.000000
346.363000	0.000000
346.537000	0.000000
346.711000	-0.000000
346.885000	-0.000000
347.059000	-0.000000
347.232000	-0.000000
347.406000	0.000000
347.580000	-0.000000
347.754000	-0.000000
347.927000	0.000000
348.101000	0.000000
348.275000	-0.000000
348.449000	-0.000000
348.623000	-0.000000
348.796000	0.000000
348.970000	0.000000
349.144000	-0.000000
349.318000	-0.000000
349.492000	0.000000
349.665000	-0.000000
349.839000	-0.000000
350.013000	-0.000000
350.187000	-0.000000
350.361000	-0.000000
350.534000	0.000000
350.708000	0.000000
350.882000	0.000000
351.056000	0.000000
351.229000	-0.000000
351.403000	-0.000000
351.577000	-0.000000
351.751000	-0.000000
351.925000	-0.000000
352.098000	-0.000000
352.272000	0.000000
352.446000	-0.000000
352.620000	-0.000000
352.794000	0.000000
352.967000	-0.000000
353.141000	0.000000
353.315000	0.000000
353.489000	-0.000000
353.662000	-0.000000
353.836000	-0.000000
354.010000	-0.000000
354.184000	0.000000
354.358000	-0.000000
354.531000	-0.000000
354.705000	-0.000000
354.879000	-0.000000
355.053000	-0.000000
355.227000	0.000000
355.400000	-0.000000
355.574000	0.000000
355.748000	0.000000
355.922000	-0.000000
356.095000	-0.000000
356.269000	-0.000000
356.443000	-0.000000
356.617000	-0.000000
356.791000	-0.000000
356.964000	-0.000000
357.138000	-0.000000
357.312000	-0.000000
357.486000	-0.000000
357.660000	0.000000
357.833000	0.000000
358.007000	-0.000000
358.181000	-0.000000
358.355000	-0.000000
358.529000	-0.000000
358.702000	-0.000000
358.876000	-0.000000
359.050000	-0.000000
359.224000	-0.000000
359.397000	-0.000000
359.571000	-0.000000
359.745000	-0.000000
359.919000	-0.000000
360.093000	-0.093176
360.266000	-0.014516
360.440000	0.270017
360.614000	0.322068
360.788000	0.111172
360.962000	-0.265895
361.135000	0.000788
361.309000	-0.157002
361.483000	-0.336700
361.657000	-0.190427
361.830000	-0.183419
362.004000	0.017195
362.178000	-0.298926
362.352000	-0.154193
362.526000	-0.040758
362.699000	-0.140506
362.873000	-0.478716
363.047000	-0.446164
363.221000	-0.212027
363.395000	-0.167305
363.568000	-0.362598
363.742000	-0.288052
363.916000	-0.329566
364.090000	-0.437432
364.263000	-0.283342
364.437000	-0.518846
364.611000	-0.237646
364.785000	-0.250596
364.959000	-0.297452
365.132000	-0.086131
365.306000	-0.159748
365.480000	-0.016811
365.656000	-0.096271
365.831000	-0.164109
366.007000	-0.120276
366.183000	-0.237104
366.358000	-0.482565
366.534000	-0.355278
366.710000	-0.262942
366.886000	-0.109723
367.061000	-0.054140
367.237000	0.064679
367.413000	-0.181575
367.588000	-0.493259
367.764000	-0.526231
367.940000	-0.449803
368.115000	-0.285624
368.291000	-0.267531
368.467000	-0.054059
368.643000	0.333759
368.818000	-0.045785
368.994000	-0.388845
369.170000	-0.338338
369.345000	-0.220978
369.521000	-0.171390
369.697000	-0.075923
369.872000	-0.131902
370.048000	-0.227824
370.224000	-0.207362
370.399000	-0.510001
370.575000	-0.483596
370.751000	-0.529299
370.927000	-0.558040
371.102000	-0.540651
371.278000	-0.470587
371.454000	-0.188415
371.629000	-0.008603
371.805000	-0.037245
371.981000	0.078274
372.156000	0.125705
372.332000	-0.055418
372.508000	-0.046830
372.683000	-0.037052
372.859000	-0.199973
373.035000	-0.134424
373.211000	0.447347
373.386000	0.078416
373.562000	-0.394488
373.738000	-0.312255
373.913000	-0.450055
374.089000	-0.383926
374.265000	-0.066664
374.440000	-0.057508
374.616000	0.069055
374.792000	-0.065287
374.968000	0.105179
375.143000	-0.151665
375.319000	-0.395333
375.495000	-0.304152
375.670000	-0.160632
375.846000	-0.094901
376.022000	-0.308989
376.197000	-0.104710
376.373000	-0.131308
376.549000	-0.272070
376.724000	-0.461983
376.900000	-0.186995
377.076000	0.048085
377.252000	0.278201
377.427000	0.270658
377.603000	-0.112043
377.779000	-0.178016
377.954000	-0.277342
378.130000	0.019433
378.306000	0.028965
378.481000	-0.231696
378.657000	-0.239774
378.833000	-0.239371
379.009000	0.010309
379.184000	0.028922
379.360000	-0.026819
379.536000	-0.036366
379.711000	0.067305
379.887000	-0.055107
380.063000	-0.128451
380.238000	-0.352701
380.414000	-0.045340
380.590000	-0.298034
380.765000	-0.343680
380.941000	-0.183275
381.117000	-0.182107
381.293000	-0.190811
381.468000	-0.360217
381.644000	-0.283126
381.820000	-0.081619
381.995000	-0.026855
382.171000	0.103277
382.347000	0.177496
382.522000	-0.239338
382.698000	-0.072635
382.874000	0.010099
383.050000	-0.239354
383.225000	0.130095
383.401000	0.241605
383.577000	-0.148230
383.752000	-0.328227
383.928000	-0.300123
384.104000	-0.373099
384.279000	-0.186231
384.455000	0.010003
384.631000	-0.217663
384.806000	-0.461524
384.982000	0.028266
385.158000	-0.072653
385.334000	-0.134934
385.509000	-0.126403
385.685000	-0.590236
385.861000	-0.396301
386.036000	-0.299736
386.212000	-0.333815
386.388000	-0.179771
386.563000	-0.224512
386.739000	-0.217775
386.915000	-0.601415
387.090000	-0.320045
387.266000	0.000914
387.442000	0.119602
387.618000	-0.098729
387.793000	-0.391917
387.969000	-0.501287
388.145000	-0.308651
388.320000	-0.249958
388.496000	-0.286383
388.672000	-0.729209
388.847000	-0.026141
389.023000	-0.198680
389.199000	-0.409466
389.375000	-0.026070
389.550000	-0.266747
389.726000	-0.169040
389.902000	-0.283635
390.077000	-0.158295
390.253000	-0.179022
390.429000	-0.397245
390.604000	-0.286661
390.780000	-0.240528
390.956000	-0.194307
391.131000	-0.282490
391.307000	-0.114316
391.483000	-0.167423
391.659000	-0.132422
391.834000	-0.078758
392.010000	-0.308419
392.186000	-0.308742
392.361000	-0.247349
392.537000	-0.315212
392.713000	0.027019
392.888000	0.288923
393.064000	0.000876
393.240000	-0.208837
393.416000	-0.407289
393.591000	-0.576423
393.767000	-0.587028
393.943000	-0.441027
394.118000	-0.085303
394.294000	0.078358
394.470000	-0.016318
394.645000	0.137838
394.821000	0.388356
394.997000	-0.110390
395.172000	-0.211954
395.348000	-0.297661
395.524000	-0.646508
395.700000	-0.385537
395.875000	-0.075203
396.051000	-0.016034
396.227000	-0.160680
396.402000	-0.272641
396.578000	-0.161121
396.754000	-0.363734
396.929000	-0.328346
397.105000	-0.108723
397.281000	-0.159242
397.457000	-0.284792
397.632000	-0.331666
397.808000	-0.459259
397.984000	-0.536106
398.159000	-0.436194
398.335000	-0.200424
398.511000	0.193358
398.686000	-0.032611
398.862000	-0.439347
399.038000	-0.537622
399.213000	-0.180562
399.389000	-0.356288
399.565000	-0.139962
399.741000	-0.057080
399.916000	-0.207975
400.092000	0.175375
400.268000	-0.032148
400.443000	-0.216044
400.619000	0.134047
400.795000	0.117827
400.970000	-0.197078
401.146000	-0.404805
401.322000	-0.007501
401.497000	0.417235
401.673000	-0.015905
401.849000	-0.241119
402.025000	-0.082248
402.200000	-0.189733
402.376000	-0.313875
402.552000	0.241993
402.727000	0.058767
402.903000	-0.263480
403.079000	-0.164476
403.254000	0.141455
403.430000	0.017256
403.606000	-0.221403
403.782000	-0.295108
403.957000	-0.337165
404.133000	-0.379361
404.309000	-0.180947
404.484000	0.132550
404.660000	0.050361
404.841000	-0.362656
405.023000	0.017253
405.204000	-0.065097
405.385000	-0.454452
405.566000	-0.304078
405.748000	-0.024147
405.929000	0.117990
406.110000	-0.073615
406.292000	-0.138391
406.473000	-0.122315
406.654000	-0.520452
406.835000	-0.246555
407.017000	-0.344203
407.198000	-0.169775
407.379000	0.049415
407.560000	-0.129206
407.742000	-0.171154
407.923000	-0.048584
408.104000	-0.335198
408.286000	-0.236372
408.467000	0.008975
408.648000	-0.211963
408.829000	-0.406941
409.011000	-0.227812
409.192000	-0.236897
409.373000	-0.031926
409.555000	-0.048306
409.736000	-0.161839
409.917000	-0.325698
410.098000	-0.226236
410.280000	-0.023345
410.461000	-0.119734
410.642000	-0.136056
410.823000	0.193950
411.005000	0.121675
411.186000	-0.208841
411.367000	-0.241303
411.549000	-0.241128
411.730000	-0.071754
411.911000	0.065194
412.092000	-0.087468
412.274000	-0.166451
412.455000	-0.079008
412.636000	0.048726
412.818000	-0.174241
412.999000	-0.378524
413.180000	-0.221808
413.361000	-0.294451
413.543000	-0.562739
413.724000	-0.497964
413.905000	-0.228802
414.087000	-0.435553
414.268000	-0.509245
414.449000	-0.329388
414.630000	-0.314884
414.812000	-0.526893
414.993000	-0.225657
415.174000	-0.014843
415.355000	-0.242879
415.537000	-0.460915
415.718000	-0.163719
415.899000	-0.155421
416.081000	-0.185893
416.262000	-0.030272
416.443000	-0.316669
416.624000	-0.315937
416.806000	-0.316545
416.987000	-0.248073
417.168000	-0.246587
417.350000	-0.362453
417.531000	-0.367956
417.712000	-0.306477
417.893000	-0.037624
418.075000	-0.075731
418.256000	-0.344460
418.437000	-0.176390
418.618000	-0.252503
418.800000	-0.052874
418.981000	-0.166983
419.162000	-0.211362
419.344000	-0.044990
419.525000	-0.129566
419.706000	-0.214135
419.887000	-0.098810
420.069000	0.169102
420.250000	-0.037483
420.431000	-0.098440
420.613000	-0.083572
420.794000	-0.352590
420.975000	0.046374
421.156000	-0.060174
421.338000	-0.090568
421.519000	-0.356873
421.700000	-0.319772
421.882000	-0.296824
422.063000	-0.181920
422.244000	0.258248
422.425000	0.091986
422.607000	-0.229684
422.788000	-0.213326
422.969000	-0.265003
423.150000	-0.288117
423.332000	-0.484369
423.513000	-0.280598
423.694000	-0.236207
423.876000	-0.159280
424.057000	0.061740
424.238000	0.054321
424.419000	-0.029925
424.601000	-0.191038
424.782000	-0.275153
424.963000	-0.105652
425.145000	-0.075454
425.326000	-0.082719
425.507000	0.053802
425.688000	-0.037319
425.870000	-0.419796
426.051000	-0.265039
426.232000	-0.113145
426.413000	-0.297130
426.595000	-0.303172
426.776000	-0.272653
426.957000	-0.304340
427.139000	-0.189123
427.320000	-0.144186
427.501000	0.023742
427.682000	-0.044965
427.864000	-0.022089
428.045000	0.214659
428.226000	0.077431
428.408000	-0.313259
428.589000	-0.136516
428.770000	-0.128597
428.951000	-0.211939
429.133000	-0.385502
429.314000	-0.105127
429.495000	-0.150006
429.677000	-0.188361
429.858000	-0.211283
430.039000	-0.150877
430.220000	-0.097822
430.402000	-0.037041
430.583000	-0.309902
430.764000	-0.369043
430.945000	-0.173161
431.127000	-0.171925
431.308000	-0.357966
431.489000	-0.006763
431.671000	0.015845
431.852000	-0.081695
432.033000	-0.291584
432.214000	-0.156354
432.396000	-0.081328
432.577000	-0.133852
432.758000	-0.299154
432.940000	-0.149043
433.121000	-0.223702
433.302000	-0.297530
433.483000	0.023071
433.665000	0.075206
433.846000	-0.036479
434.027000	-0.132424
434.208000	-0.280017
434.390000	-0.332959
434.571000	0.015579
434.752000	0.368935
434.934000	0.139882
435.115000	-0.006608
435.296000	0.147526
435.477000	-0.021222
435.659000	-0.223749
435.840000	-0.122748
436.026000	-0.209285
436.211000	-0.266926
436.397000	-0.525344
436.582000	-0.431680
436.768000	-0.064087
436.953000	-0.157482
437.139000	-0.307821
437.325000	-0.006429
437.510000	-0.099285
437.696000	0.185933
437.881000	0.299441
438.067000	-0.112443
438.252000	-0.126681
438.438000	-0.296324
438.624000	-0.317555
438.809000	-0.224692
438.995000	-0.090757
439.180000	-0.139573
439.366000	-0.188472
439.551000	-0.174226
439.737000	-0.083096
439.923000	-0.111172
440.108000	-0.201802
440.294000	-0.138532
440.479000	0.000694
440.665000	0.179872
440.850000	0.069219
441.036000	-0.054265
441.222000	-0.068291
441.407000	-0.095556
441.593000	-0.095145
441.778000	-0.033463
441.964000	0.082986
442.149000	-0.176955
442.335000	-0.291630
442.521000	-0.060435
442.706000	0.108882
442.892000	-0.093801
443.077000	-0.236305
443.263000	-0.154409
443.448000	-0.234263
443.634000	-0.274732
443.820000	0.094109
444.005000	-0.066034
444.191000	-0.400368
444.376000	-0.265435
444.562000	0.000661
444.747000	-0.019274
444.933000	-0.125257
445.119000	-0.277020
445.304000	-0.322699
445.490000	-0.085163
445.675000	-0.164309
445.861000	-0.323538
446.046000	-0.283220
446.232000	0.000659
446.418000	0.020415
446.603000	-0.065189
446.789000	-0.065118
446.974000	-0.045523
447.160000	-0.235997
447.345000	-0.228220
447.531000	-0.358691
447.717000	-0.104519
447.902000	0.060069
448.088000	0.053154
448.273000	-0.051575
448.459000	-0.083981
448.644000	-0.142650
448.830000	-0.228177
449.016000	-0.208389
449.201000	-0.208094
449.387000	-0.123568
449.572000	0.052799
449.758000	-0.149174
449.943000	-0.318998
450.129000	-0.343716
450.315000	-0.271732
450.500000	-0.278459
450.686000	-0.194433
450.871000	-0.370364
451.057000	-0.220278
451.243000	-0.083726
451.428000	-0.077340
451.614000	-0.148477
451.799000	-0.213188
451.985000	-0.096508
452.170000	0.000647
452.356000	-0.245070
452.542000	-0.271259
452.727000	0.039367
452.913000	-0.115710
453.098000	-0.005817
453.284000	0.110485
453.469000	-0.199885
453.655000	0.007103
453.841000	-0.012250
454.026000	-0.108484
454.212000	-0.069769
454.397000	-0.063453
454.583000	-0.316154
454.768000	-0.282280
454.954000	-0.044100
455.140000	0.013399
455.325000	-0.241268
455.511000	-0.383169
455.696000	-0.261655
455.882000	-0.063193
456.067000	0.141134
456.253000	-0.012134
456.439000	-0.197316
456.624000	-0.101197
456.810000	-0.018407
456.995000	-0.234525
457.181000	-0.430411
457.366000	-0.100276
457.552000	-0.124987
457.738000	-0.024468
457.923000	-0.062219
458.109000	0.107796
458.294000	0.057308
458.480000	0.025852
458.665000	-0.143962
458.851000	-0.225290
459.037000	-0.379635
459.222000	-0.267447
459.408000	-0.161470
459.593000	-0.123465
459.779000	-0.036488
459.964000	0.254626
460.150000	0.310935
460.336000	0.199019
460.521000	0.000616
460.707000	-0.140670
460.892000	-0.164920
461.078000	-0.054692
461.263000	-0.036095
461.449000	-0.091480
461.635000	-0.048451
461.820000	0.031216
462.006000	0.098124
462.191000	0.091691
462.377000	-0.253679
462.562000	0.073492
462.748000	0.279288
462.934000	-0.169227
463.119000	-0.246934
463.305000	0.036672
463.490000	0.024529
463.676000	0.084570
463.861000	-0.071687
464.047000	-0.155530
464.233000	-0.166439
464.418000	-0.166259
464.604000	-0.219410
464.789000	0.000595
464.975000	-0.023133
465.160000	-0.159827
465.346000	-0.076602
465.532000	-0.201597
465.717000	-0.308139
465.903000	-0.029046
466.088000	-0.094134
466.274000	-0.235019
466.459000	-0.282467
466.645000	0.195462
466.831000	0.229444
467.016000	0.188058
467.202000	0.035897
467.387000	-0.099172
467.573000	-0.279953
467.758000	0.029681
467.944000	-0.063407
468.130000	-0.239152
468.315000	0.053239
468.501000	0.123004
468.686000	0.052920
468.872000	0.018034
469.057000	-0.104103
469.243000	-0.145017
469.429000	-0.174007
469.614000	-0.167785
469.800000	-0.208431
469.985000	-0.068875
470.171000	0.087069
470.356000	-0.045722
470.542000	0.041250
470.728000	0.012159
470.913000	-0.051273
471.099000	0.040875
471.284000	-0.196553
471.470000	-0.132967
471.655000	-0.022649
471.841000	-0.086255
472.027000	-0.160647
472.212000	0.121596
472.398000	0.121995
472.583000	-0.173060
472.769000	-0.202377
472.954000	-0.138375
473.140000	-0.258847
473.326000	-0.328448
473.511000	0.086986
473.697000	0.110158
473.882000	-0.092080
474.068000	-0.080651
474.253000	-0.201630
474.439000	-0.109366
474.625000	0.041009
474.810000	-0.022542
474.996000	0.012138
475.181000	-0.252808
475.367000	-0.034012
475.552000	0.238278
475.738000	-0.160841
475.924000	-0.230537
476.109000	-0.195791
476.295000	-0.299910
476.480000	-0.120897
476.666000	-0.045629
476.851000	-0.172604
477.037000	-0.005223
477.223000	-0.080343
477.408000	-0.259598
477.594000	-0.461522
477.779000	-0.381435
477.965000	-0.265767
478.151000	-0.283079
478.336000	-0.248574
478.522000	-0.242200
478.707000	-0.167037
478.893000	-0.115257
479.078000	-0.214246
479.264000	-0.307222
479.450000	-0.318966
479.635000	-0.098055
479.821000	-0.127288
480.006000	-0.051690
480.192000	-0.074850
480.377000	-0.040123
480.563000	0.018009
480.749000	-0.284257
480.934000	-0.283952
481.120000	-0.259769
481.305000	-0.114973
481.491000	-0.098038
481.676000	-0.092444
481.862000	-0.011072
482.048000	-0.144323
482.233000	-0.115206
482.419000	-0.074850
482.604000	-0.179475
482.790000	-0.220138
482.975000	-0.069184
483.161000	0.023765
483.347000	0.070024
483.532000	-0.074668
483.718000	-0.417551
483.903000	-0.307642
484.089000	-0.103847
484.274000	-0.289039
484.460000	-0.254796
484.646000	-0.196772
484.831000	-0.295661
485.017000	-0.184715
485.202000	-0.126570
485.388000	0.017904
485.573000	0.075512
485.759000	-0.120778
485.945000	0.029478
486.130000	-0.161141
486.316000	-0.166981
486.501000	-0.103151
486.687000	-0.223850
486.872000	-0.327727
487.058000	-0.149276
487.244000	-0.016725
487.429000	-0.246691
487.615000	-0.200725
487.800000	-0.108684
487.986000	-0.251485
488.171000	-0.062586
488.357000	-0.073819
488.543000	-0.181880
488.728000	-0.124905
488.914000	-0.073622
489.099000	-0.079281
489.285000	-0.153320
489.470000	0.034681
489.656000	-0.016500
489.842000	-0.022104
490.027000	0.068373
490.213000	-0.152256
490.398000	-0.345555
490.584000	-0.050324
490.769000	0.017528
490.955000	0.023143
491.141000	0.028724
491.326000	-0.094850
491.512000	-0.010659
491.697000	-0.044227
491.883000	-0.117053
492.068000	-0.161878
492.254000	-0.049941
492.440000	0.006169
492.625000	-0.005032
492.811000	-0.105462
492.996000	0.033991
493.182000	-0.004999
493.367000	-0.322526
493.553000	-0.428482
493.739000	-0.244241
493.924000	-0.127552
494.110000	-0.121595
494.295000	-0.220864
494.481000	-0.043784
494.666000	-0.043815
494.852000	0.011628
495.038000	-0.065759
495.223000	-0.204213
495.409000	-0.192691
495.594000	-0.137706
495.780000	-0.098736
495.965000	-0.209266
496.151000	0.006066
496.337000	0.055648
496.522000	-0.235453
496.708000	-0.181224
496.893000	0.000551
497.079000	-0.076368
497.264000	-0.224281
497.450000	-0.065281
497.636000	0.055457
497.821000	-0.147317
498.007000	0.049837
498.192000	0.137975
498.378000	-0.109198
498.563000	-0.136679
498.749000	-0.120334
498.935000	-0.142098
499.120000	0.077171
499.306000	-0.114551
499.491000	-0.174369
499.677000	-0.043169
499.862000	0.044430
500.048000	0.022529
500.234000	-0.098108
500.419000	-0.070833
500.605000	0.050012
500.790000	-0.037879
500.976000	-0.076430
501.161000	-0.252315
501.347000	-0.065412
501.533000	0.022551
501.718000	-0.136878
501.904000	-0.181276
502.089000	-0.049111
502.275000	-0.037976
502.460000	-0.076277
502.646000	0.121415
502.832000	0.203933
503.017000	0.138250
503.203000	-0.153887
503.388000	-0.176373
503.574000	0.083268
503.759000	-0.010475
503.945000	0.011597
504.131000	-0.021537
504.316000	-0.049119
504.502000	0.011594
504.687000	-0.071412
504.873000	-0.293009
505.058000	-0.392660
505.244000	-0.303975
505.430000	-0.221338
505.615000	-0.043879
505.801000	0.033943
505.986000	-0.171110
506.172000	-0.088101
506.358000	-0.077194
506.543000	-0.143759
506.729000	0.033879
506.914000	-0.027274
507.100000	0.061995
507.285000	-0.027413
507.471000	-0.100030
507.657000	0.112311
507.842000	0.006138
508.028000	-0.111115
508.213000	-0.100198
508.399000	-0.117233
508.584000	0.056710
508.770000	-0.089118
508.956000	-0.212593
509.141000	-0.128339
509.327000	0.000562
509.512000	-0.111314
509.698000	-0.049859
509.883000	0.084828
510.069000	-0.061399
510.255000	-0.078332
510.440000	-0.016363
510.626000	-0.151701
510.811000	-0.134977
510.997000	-0.044625
511.182000	0.260099
511.368000	0.124825
511.554000	-0.282010
511.739000	-0.276180
511.925000	-0.112463
512.110000	-0.101065
512.296000	0.119431
512.481000	0.209739
512.667000	0.068479
512.853000	-0.180567
513.038000	-0.090127
513.224000	-0.135507
513.409000	-0.339582
513.595000	-0.300381
513.780000	-0.368334
513.966000	-0.344798
514.152000	-0.203280
514.337000	-0.163710
514.523000	-0.095742
514.708000	0.023251
514.894000	0.029002
515.079000	-0.226011
515.265000	-0.175633
515.451000	-0.124530
515.636000	-0.255126
515.822000	-0.141661
516.007000	-0.244104
516.193000	-0.084699
516.378000	0.120148
516.564000	0.023312
516.750000	-0.005119
516.935000	0.023332
517.121000	-0.010810
517.306000	0.017654
517.492000	-0.119202
517.677000	-0.324160
517.863000	-0.153278
518.049000	-0.022229
518.234000	-0.187383
518.420000	0.029083
518.605000	0.148787
518.791000	0.068944
518.976000	-0.045191
519.162000	-0.239246
519.348000	-0.045118
519.533000	-0.090675
519.719000	0.091909
519.904000	0.052007
520.090000	0.069012
520.275000	0.177497
520.461000	0.172130
520.647000	0.017724
520.832000	-0.337674
521.018000	-0.205281
521.203000	-0.010829
521.389000	-0.141812
521.574000	-0.102050
521.760000	-0.039390
521.946000	-0.050961
522.131000	-0.125508
522.317000	-0.010872
522.502000	-0.176737
522.688000	-0.171093
522.873000	-0.131162
523.059000	-0.119791
523.245000	-0.033785
523.430000	-0.010894
523.616000	-0.079674
523.801000	-0.303622
523.987000	-0.286917
524.172000	-0.166153
524.358000	-0.039687
524.544000	0.012059
524.729000	0.057843
524.915000	0.103908
525.100000	-0.062550
525.286000	0.023563
525.471000	0.029392
525.657000	0.052499
525.843000	-0.311324
526.028000	-0.201723
526.214000	-0.195869
526.399000	-0.312327
526.585000	-0.190679
526.770000	-0.132707
526.956000	-0.063324
527.142000	-0.202716
527.327000	-0.138983
527.513000	-0.092576
527.698000	-0.162626
527.884000	-0.186619
528.069000	-0.145375
528.255000	-0.028645
528.441000	-0.169152
528.626000	-0.034639
528.812000	0.241103
528.997000	-0.052315
529.183000	-0.193307
529.368000	-0.070244
529.554000	-0.100023
529.740000	-0.124045
529.925000	-0.094390
530.111000	-0.106380
530.296000	0.006547
530.482000	0.233287
530.667000	0.042379
530.853000	0.066466
531.039000	-0.149426
531.224000	-0.083862
531.410000	0.163451
531.595000	0.079085
531.781000	0.073059
531.967000	0.000607
532.152000	0.043244
532.338000	-0.017698
532.523000	-0.231734
532.709000	-0.232590
532.894000	-0.073389
533.080000	-0.166075
533.266000	-0.333017
533.451000	-0.173019
533.637000	-0.105144
533.822000	0.163029
534.008000	-0.111711
534.193000	-0.206086
534.379000	0.000629
534.565000	-0.119294
534.750000	-0.208429
534.936000	0.070588
535.121000	-0.158756
535.307000	0.007025
535.492000	0.141375
535.678000	-0.147368
535.864000	-0.173966
536.049000	0.104722
536.235000	-0.084001
536.420000	-0.071302
536.606000	-0.071506
536.791000	-0.269905
536.977000	-0.151499
537.163000	0.146774
537.348000	-0.086175
537.534000	-0.053127
537.719000	-0.107194
537.905000	-0.270044
538.090000	-0.080858
538.276000	-0.060687
538.462000	-0.081408
538.647000	0.069374
538.833000	-0.020028
539.018000	0.132526
539.204000	0.000694
539.389000	-0.292920
539.575000	0.119645
539.761000	0.056957
539.946000	-0.267758
540.132000	-0.155323
540.317000	-0.269574
540.503000	-0.049184
540.688000	0.065274
540.874000	0.274122
541.060000	0.166145
541.245000	-0.020956
541.431000	-0.209629
541.616000	-0.202930
541.802000	-0.057510
541.987000	-0.006570
542.173000	-0.028581
542.359000	-0.168018
542.544000	-0.094510
542.730000	-0.234642
542.915000	-0.286821
543.101000	-0.109926
543.286000	-0.184084
543.472000	-0.274502
543.658000	-0.200256
543.843000	-0.096270
544.029000	0.090590
544.214000	-0.126689
544.400000	-0.494566
544.585000	-0.322664
544.771000	-0.218077
544.957000	-0.021930
545.142000	-0.029517
545.328000	0.023524
545.513000	0.198426
545.699000	0.008399
545.884000	-0.297216
546.070000	-0.236200
546.261000	-0.114311
546.451000	-0.160840
546.642000	-0.338424
546.833000	-0.099617
547.023000	-0.091874
547.214000	-0.092246
547.405000	-0.014726
547.595000	0.078379
547.786000	0.094261
547.977000	-0.139825
548.167000	-0.343211
548.358000	-0.258348
548.549000	0.119009
548.740000	0.158416
548.930000	-0.101706
549.121000	-0.086184
549.312000	-0.197633
549.502000	-0.229935
549.693000	-0.150251
549.884000	-0.118488
550.074000	-0.031123
550.265000	-0.319167
550.456000	-0.207682
550.646000	0.008841
550.837000	0.081208
551.028000	-0.111912
551.218000	-0.160177
551.409000	-0.314478
551.600000	-0.250017
551.790000	-0.096665
551.981000	-0.332218
552.172000	-0.170081
552.362000	0.334320
552.553000	0.368721
552.744000	0.180562
552.934000	-0.040069
553.125000	-0.187593
553.316000	-0.154924
553.506000	0.247241
553.697000	0.066781
553.888000	-0.073248
554.079000	0.198500
554.269000	0.272903
554.460000	-0.098361
554.651000	-0.247396
554.841000	-0.487893
555.032000	-0.372494
555.223000	-0.082246
555.413000	0.042182
555.604000	-0.057312
555.795000	-0.107429
555.985000	-0.065925
556.176000	-0.149103
556.367000	-0.273990
556.557000	-0.157923
556.748000	-0.258695
556.939000	-0.433837
557.129000	-0.375007
557.320000	-0.174666
557.511000	-0.191024
557.701000	-0.107437
557.892000	0.009198
558.083000	0.192950
558.273000	-0.015873
558.464000	-0.350069
558.655000	-0.232900
558.845000	-0.173953
559.036000	-0.074128
559.227000	-0.124194
559.418000	0.101041
559.608000	0.184474
559.799000	-0.157566
559.990000	-0.322579
560.180000	-0.331304
560.371000	-0.456549
560.562000	-0.231662
560.752000	-0.123832
560.943000	-0.348387
561.134000	-0.513301
561.324000	-0.231079
561.515000	0.108298
561.706000	-0.073659
561.896000	-0.346022
562.087000	-0.205399
562.278000	-0.172336
562.468000	-0.304571
562.659000	-0.229656
562.850000	0.247924
563.040000	0.223214
563.231000	-0.436061
563.422000	-0.278523
563.612000	-0.278830
563.803000	-0.237272
563.994000	-0.358695
564.185000	-0.439664
564.375000	-0.080848
564.566000	-0.186785
564.757000	-0.285457
564.947000	-0.301456
565.138000	-0.023611
565.329000	-0.259203
565.519000	-0.583920
565.710000	-0.234942
565.901000	0.057759
566.091000	0.008942
566.282000	-0.137066
566.473000	-0.152813
566.663000	-0.047648
566.854000	-0.240513
567.045000	-0.207796
567.235000	-0.183694
567.426000	-0.183627
567.617000	-0.127037
567.807000	-0.023180
567.998000	-0.015156
568.189000	-0.158702
568.379000	0.000795
568.570000	0.112006
568.761000	0.056281
568.951000	-0.260382
569.142000	-0.379606
569.333000	-0.276576
569.524000	-0.457129
569.714000	-0.346565
569.905000	-0.424780
570.096000	-0.172559
570.286000	0.095213
570.477000	0.322529
570.668000	0.008624
570.858000	-0.116811
571.049000	-0.257020
571.240000	-0.436919
571.430000	-0.217784
571.621000	-0.178120
571.812000	0.093732
572.002000	0.171501
572.193000	-0.092196
572.384000	-0.037947
572.574000	0.070529
572.765000	-0.099799
572.956000	-0.161184
573.146000	0.062563
573.337000	-0.030063
573.528000	0.016159
573.718000	0.246362
573.909000	0.238348
574.100000	0.084766
574.290000	-0.098197
574.481000	-0.143549
574.672000	-0.113298
574.863000	0.015904
575.053000	-0.089954
575.244000	0.076167
575.435000	-0.067053
575.625000	-0.209271
575.816000	-0.141589
576.007000	-0.111624
576.197000	-0.194336
576.388000	-0.148735
576.579000	0.075464
576.769000	0.075376
576.960000	-0.185687
577.155000	-0.423149
577.350000	-0.147809
577.545000	0.156431
577.740000	-0.102746
577.935000	0.222033
578.130000	0.155765
578.326000	-0.278934
578.521000	0.022805
578.716000	0.044667
578.911000	-0.262585
579.106000	-0.042993
579.301000	0.109696
579.496000	-0.144111
579.691000	-0.375528
579.886000	-0.280731
580.081000	-0.258682
580.276000	-0.092725
580.471000	-0.020842
580.666000	-0.243208
580.861000	-0.192920
581.057000	-0.193045
581.252000	-0.042351
581.447000	-0.249954
581.642000	-0.286244
581.837000	-0.250037
582.032000	-0.092158
582.227000	0.128555
582.422000	0.036155
582.617000	-0.083980
582.812000	-0.224543
583.007000	-0.266632
583.202000	-0.385519
583.397000	-0.055281
583.592000	0.154377
583.788000	-0.131602
583.983000	0.000696
584.178000	0.111822
584.373000	0.000692
584.568000	-0.040770
584.763000	-0.220647
584.958000	-0.289794
585.153000	-0.075394
585.348000	-0.082265
585.543000	-0.026989
585.738000	-0.013142
585.933000	-0.213789
586.128000	0.021441
586.324000	-0.006241
586.519000	-0.006236
586.714000	0.111651
586.909000	0.223005
587.104000	0.223748
587.299000	-0.034057
587.494000	0.083985
587.689000	0.160652
587.884000	0.196013
588.079000	0.133242
588.274000	0.140477
588.469000	0.035572
588.664000	0.182284
588.859000	0.322430
589.055000	0.161751
589.250000	0.133806
589.445000	0.056814
589.640000	0.091958
589.835000	0.479183
590.030000	0.577523
590.225000	0.465059
590.420000	0.190931
590.615000	0.028912
590.810000	0.078187
591.005000	0.184597
591.200000	0.227127
591.395000	0.269540
591.591000	0.367950
591.786000	0.515827
591.981000	0.305033
592.176000	0.412031
592.371000	0.511513
592.566000	0.440249
592.761000	0.674101
592.956000	0.746244
593.151000	0.902904
593.346000	0.848416
593.541000	0.826192
593.736000	0.771630
593.931000	0.664847
594.126000	0.637225
594.322000	0.837442
594.517000	0.801520
594.712000	0.673115
594.907000	0.840653
595.102000	1.086162
595.297000	1.387170
595.492000	1.490913
595.687000	1.392912
595.882000	1.422482
596.077000	1.562633
596.272000	1.815353
596.467000	1.881030
596.662000	1.817717
596.857000	1.897653
597.053000	1.980929
597.248000	2.125609
597.443000	2.135719
597.638000	2.002088
597.833000	1.879706
598.028000	2.359252
598.223000	2.451657
598.418000	2.514667
598.613000	2.616933
598.808000	2.904970
599.003000	2.900762
599.198000	2.801510
599.393000	2.837409
599.589000	3.206213
599.784000	3.193691
599.979000	3.530727
600.174000	3.747478
600.369000	3.647829
600.564000	3.800702
600.759000	4.190781
600.954000	4.442852
601.149000	4.293083
601.344000	4.014968
601.539000	4.347133
601.734000	4.638760
601.929000	4.657891
602.124000	4.751280
602.320000	5.020992
602.515000	5.492510
602.710000	5.518829
602.905000	5.091343
603.100000	5.404536
603.295000	5.639109
603.490000	5.948122
603.685000	6.054281
603.880000	6.317327
604.075000	6.446397
604.270000	6.543158
604.465000	6.802405
604.660000	6.694573
604.856000	6.863269
605.051000	7.073133
605.246000	7.135342
605.441000	7.450668
605.636000	7.679764
605.831000	8.065266
606.026000	8.061914
606.221000	8.353656
606.416000	8.622606
606.611000	8.874582
606.806000	9.041213
607.001000	9.547277
607.196000	9.594211
607.391000	9.554234
607.587000	9.963246
607.782000	10.343622
607.977000	10.082600
608.172000	10.634676
608.367000	10.948388
608.562000	10.970264
608.757000	11.365502
608.952000	11.791673
609.147000	12.291360
609.342000	12.187372
609.537000	12.240563
609.732000	12.398810
609.927000	12.574450
610.122000	13.043312
610.318000	13.581067
610.513000	13.935720
610.708000	14.066882
610.903000	14.469703
611.098000	14.748868
611.293000	15.288349
611.488000	15.585352
611.683000	15.744844
611.878000	16.060773
612.073000	16.376494
612.268000	16.830456
612.463000	17.258417
612.658000	17.680180
612.854000	18.225718
613.049000	18.476488
613.244000	19.348390
613.439000	19.653510
613.634000	19.466889
613.829000	19.935938
614.024000	20.266630
614.219000	20.539211
614.414000	21.521674
614.609000	21.798239
614.804000	21.993377
614.999000	22.430573
615.194000	23.010583
615.389000	23.773634
615.585000	24.245367
615.780000	24.575112
615.975000	25.045541
616.170000	25.755814
616.365000	26.459048
616.560000	26.899043
616.755000	27.596522
616.950000	28.376488
617.145000	28.778915
617.340000	28.974718
617.535000	29.559285
617.730000	30.329933
617.925000	30.724853
618.120000	31.795963
618.316000	32.856571
618.511000	33.217771
618.706000	33.610240
618.901000	34.288704
619.096000	35.109659
619.291000	35.403515
619.486000	36.516934
619.681000	36.814383
619.876000	37.449983
620.071000	38.200078
620.266000	38.889328
620.461000	39.679285
620.656000	40.573218
620.852000	41.250964
621.047000	41.786865
621.242000	42.236535
621.437000	43.531979
621.632000	44.640886
621.827000	44.986941
622.022000	45.236479
622.217000	45.955838
622.412000	47.500058
622.607000	48.127922
622.802000	48.335841
622.997000	49.480576
623.192000	50.360736
623.387000	51.172563
623.583000	51.650054
623.778000	53.444698
623.973000	54.142795
624.168000	54.607470
624.363000	55.682148
624.558000	56.971698
624.753000	57.365658
624.948000	58.327193
625.143000	59.672370
625.338000	60.196589
625.533000	60.952661
625.728000	62.155680
625.923000	63.121365
626.119000	63.803973
626.314000	64.717398
626.509000	65.787973
626.704000	67.169831
626.899000	67.853830
627.094000	69.124723
627.289000	70.514433
627.484000	71.344813
627.679000	71.952708
627.874000	72.797895
628.069000	74.341690
628.264000	74.828135
628.459000	75.688885
628.654000	76.859918
628.850000	78.435849
629.045000	79.499808
629.240000	80.033066
629.435000	80.906279
629.630000	81.777077
629.825000	82.720309
630.020000	83.318857
630.215000	83.238224
630.410000	84.291262
630.605000	85.622611
630.800000	85.653686
630.995000	86.358937
631.190000	87.280291
631.385000	87.528134
631.581000	87.686483
631.776000	88.009310
631.971000	87.856807
632.166000	87.808414
632.361000	87.435268
632.556000	87.459052
632.751000	87.284066
632.946000	86.459326
633.141000	85.632534
633.336000	85.036002
633.531000	84.700938
633.726000	83.204696
633.921000	82.152855
634.117000	81.553813
634.312000	80.035680
634.507000	78.984536
634.702000	77.457483
634.897000	76.225659
635.092000	74.888761
635.287000	73.223844
635.482000	71.668257
635.677000	69.980067
635.872000	68.441901
636.067000	66.819915
636.262000	64.950934
636.457000	63.184604
636.652000	60.961007
636.848000	58.882391
637.043000	57.258471
637.238000	55.321150
637.433000	53.125083
637.628000	51.920147
637.823000	50.324937
638.018000	48.681629
638.213000	47.036829
638.408000	45.353553
638.603000	43.341425
638.798000	41.747689
638.993000	40.469830
639.188000	38.879963
639.383000	37.562655
639.579000	36.655351
639.774000	35.159169
639.969000	33.716589
640.164000	32.333086
640.359000	30.820365
640.554000	29.909520
640.749000	28.971891
640.944000	28.222719
641.139000	27.373830
641.334000	26.343699
641.529000	24.769198
641.724000	24.081005
641.919000	23.507636
642.115000	23.130992
642.310000	22.059914
642.505000	20.889525
642.700000	20.253566
642.895000	19.504212
643.090000	18.976861
643.285000	18.699398
643.480000	18.364679
643.675000	17.721896
643.870000	17.639616
644.065000	16.546306
644.260000	15.307704
644.455000	15.180491
644.650000	14.515347
644.846000	14.252139
645.041000	13.446046
645.236000	12.764772
645.431000	12.469679
645.626000	11.904209
645.821000	11.733226
646.016000	11.551633
646.211000	11.435762
646.406000	10.984495
646.601000	10.589890
646.796000	10.105513
646.991000	9.703646
647.186000	9.370087
647.381000	9.395869
647.577000	9.256699
647.772000	8.941105
647.967000	8.671558
648.162000	8.351594
648.357000	7.777617
648.552000	7.804272
648.747000	7.531022
648.942000	7.307510
649.137000	7.210323
649.332000	6.701292
649.527000	6.419405
649.722000	6.447095
649.917000	6.695851
650.113000	5.949237
650.308000	5.577888
650.503000	5.385108
650.698000	5.530897
650.893000	5.504754
651.088000	5.357891
651.283000	5.178566
651.478000	4.575388
651.673000	4.540636
651.868000	4.348454
652.063000	4.447849
652.258000	4.531982
652.453000	4.801759
652.648000	4.314526
652.844000	3.853712
653.039000	3.809704
653.234000	3.305618
653.429000	3.017928
653.624000	3.379880
653.819000	3.529241
654.014000	3.327123
654.209000	3.000347
654.404000	3.139424
654.599000	2.994685
654.794000	2.725233
654.989000	3.059536
655.184000	2.961054
655.380000	2.407930
655.575000	2.255204
655.770000	2.310033
655.965000	2.443461
656.160000	2.373177
656.355000	2.444258
656.550000	2.369729
656.745000	2.525251
656.940000	2.147349
657.135000	1.931219
657.330000	1.819022
657.525000	1.573638
657.720000	1.823512
657.915000	2.068713
658.111000	2.018045
658.306000	2.163839
658.501000	2.065584
658.696000	1.672652
658.891000	1.797305
659.086000	1.662429
659.281000	1.427415
659.476000	1.108567
659.671000	0.891118
659.866000	1.129659
660.061000	1.472344
660.256000	1.628510
660.451000	1.495077
660.646000	1.112655
660.842000	1.113940
661.037000	1.083146
661.232000	1.209736
661.427000	1.385769
661.622000	1.075403
661.817000	0.897840
662.012000	1.130080
662.207000	0.942555
662.402000	0.934440
662.597000	1.082007
662.792000	0.714034
662.987000	0.786784
663.182000	0.882935
663.378000	0.705023
663.573000	0.727819
663.768000	0.673755
663.963000	0.758671
664.158000	0.852594
664.353000	1.320542
664.548000	1.288423
664.743000	0.983520
664.938000	0.645402
665.133000	0.519458
665.328000	0.848682
665.523000	0.860962
665.718000	0.754889
665.913000	0.649691
666.109000	0.619173
666.304000	0.682893
666.499000	0.586640
666.694000	0.940653
666.889000	1.239475
667.084000	0.783032
667.279000	0.675510
667.474000	0.654467
667.669000	0.761396
667.864000	0.547868
668.059000	0.484276
668.254000	0.527896
668.449000	0.485439
668.644000	0.593617
668.840000	1.023214
669.035000	0.938474
669.230000	0.422722
669.425000	0.650198
669.620000	0.336434
669.815000	0.424507
670.010000	0.500043
670.205000	0.522171
670.400000	0.521241
670.595000	0.642392
670.790000	0.414688
670.985000	0.327957
671.180000	0.502843
671.376000	0.132101
671.571000	0.099569
671.766000	0.176568
671.961000	0.165664
672.156000	0.023068
672.351000	0.132947
672.546000	0.419500
672.741000	0.528448
672.936000	0.485137
673.131000	0.949742
673.326000	0.598422
673.521000	0.089675
673.716000	-0.142812
673.911000	-0.375565
674.107000	0.422889
674.302000	0.878575
674.497000	0.590463
674.692000	0.112390
674.887000	-0.021215
675.082000	0.012301
675.277000	0.493844
675.472000	0.337510
675.667000	0.113424
675.862000	0.203369
676.057000	0.293452
676.252000	0.249004
676.447000	0.147961
676.643000	0.497692
676.838000	0.600397
677.033000	0.170976
677.228000	0.341672
677.423000	0.330521
677.618000	0.046694
677.813000	0.012520
678.008000	0.195261
678.203000	0.104021
678.398000	-0.056113
678.593000	0.092790
678.788000	-0.021836
678.983000	-0.308778
679.178000	-0.010336
679.374000	-0.079358
679.569000	0.104886
679.764000	0.232359
679.959000	-0.033605
680.154000	-0.079972
680.349000	-0.254705
680.544000	-0.219519
680.739000	-0.056942
680.934000	-0.324550
681.129000	-0.185476
681.324000	-0.232424
681.519000	-0.057410
681.714000	0.094936
681.909000	0.059702
682.105000	-0.186654
682.300000	0.284014
682.495000	0.260310
682.690000	-0.010625
682.885000	0.036627
683.080000	0.143358
683.275000	0.155284
683.470000	0.333495
683.665000	0.369911
683.860000	0.727991
684.055000	0.549584
684.250000	-0.046540
684.445000	-0.141779
684.641000	0.228247
684.836000	0.120896
685.031000	0.169386
685.226000	0.001203
685.421000	0.363105
685.616000	0.025333
685.811000	-0.240635
686.006000	0.194667
686.201000	-0.023004
686.396000	-0.363393
686.591000	-0.010960
686.786000	0.342746
686.981000	0.318381
687.176000	0.355840
687.372000	0.086918
687.567000	0.209431
687.762000	0.210008
687.957000	0.173158
688.152000	-0.183373
688.347000	-0.196032
688.542000	-0.208879
688.737000	-0.628831
688.932000	-0.530898
689.127000	-0.085508
689.322000	0.324366
689.517000	-0.147859
689.712000	-0.248135
689.908000	-0.111087
690.103000	-0.086291
690.298000	0.313952
690.493000	0.252070
690.688000	-0.199645
690.883000	0.001260
691.078000	0.379371
691.273000	0.316388
691.468000	-0.023996
691.663000	-0.252286
691.858000	0.191466
692.053000	0.115382
692.248000	0.140884
692.443000	0.483556
692.639000	0.319225
692.834000	0.179771
693.029000	0.766544
693.224000	0.629218
693.419000	-0.024371
693.614000	-0.088673
693.809000	-0.140181
694.004000	-0.127560
694.199000	-0.127527
694.394000	0.156395
694.589000	-0.231607
694.784000	-0.452027
694.979000	-0.154135
695.174000	-0.245422
695.370000	0.156856
695.565000	0.131249
695.760000	-0.285239
695.955000	0.262429
696.150000	0.432294
696.345000	-0.260907
696.540000	-0.169427
696.740000	-0.024937
696.940000	0.250872
697.140000	0.199355
697.340000	0.027773
697.539000	0.490917
697.739000	0.160174
697.939000	0.186779
698.139000	-0.224102
698.339000	-0.877145
698.539000	-0.570683
698.739000	-0.452171
698.939000	-0.427353
699.138000	-0.280453
699.338000	0.563005
699.538000	0.538303
699.738000	0.068663
699.938000	0.014822
700.138000	-0.295595
700.338000	-0.513033
700.538000	-0.242905
700.737000	-0.188563
700.937000	-0.620819
701.137000	-0.418579
701.337000	0.464326
701.537000	0.233356
701.737000	-0.080413
701.937000	0.069667
702.137000	-0.299175
702.337000	-0.313360
702.536000	-0.451118
702.736000	-0.451661
702.936000	-0.493573
703.136000	0.318530
703.336000	0.318458
703.536000	-0.067739
703.736000	-0.525364
703.936000	-0.551942
704.135000	-0.537839
704.335000	-0.331371
704.535000	-0.415693
704.735000	-0.318699
704.935000	0.154151
705.135000	-0.040470
705.335000	-0.250631
705.535000	-0.068654
705.735000	-0.250752
705.934000	-0.110611
706.134000	-0.194684
706.334000	-0.124950
706.534000	-0.350081
706.734000	-0.209652
706.934000	-0.195571
707.134000	-0.237842
707.334000	-0.238348
707.533000	-0.069235
707.733000	-0.040946
707.933000	-0.083387
708.133000	-0.083286
708.333000	0.072367
708.533000	-0.197602
708.733000	0.342552
708.933000	0.229044
709.132000	-0.126861
709.332000	-0.355525
709.532000	-0.570956
709.732000	-0.384368
709.932000	-0.900916
710.132000	-0.814468
710.332000	-1.000091
710.532000	0.044394
710.732000	0.432235
710.931000	-0.156639
711.131000	-0.474641
711.331000	-0.417254
711.531000	-0.591511
711.731000	-0.448013
711.931000	-0.347096
712.131000	-0.419207
712.331000	-0.158160
712.530000	-0.085505
712.730000	-0.172914
712.930000	-0.347165
713.130000	-0.450418
713.330000	-0.611516
713.530000	-0.174315
713.730000	0.807494
713.930000	0.543530
714.129000	-0.115617
714.329000	-0.277492
714.529000	0.045480
714.729000	0.060275
714.929000	-0.351368
715.129000	-0.455032
715.329000	-0.367016
715.529000	-0.116920
715.729000	0.769631
715.928000	0.371713
716.128000	-0.117066
716.328000	-0.028239
716.528000	-0.221703
716.728000	0.031254
716.928000	-0.311085
717.128000	-0.311780
717.328000	-0.311730
717.527000	-0.446508
717.727000	-0.551579
717.927000	-0.343409
718.127000	0.181556
718.327000	-0.524610
718.527000	-1.005123
718.727000	-0.600022
718.927000	-0.314867
719.127000	-0.527897
719.326000	-0.239528
719.526000	0.197709
719.726000	-0.089232
719.926000	-0.560160
720.126000	-0.423604
720.326000	-0.195831
720.526000	-0.560271
720.726000	-0.424899
720.925000	-0.303258
721.125000	-0.457337
721.325000	0.062636
721.525000	-0.105667
721.725000	-0.228204
721.925000	0.124407
722.125000	-0.105985
722.325000	-0.044539
722.524000	-0.599258
722.724000	-0.769670
722.924000	-0.738776
723.124000	-0.461730
723.324000	-0.230329
723.524000	-0.013925
723.724000	-0.540473
723.924000	-0.604579
724.124000	-0.247201
724.323000	0.079394
724.523000	-0.200645
724.723000	0.328892
724.923000	0.235438
725.123000	0.266902
725.323000	0.345559
725.523000	0.142561
725.723000	-0.311427
725.922000	-0.499786
726.122000	-0.516033
726.322000	-0.501697
726.522000	-0.502189
726.722000	0.221715
726.922000	0.300132
727.122000	0.159261
727.322000	0.380504
727.521000	0.080719
727.721000	-0.220323
727.921000	-0.347145
728.121000	-0.362905
728.321000	-0.712858
728.521000	-0.205332
728.721000	-0.349180
728.921000	0.113164
729.121000	1.055282
729.320000	0.305268
729.520000	-0.222178
729.720000	-0.686847
729.920000	-0.593598
730.120000	-0.255129
730.320000	0.065949
730.520000	-0.513327
730.720000	-0.579514
730.919000	-0.305036
731.119000	-0.143904
731.319000	-0.597610
731.519000	-0.678495
731.719000	-0.533160
731.919000	-0.598302
732.119000	-0.907873
732.319000	-0.764095
732.519000	-0.291783
732.718000	-0.602285
732.918000	-0.504786
733.118000	-0.178508
733.318000	-0.064054
733.518000	-0.277588
733.718000	-0.639833
733.918000	-0.426256
734.118000	-0.228683
734.317000	-0.064424
734.517000	-0.377762
734.717000	0.183989
734.917000	0.616345
735.117000	0.151340
735.317000	0.034916
735.517000	0.585181
735.717000	0.586912
735.916000	-0.265906
736.116000	-0.783657
736.316000	-0.385000
736.516000	-0.200003
736.716000	-0.233735
736.916000	-0.808746
737.116000	-0.524258
737.316000	-0.049194
737.516000	-0.151274
737.715000	-0.406488
737.915000	-0.815048
738.115000	-0.407964
738.315000	-0.186197
738.515000	-0.630214
738.715000	-0.444943
738.915000	-0.342325
739.115000	-0.773661
739.314000	-0.738532
739.514000	0.157221
739.714000	0.452069
739.914000	0.105965
740.114000	-0.172298
740.314000	0.071409
740.514000	0.385500
740.714000	-0.330798
740.913000	-0.489033
741.113000	-0.437131
741.313000	-0.244022
741.513000	-0.262313
741.713000	-0.315975
741.913000	-0.264261
742.113000	-0.104481
742.313000	-0.246676
742.513000	-0.389010
742.712000	-0.461552
742.912000	-0.550800
743.112000	-0.248609
743.312000	-0.876055
743.512000	-0.213672
743.712000	-0.070252
743.912000	-0.792060
744.112000	-0.738405
744.311000	-0.758504
744.511000	-0.451573
744.711000	-0.016363
744.911000	-0.690033
745.111000	-0.873183
745.311000	-0.016438
745.511000	-0.327384
745.711000	-0.602295
745.911000	-0.126481
746.110000	-0.548347
746.310000	-0.957430
746.510000	-0.789692
746.710000	-0.053627
746.910000	0.038868
747.110000	-0.609915
747.310000	-0.722407
747.510000	-0.426893
747.709000	-0.054104
747.909000	-0.129061
748.109000	-0.016891
748.309000	-0.524690
748.509000	-0.770376
748.709000	-0.716515
748.909000	-0.546198
749.109000	-0.624510
749.308000	0.020901
749.508000	-0.169733
749.708000	-0.436874
749.908000	-0.360645
750.108000	-0.533963
750.308000	-1.073572
750.508000	0.001925
750.708000	-0.999635
750.908000	-1.465054
751.107000	-0.424026
751.307000	0.485409
751.507000	-0.075742
751.707000	-0.250212
751.907000	-0.736924
752.107000	-0.271185
752.307000	-0.252522
752.507000	-0.410196
752.706000	-0.919863
752.906000	0.316445
753.106000	0.021695
753.306000	-0.828935
753.506000	-0.216229
753.706000	-0.912363
753.906000	-0.196815
754.106000	0.220963
754.305000	-0.117601
754.505000	-0.197848
754.705000	0.062291
754.905000	0.142877
755.105000	0.304316
755.305000	-0.663971
755.505000	-0.868279
755.705000	-0.200622
755.905000	-0.628068
756.104000	-0.832045
756.304000	-1.140251
756.504000	-1.755805
756.704000	-0.552695
756.904000	-0.305965
757.104000	-0.797668
757.304000	-0.860006
757.504000	-0.039236
757.703000	-0.245698
757.903000	-0.018627
758.103000	0.167986
758.303000	-0.081110
758.503000	-0.227290
758.703000	-0.395028
758.903000	-0.708858
759.103000	-0.522106
759.303000	-0.419268
759.502000	-0.314915
759.702000	-0.061269
759.902000	-0.677398
760.102000	-0.806736
760.302000	-0.168725
760.502000	0.513181
760.702000	0.194052
760.902000	-0.638952
761.101000	-0.769376
761.301000	-0.770724
761.501000	-0.663594
761.701000	-0.858597
761.901000	-0.646760
762.101000	0.175584
762.301000	-0.084542
762.501000	-0.540209
762.700000	-0.608082
762.900000	-1.153370
763.100000	-0.412543
763.300000	0.177527
763.500000	0.155764
763.703000	-0.303927
763.905000	-0.875740
764.108000	0.156388
764.311000	0.046262
764.513000	-0.108074
764.716000	0.002215
764.919000	-0.219532
765.121000	-0.729840
765.324000	-1.132539
765.527000	-0.892522
765.729000	-0.937232
765.932000	-0.042569
766.135000	0.114231
766.337000	-0.423546
766.540000	-1.031990
766.743000	-0.722553
766.945000	-0.969785
767.148000	-1.334491
767.351000	-1.062460
767.553000	0.297874
767.756000	-0.248113
767.958000	-0.635014
768.161000	-0.202743
768.364000	-0.500722
768.566000	-1.189240
768.769000	-0.825360
768.972000	-0.434460
769.174000	-0.735529
769.377000	-1.176979
769.580000	-0.924588
769.782000	-0.136600
769.985000	-0.857055
770.188000	-2.186147
770.390000	-1.612041
770.593000	0.282749
770.796000	0.142649
770.998000	-0.512432
771.201000	-0.934591
771.404000	-0.443326
771.606000	-0.657031
771.809000	-0.303689
772.012000	-0.351449
772.214000	-1.366773
772.417000	-1.461353
772.620000	-0.256535
772.822000	-0.685441
773.025000	-0.590678
773.228000	-0.282819
773.430000	-0.330902
773.633000	-0.045317
773.836000	-0.284215
774.038000	-0.285289
774.241000	-0.740593
774.444000	-0.646704
774.646000	0.650987
774.849000	0.002408
775.052000	-0.406813
775.254000	-0.600577
775.457000	-1.033786
775.659000	-0.553157
775.862000	-0.939865
776.065000	-0.820408
776.267000	0.196363
776.470000	0.781659
776.673000	-0.265607
776.875000	0.149078
777.078000	0.246442
777.281000	-0.536395
777.483000	-0.071256
777.686000	-0.120623
777.889000	-0.786124
778.091000	0.027201
778.294000	-1.256875
778.497000	-0.838169
778.699000	-0.937817
778.902000	-1.065166
779.105000	-0.394809
779.307000	0.524677
779.510000	-0.421178
779.713000	-0.497873
779.915000	-1.001544
780.118000	0.555284
780.321000	1.008787
780.523000	-0.627860
780.726000	-1.183088
780.929000	-1.132228
781.131000	-0.982446
781.334000	-1.163541
781.537000	-1.141376
781.739000	-0.379110
781.942000	-1.092414
782.145000	-1.405213
782.347000	-1.149980
782.550000	-0.817548
782.753000	-0.923086
782.955000	-1.080290
783.158000	-1.260025
783.361000	-0.849840
783.563000	-1.160002
783.766000	-1.266618
783.968000	0.728970
784.171000	0.940803
784.374000	0.132923
784.576000	0.289217
784.779000	0.470865
784.982000	0.552072
785.184000	-0.418273
785.387000	0.028981
785.590000	0.476619
785.792000	0.266967
785.995000	-0.553283
786.198000	-0.554185
786.400000	-0.023965
786.603000	-0.371068
786.806000	-1.008636
787.008000	-0.981924
787.211000	-0.691698
787.414000	-1.069234
787.616000	-0.804284
787.819000	-0.671367
788.022000	-1.212251
788.224000	-0.971672
788.427000	-1.568013
788.630000	-0.649517
788.832000	-1.028871
789.035000	-1.487997
789.238000	-1.331355
789.440000	-0.791424
789.643000	-0.270549
789.846000	-0.216508
790.048000	0.442306
790.251000	0.607287
790.454000	-0.244074
790.656000	0.856034
790.859000	0.499360
791.062000	-0.771087
791.264000	-0.687607
791.467000	-1.272879
791.669000	-1.857953
791.872000	-0.667069
792.075000	-0.554784
792.277000	-0.248160
792.480000	-0.557890
792.683000	-1.115528
792.885000	-0.892727
793.088000	-0.896000
793.291000	-1.517718
793.493000	-1.351229
793.696000	-0.420484
793.899000	-0.025468
794.101000	-0.309166
794.304000	-0.139297
794.507000	-0.310325
794.709000	-0.282637
794.912000	-0.771062
795.115000	-1.232052
795.317000	-1.059446
795.520000	-0.429668
795.723000	-0.720931
795.925000	-1.098925
796.128000	-1.068556
796.331000	-0.839642
796.533000	-0.987252
796.736000	-0.377567
796.939000	-0.407810
797.141000	-0.703048
797.344000	0.061833
797.547000	-0.055968
797.749000	-0.764035
797.952000	-0.560369
798.155000	-0.707067
798.357000	-1.038712
798.560000	-1.493534
798.763000	-0.535205
798.965000	-1.102255
799.168000	-0.446383
799.371000	0.392915
799.573000	-0.207646
799.776000	-0.931285
799.978000	-1.055491
800.181000	-1.299922
800.384000	0.943825
800.586000	0.094300
800.789000	-1.821335
800.992000	-1.516244
801.194000	-1.001896
801.397000	-1.157143
801.600000	-1.651277
801.802000	-0.334430
802.005000	-0.397053
802.208000	-1.756347
802.410000	-0.644572
802.613000	-0.771325
802.816000	-0.710199
803.018000	-2.018105
803.221000	-1.367646
803.424000	0.970894
803.626000	0.253262
803.829000	-0.279163
804.032000	0.726483
804.234000	1.166416
804.437000	-0.091568
804.640000	-0.312333
804.842000	-0.344669
805.045000	-0.823058
805.248000	-0.792760
805.450000	-1.173667
805.653000	-1.117091
805.856000	-1.115871
806.058000	-0.125079
806.261000	-1.475556
806.464000	-0.897804
806.666000	-0.512462
806.869000	-0.807678
807.072000	-2.072492
807.274000	-2.852765
807.477000	-1.038130
807.679000	-0.941283
807.882000	-1.269898
808.085000	-0.884076
808.287000	-0.490177
808.490000	-0.886649
808.693000	-1.382036
808.895000	-0.723165
809.098000	-0.393143
809.301000	-1.057412
809.503000	-0.862250
809.706000	-0.398331
809.909000	-0.431733
810.111000	-0.264766
810.314000	0.003359
810.517000	-0.565844
810.719000	-0.973080
810.922000	-0.233311
811.125000	0.138336
811.327000	-0.573474
811.530000	-1.052699
811.735000	-1.119143
811.940000	-1.530759
812.146000	-1.160603
812.351000	0.448527
812.556000	0.724757
812.761000	-0.237758
812.967000	0.799407
813.172000	0.522006
813.377000	-1.002165
813.582000	-0.658176
813.788000	-0.522462
813.993000	-1.290636
814.198000	-0.731727
814.403000	-1.291183
814.609000	-0.348595
814.814000	0.781685
815.019000	1.804121
815.224000	0.673991
815.429000	-1.452849
815.635000	-1.386145
815.840000	-0.246138
816.045000	0.039418
816.250000	-0.068196
816.456000	-1.039069
816.661000	-2.235757
816.866000	-1.987284
817.071000	-1.081646
817.277000	-2.581380
817.482000	-2.111710
817.687000	-1.381397
817.892000	-0.949360
818.097000	-0.327239
818.303000	0.297821
818.508000	1.067861
818.713000	7.920533
818.918000	4.278168
819.124000	0.225357
819.329000	-0.998007
819.534000	-1.670783
819.739000	-1.522064
819.945000	-0.557109
820.150000	-0.297058
820.355000	-0.109259
820.560000	0.003757
820.766000	-0.711968
820.971000	-0.943400
821.176000	-1.971141
821.381000	-2.457765
821.586000	-1.253392
821.792000	-0.149098
821.997000	-0.761492
822.202000	-0.685634
822.407000	-1.417688
822.613000	-1.844169
822.818000	-1.308571
823.023000	-0.653151
823.228000	-0.501779
823.434000	0.237087
823.639000	0.276546
823.844000	-0.972414
824.049000	0.199316
824.255000	1.062540
824.460000	0.082721
824.665000	-1.139988
824.870000	0.162276
825.075000	0.122852
825.281000	0.242469
825.486000	1.243527
825.691000	-1.437624
825.896000	-2.644147
826.102000	-0.558065
826.307000	-0.398439
826.512000	-1.571437
826.717000	-1.738369
826.923000	-1.377599
827.128000	-0.484642
827.333000	-1.512511
827.538000	-1.394747
827.744000	-0.779492
827.949000	-1.683640
828.154000	-0.533177
828.359000	0.499861
828.564000	-0.701656
828.770000	-1.246525
828.975000	-0.079390
829.180000	0.046196
829.385000	-1.423127
829.591000	-1.639896
829.796000	-0.800743
830.001000	-1.184307
830.206000	-2.891338
830.412000	-1.909994
830.617000	-1.786683
830.822000	-0.081423
831.027000	-0.637108
831.232000	-1.630395
831.438000	-0.775467
831.643000	0.827383
831.848000	0.047767
832.053000	-0.213593
832.259000	-1.348612
832.464000	-3.365678
832.669000	-2.850740
832.874000	-2.407570
833.080000	-1.317024
833.285000	0.710318
833.490000	0.666672
833.695000	-0.795498
833.901000	-0.620639
834.106000	-1.515954
834.311000	-0.804667
834.516000	-0.985991
834.721000	-1.942358
834.927000	-0.177308
835.132000	-0.633182
835.337000	1.008213
835.542000	-0.178978
835.748000	-2.148150
835.953000	0.188441
836.158000	0.327125
836.363000	-0.504221
836.569000	-0.508130
836.774000	-0.368925
836.979000	-0.743423
837.184000	-1.776359
837.390000	-0.511811
837.595000	-0.654425
837.800000	-1.269386
838.005000	-1.087248
838.210000	-1.752702
838.416000	-2.570098
838.621000	-1.238305
838.826000	-0.329694
839.031000	0.148884
839.237000	-0.575794
839.442000	-1.885226
839.647000	-2.947014
839.852000	-2.473725
840.058000	-1.555933
840.263000	-1.759635
840.468000	-3.723975
840.673000	-1.614376
840.878000	-0.682705
841.084000	-2.119611
841.289000	-2.075411
841.494000	1.750711
841.699000	1.456247
841.905000	-0.095332
842.110000	0.257273
842.315000	-1.511535
842.520000	-0.651479
842.726000	-2.070479
842.931000	-1.107744
843.136000	0.157938
843.341000	-2.869220
843.547000	-2.351119
843.752000	-2.097405
843.957000	-3.096906
844.162000	-2.072671
844.367000	-0.723632
844.573000	-0.517612
844.778000	-0.568390
844.983000	0.109775
845.188000	0.320505
845.394000	-1.373127
845.599000	-0.893779
845.804000	-1.002961
846.009000	-0.261824
846.215000	-2.195559
846.420000	-2.362962
846.625000	-0.318608
846.830000	1.404366
847.036000	0.059475
847.241000	-1.297702
847.446000	-0.917511
847.651000	-0.921372
847.856000	-1.974962
848.062000	-2.532581
848.267000	-0.711981
848.472000	-0.659067
848.677000	-2.104908
848.883000	-0.714939
849.088000	0.621410
849.293000	-1.062249
849.498000	-0.948631
849.704000	-0.275817
849.909000	-0.615143
850.114000	-2.026085
850.319000	-1.238733
850.524000	-0.278684
850.730000	-0.566249
850.935000	-1.717055
851.140000	-1.318536
851.345000	-1.203210
851.551000	0.063517
851.756000	1.050773
851.961000	-0.343428
852.166000	-1.450137
852.372000	-0.636445
852.577000	-0.229383
852.782000	-2.423822
852.987000	-0.585025
853.193000	-0.468521
853.398000	-1.299200
853.603000	-2.669606
853.808000	-2.968446
854.013000	-1.251206
854.219000	0.425823
854.424000	3.558279
854.629000	2.902387
854.834000	-1.026565
855.040000	-0.849744
855.245000	0.615376
855.450000	-3.334671
855.655000	-4.388108
855.861000	-2.573431
856.066000	-2.408577
856.271000	-2.908590
856.476000	0.628527
856.682000	-1.305623
856.887000	-4.487639
857.092000	-2.120300
857.297000	0.257469
857.502000	0.195055
857.708000	-0.498045
857.913000	0.700998
858.118000	-0.312302
858.323000	-1.016367
858.529000	-1.716855
858.734000	-2.425496
858.939000	-3.138691
859.144000	-3.149312
859.350000	-2.763283
859.555000	-1.802719
859.760000	0.331326
859.965000	1.370383
860.171000	-0.776211
860.376000	0.465051
860.581000	-1.898020
860.786000	-4.939751
860.991000	-3.570275
861.197000	-2.376525
861.402000	-0.126138
861.607000	-0.790525
861.812000	-2.328409
862.018000	-3.074038
862.223000	-1.737855
862.428000	-1.680605
862.633000	-0.195822
862.839000	0.142691
863.044000	-1.500507
863.249000	-2.179740
863.454000	-0.266753
863.659000	-2.051316
863.865000	-3.371507
864.070000	-2.689073
864.275000	-2.278110
864.480000	-2.705896
864.686000	-4.950045
864.891000	-3.486785
865.096000	-0.975727
865.301000	-0.414932
865.507000	0.290039
865.712000	0.360756
865.917000	-0.989558
866.122000	-0.849479
866.328000	-5.377042
866.533000	-4.871113
866.738000	0.581831
866.943000	0.151163
867.148000	1.961690
867.354000	-0.722257
867.559000	-2.838779
867.764000	-0.872662
867.969000	0.007370
868.175000	-2.783987
868.380000	-2.425183
868.585000	-2.871201
868.790000	-0.955433
868.996000	-0.812639
869.201000	-2.309756
869.406000	-4.421728
869.611000	-2.247823
869.817000	-1.944947
870.022000	0.384432
870.227000	-1.428157
870.432000	-2.574226
870.637000	-0.144443
870.843000	-1.521642
871.048000	-2.363892
871.253000	-0.451619
871.458000	-0.838582
871.664000	-3.321457
871.869000	-4.042008
872.074000	-4.054184
872.279000	-2.334522
872.485000	-1.642339
872.690000	-0.781323
872.895000	-0.784552
873.100000	-1.261528
873.306000	-2.940145
873.511000	-0.393146
873.716000	1.375007
873.921000	-2.397976
874.126000	-2.883758
874.332000	-0.640840
874.537000	1.149435
874.742000	0.414411
874.947000	-1.052663
875.153000	0.584808
875.358000	0.338498
875.563000	-1.723914
875.768000	-4.547371
875.974000	-5.730443
876.179000	-1.741652
876.384000	-1.415165
876.589000	-3.033419
876.794000	-2.444724
877.000000	-3.801336
877.205000	-4.388403
877.410000	-2.370699
877.615000	-5.166002
877.821000	-6.837837
878.026000	-2.388854
878.231000	-3.244339
878.436000	-4.364488
878.642000	-3.617608
878.847000	-1.289316
879.052000	1.045536
879.257000	-1.124353
879.463000	-3.307893
879.668000	-2.872367
879.873000	-0.078888
880.078000	-3.154469
880.283000	-4.666327
880.489000	-3.784142
880.694000	-2.471709
880.899000	-0.169594
881.104000	0.457074
881.310000	1.084404
881.515000	-0.975737
881.720000	0.816566
881.925000	3.257612
882.131000	4.250502
882.336000	-0.445599
882.541000	-4.940133
882.746000	-2.938174
882.952000	-2.750761
883.157000	-2.388636
883.362000	-3.500711
883.567000	-4.906670
883.772000	-5.139457
883.978000	-3.458171
884.183000	-2.338865
884.388000	-1.677423
884.593000	-1.771849
884.799000	2.928624
885.004000	0.582538
885.209000	-1.614611
885.414000	-1.989924
885.620000	-4.210025
885.825000	0.106248
886.030000	-2.207574
886.235000	-3.482039
886.440000	0.205381
886.646000	-3.326447
886.851000	-4.526603
887.056000	-1.968802
887.261000	-1.970379
887.467000	-4.264989
887.672000	-1.591502
887.877000	-2.605669
888.082000	-5.347407
888.288000	-5.227179
888.493000	-6.772625
888.698000	-4.573432
888.903000	-2.338542
889.109000	-3.454690
889.314000	0.418061
889.519000	0.010158
889.724000	2.858460
889.929000	0.723088
890.135000	-1.521549
890.340000	-0.915627
890.545000	-2.457698
890.750000	-3.802900
890.956000	-3.712158
891.161000	-2.777514
891.366000	-5.684630
891.571000	-2.272962
891.777000	-0.197382
891.982000	0.636794
892.187000	0.115324
892.392000	-0.617084
892.598000	-0.620607
892.803000	-1.368915
893.008000	-3.169768
893.213000	-2.949931
893.418000	-3.077201
893.624000	-3.734710
893.829000	-5.556313
894.034000	-3.315146
894.239000	1.520178
894.445000	-0.311937
894.650000	-2.367533
894.855000	-4.318829
895.060000	-4.311621
895.266000	-2.381651
895.471000	-4.124102
895.676000	0.229310
895.881000	-0.319392
896.087000	-4.174931
896.292000	-5.089074
896.497000	0.122559
896.702000	-2.985118
896.907000	-3.767719
897.113000	1.349788
897.318000	-0.323339
897.523000	2.135194
897.728000	-0.213219
897.934000	-3.120864
898.139000	-2.792968
898.344000	1.369978
898.549000	0.808451
898.755000	-3.523451
898.960000	-3.545208
899.165000	-5.268550
899.370000	-1.371689
899.575000	2.669486
899.781000	-1.147314
899.986000	-2.538129
900.191000	-1.271339
900.396000	-3.141167
900.602000	-3.629917
900.807000	-4.601997
901.012000	-3.441232
901.217000	0.847522
901.423000	-1.653546
901.628000	-2.255874
901.833000	2.411053
902.038000	3.638648
902.244000	-3.604550
902.449000	-4.474619
902.654000	-1.703326
902.859000	-1.210320
903.064000	0.380806
903.270000	2.231411
903.475000	-1.591562
903.680000	-3.931707
903.885000	-4.459982
904.091000	-4.607805
904.296000	-6.381290
904.501000	-7.161811
904.706000	-4.406880
904.912000	1.544381
905.117000	-0.371692
905.322000	-5.026274
905.527000	-5.903241
905.733000	-3.719297
905.938000	-2.188564
906.143000	-4.049661
906.348000	-7.463127
906.553000	-2.496747
906.759000	-0.118818
906.964000	-2.109545
907.169000	-1.454312
907.374000	-3.581063
907.580000	-0.923454
907.785000	-2.436910
907.990000	24.893225
908.195000	16.953515
908.401000	-2.738386
908.606000	-8.426338
908.811000	-10.076676
909.016000	-2.747056
909.221000	-0.124632
909.427000	-1.239490
909.632000	-4.762656
909.837000	-8.191135
910.042000	-8.498623
910.248000	-8.255649
910.453000	-3.137639
910.658000	-3.739011
910.863000	-4.456177
911.069000	-3.169770
911.274000	2.347400
911.479000	1.775052
911.684000	-9.658873
911.890000	-4.857081
912.095000	-3.976188
912.300000	-6.981896
912.506000	-3.559812
912.711000	-3.302567
912.917000	-1.192400
913.123000	-1.344537
913.328000	-1.048835
913.534000	-1.518654
913.740000	7.121317
913.946000	3.120489
914.151000	-4.233539
914.357000	-6.769350
914.563000	-1.538308
914.768000	-3.429646
914.974000	-7.422499
915.180000	-5.257475
915.385000	-5.599425
915.591000	-9.857676
915.797000	-3.394093
916.002000	1.651062
916.208000	-3.726653
916.414000	-4.096627
916.620000	-3.940514
916.825000	-1.306593
917.031000	-3.459315
917.237000	-8.291856
917.442000	-3.342479
917.648000	-5.230813
917.854000	-8.272423
918.059000	-3.389638
918.265000	-1.343950
918.471000	-3.573519
918.676000	-7.067850
918.882000	-5.548958
919.088000	-7.127520
919.294000	-16.138545
919.499000	-9.707632
919.705000	-4.426887
919.911000	-6.737820
920.116000	-1.238953
920.322000	-4.850646
920.528000	-1.613447
920.733000	-8.437190
920.939000	-10.133158
921.145000	-10.110211
921.350000	-9.680297
921.556000	-4.306398
921.762000	-3.920427
921.968000	-2.802921
922.173000	-7.745478
922.379000	-12.210155
922.585000	-5.945964
922.790000	-6.149268
922.996000	-7.751309
923.202000	-7.058524
923.407000	-12.048883
923.613000	-10.480180
923.819000	-2.167958
924.024000	-1.166240
924.230000	-0.974683
924.436000	-4.383796
924.642000	5.289507
924.847000	2.682434
925.053000	-5.093337
925.259000	-12.883823
925.464000	-7.195235
925.670000	-8.837409
925.876000	-7.895521
926.081000	-3.749014
926.287000	-0.188905
926.493000	-1.687412
926.698000	-7.680902
926.904000	-7.208517
927.110000	-6.609998
927.316000	-5.778608
927.521000	-0.629322
927.727000	-4.823927
927.933000	-8.384468
928.138000	-4.866053
928.344000	-7.844595
928.550000	-0.652807
928.755000	-2.709520
928.961000	-8.612361
929.167000	-6.378620
929.372000	3.695457
929.578000	8.130734
929.784000	2.590078
929.990000	-3.258354
930.195000	-4.207114
930.401000	-4.948778
930.607000	-5.910125
930.812000	-6.926586
931.018000	-9.843328
931.224000	-18.755319
931.429000	-13.205037
931.635000	-11.220779
931.841000	-12.811678
932.046000	-7.403557
932.252000	2.763472
932.458000	11.329647
932.664000	-0.482675
932.869000	-6.332195
933.075000	-9.703797
933.281000	-11.399989
933.486000	-4.183410
933.692000	-4.995148
933.898000	-6.795535
934.103000	0.826258
934.309000	-5.143346
934.515000	1.134095
934.720000	1.693110
934.926000	1.427423
935.132000	2.268908
935.338000	-5.351479
935.543000	-10.023600
935.749000	-8.378199
935.955000	-7.834274
936.160000	-4.684316
936.366000	0.326161
936.572000	-2.388592
936.777000	-3.054564
936.983000	2.505057
937.189000	-2.150671
937.394000	-12.920473
937.600000	-4.411451
937.806000	9.622435
938.012000	-4.513749
938.217000	7.557137
938.423000	0.032948
938.629000	-9.193891
938.834000	-4.613269
939.040000	-8.442933
939.246000	-4.700805
939.451000	-3.390263
939.657000	-2.040435
939.863000	-13.292524
940.068000	-6.693036
940.274000	-16.365659
940.480000	-11.886560
940.686000	-4.377929
940.891000	-2.152314
941.097000	26.740433
941.303000	15.298579
941.508000	3.032686
941.714000	1.166970
941.920000	-18.267871
942.125000	-7.244642
942.331000	-6.123076
942.537000	0.038481
942.742000	3.148610
942.948000	-12.401873
943.154000	-22.094240
943.360000	-33.091725
943.565000	-15.028201
943.771000	4.843567
943.977000	12.364101
944.182000	-13.057305
944.388000	-16.701399
944.594000	-5.210720
944.799000	1.672920
945.005000	-1.965867
945.211000	5.271280
945.416000	3.718223
945.622000	-5.693900
945.828000	-4.927228
946.034000	2.146195
946.239000	1.311832
946.445000	-11.207679
946.651000	-27.742394
946.856000	-20.745547
947.062000	4.631144
947.268000	1.302451
947.473000	-10.925979
947.679000	-14.812291
947.885000	-9.323675
948.090000	-2.098932
948.296000	11.804733
948.502000	-3.391678
948.708000	-9.051265
948.913000	-9.158772
949.119000	4.424386
949.325000	-2.586182
949.530000	-20.571430
949.736000	-28.368638
949.942000	-23.032742
950.147000	-17.937531
950.353000	-6.479222
950.559000	0.043513
950.764000	16.733162
950.970000	10.214477
951.176000	-14.716702
951.382000	-19.815047
951.587000	-1.793538
951.793000	1.897978
951.999000	-0.867046
952.204000	-3.640329
952.410000	-14.568571
952.616000	-7.658060
952.821000	-0.410472
953.027000	-13.203634
953.233000	-19.487039
953.438000	-12.600907
953.644000	5.197440
953.850000	-0.421696
954.056000	-8.002291
954.261000	-7.099121
954.467000	7.211268
954.673000	17.204116
954.878000	-3.299621
955.084000	-3.303697
955.290000	-22.065377
955.495000	-26.951194
955.701000	-18.704886
955.907000	-4.847567
956.112000	-5.337767
956.318000	2.960628
956.524000	10.849778
956.730000	-5.435418
956.935000	-5.451861
957.141000	-11.872859
957.347000	-8.519065
957.552000	-6.999479
957.758000	-21.617547
957.964000	-32.526693
958.169000	9.769508
958.375000	13.904385
958.581000	-6.651022
958.786000	-18.346614
958.992000	-27.829423
959.198000	-17.868488
959.404000	-9.926712
959.609000	-12.945706
959.815000	-14.792061
960.021000	-1.016186
960.226000	-11.277010
960.432000	-28.887188
960.638000	-20.327250
960.843000	-11.977651
961.049000	-2.735645
961.255000	1.715368
961.460000	-3.288237
961.666000	-21.851457
961.872000	-15.270746
962.078000	-19.450989
962.283000	-26.577511
962.489000	-12.789043
962.695000	-10.912895
962.900000	-10.826997
963.106000	-12.681309
963.312000	-6.980292
963.517000	-8.800447
963.723000	-16.673990
963.929000	12.550394
964.134000	22.617731
964.340000	-11.945605
964.546000	-13.465218
964.752000	-20.639749
964.957000	-30.643096
965.163000	-6.746800
965.369000	-8.716651
965.574000	3.231237
965.780000	-6.277637
966.000000	-21.513664
966.220000	-17.173431
966.440000	-21.756873
966.661000	0.064568
966.881000	-26.489359
967.101000	-47.538382
967.321000	-49.240188
967.541000	-15.682618
967.761000	-23.165671
967.981000	-15.853315
968.202000	-7.400764
968.422000	12.338693
968.642000	8.223143
968.862000	-2.012026
969.082000	-8.316847
969.302000	1.515462
969.522000	-10.568428
969.743000	11.810902
969.963000	4.306145
970.183000	-16.489275
970.403000	-28.199247
970.623000	-28.996882
970.843000	-5.032088
971.063000	-3.628663
971.284000	-19.296599
971.504000	-19.790848
971.724000	0.075684
971.944000	-27.735378
972.164000	-48.494743
972.384000	-35.720346
972.604000	-58.634748
972.825000	-63.161280
973.045000	-38.450267
973.265000	22.085181
973.485000	16.090035
973.705000	-0.724489
973.925000	-8.089935
974.145000	-47.765557
974.365000	-9.959508
974.586000	-4.125008
974.806000	-34.736110
975.026000	-13.438728
975.246000	-6.796496
975.466000	-21.275141
975.686000	-20.104935
975.906000	-33.597544
976.127000	-57.449455
976.347000	-45.561674
976.567000	0.966659
976.787000	7.140093
977.007000	-19.725244
977.227000	-34.293526
977.447000	-34.490624
977.668000	-52.340696
977.888000	-47.324690
978.108000	-38.202458
978.328000	-12.243431
978.548000	19.724686
978.768000	23.901339
978.988000	-5.869349
979.209000	-33.570755
979.429000	-25.796044
979.649000	-15.481110
979.869000	-44.113623
980.089000	-49.417367
980.309000	-56.228324
980.529000	-45.390387
980.750000	-16.538576
980.970000	-56.402473
981.190000	-43.375005
981.410000	-36.078574
981.630000	-12.136977
981.850000	7.998022
982.070000	-11.094387
982.291000	-64.184003
982.511000	-60.952082
982.731000	-10.143692
982.951000	-29.674454
983.171000	-48.064255
983.391000	-51.238476
983.611000	-10.291431
983.832000	-34.145020
984.052000	-37.010804
984.272000	-25.417830
984.492000	-25.066246
984.712000	-39.675949
984.932000	-70.780224
985.152000	-54.937012
985.373000	-27.555913
985.593000	-9.868347
985.813000	-32.263317
986.033000	-48.608001
986.253000	2.766197
986.473000	43.964828
986.693000	15.605415
986.914000	-45.758953
987.134000	-20.111115
987.354000	-38.310824
987.574000	177.828922
987.794000	104.535695
988.014000	-51.475395
988.234000	-8.517378
988.455000	29.307648
988.675000	7.473497
988.895000	-21.079427
989.115000	-35.155374
989.335000	-38.663558
989.555000	-4.321334
989.775000	-49.933086
989.995000	-59.142712
990.216000	-44.851826
990.436000	-21.215782
990.656000	71.190414
990.876000	17.950279
991.096000	-17.559893
991.316000	28.887647
991.536000	-18.304843
991.757000	-33.676589
991.977000	-100.253205
992.197000	-13.471348
992.417000	-18.226370
992.637000	-64.540071
992.857000	-71.552399
993.077000	-84.990166
993.298000	-47.009027
993.518000	-49.713001
993.738000	-91.401964
993.958000	-21.060552
994.178000	-45.361170
994.398000	-40.314638
994.618000	-52.176137
994.839000	-83.435319
995.059000	-31.757015
995.279000	-22.073288
995.499000	-3.874308
995.719000	43.418523
995.939000	-41.148608
996.159000	-60.765693
996.380000	-16.098771
996.600000	-79.445582
996.820000	-44.030333
997.040000	21.643868
997.260000	-64.983828
997.480000	-55.545280
997.700000	-137.704039
997.921000	-95.189552
998.141000	21.841194
998.361000	28.609698
998.581000	-34.456658
998.801000	-44.288718
999.021000	-22.640399
999.241000	-9.390375
999.462000	-95.784944
999.682000	-192.842185
999.902000	-80.957430
1000.122000	-88.942595
1000.342000	-193.306625
1000.562000	-102.183354
1000.782000	-82.686983
1001.003000	-1109.382144
