Wavelength	Irradiance
(nm)	(mW/cm2/nm)

294.396000	0.000000
294.577000	0.000000
294.757000	0.000000
294.938000	-0.000000
295.118000	0.000000
295.299000	0.000000
295.479000	-0.000000
295.660000	-0.000000
295.840000	-0.000000
296.021000	-0.000000
296.202000	-0.000000
296.382000	-0.000000
296.563000	-0.000000
296.743000	-0.000000
296.924000	0.000000
297.104000	0.000000
297.285000	-0.000000
297.465000	-0.000000
297.646000	-0.000000
297.826000	-0.000000
298.007000	-0.000000
298.187000	0.000000
298.368000	-0.000000
298.548000	0.000000
298.729000	0.000000
298.909000	-0.000000
299.090000	-0.000000
299.270000	-0.000000
299.451000	-0.000000
299.631000	-0.000000
299.812000	0.000000
299.992000	0.000000
300.173000	0.000000
300.353000	-0.000000
300.534000	0.000000
300.714000	0.000000
300.895000	0.000000
301.075000	-0.000000
301.256000	0.000000
301.436000	-0.000000
301.617000	0.000000
301.797000	-0.000000
301.978000	-0.000000
302.159000	0.000000
302.339000	0.000000
302.520000	0.000000
302.700000	-0.000000
302.881000	0.000000
303.061000	0.000000
303.242000	0.000000
303.422000	0.000000
303.603000	0.000000
303.783000	-0.000000
303.964000	-0.000000
304.144000	-0.000000
304.325000	-0.000000
304.505000	-0.000000
304.686000	-0.000000
304.866000	-0.000000
305.047000	-0.000000
305.227000	0.000000
305.408000	-0.000000
305.588000	-0.000000
305.769000	-0.000000
305.949000	-0.000000
306.130000	-0.000000
306.310000	-0.000000
306.491000	-0.000000
306.671000	0.000000
306.852000	-0.000000
307.032000	-0.000000
307.213000	-0.000000
307.393000	-0.000000
307.574000	0.000000
307.755000	0.000000
307.935000	-0.000000
308.116000	-0.000000
308.296000	-0.000000
308.477000	0.000000
308.657000	0.000000
308.838000	0.000000
309.018000	0.000000
309.199000	0.000000
309.379000	-0.000000
309.560000	0.000000
309.740000	0.000000
309.921000	0.000000
310.101000	0.000000
310.282000	-0.000000
310.462000	-0.000000
310.643000	-0.000000
310.823000	0.000000
311.004000	-0.000000
311.184000	-0.000000
311.365000	0.000000
311.545000	0.000000
311.726000	0.000000
311.906000	0.000000
312.087000	-0.000000
312.267000	-0.000000
312.448000	-0.000000
312.628000	-0.000000
312.809000	-0.000000
312.989000	-0.000000
313.170000	-0.000000
313.344000	0.000000
313.518000	-0.000000
313.691000	-0.000000
313.865000	-0.000000
314.039000	-0.000000
314.213000	-0.000000
314.387000	-0.000000
314.560000	-0.000000
314.734000	-0.000000
314.908000	-0.000000
315.082000	-0.000000
315.255000	0.000000
315.429000	0.000000
315.603000	0.000000
315.777000	-0.000000
315.951000	0.000000
316.124000	-0.000000
316.298000	-0.000000
316.472000	-0.000000
316.646000	-0.000000
316.820000	-0.000000
316.993000	0.000000
317.167000	-0.000000
317.341000	-0.000000
317.515000	-0.000000
317.688000	-0.000000
317.862000	-0.000000
318.036000	-0.000000
318.210000	-0.000000
318.384000	-0.000000
318.557000	-0.000000
318.731000	-0.000000
318.905000	0.000000
319.079000	0.000000
319.253000	0.000000
319.426000	0.000000
319.600000	0.000000
319.774000	-0.000000
319.948000	-0.000000
320.122000	0.000000
320.295000	0.000000
320.469000	-0.000000
320.643000	-0.000000
320.817000	-0.000000
320.990000	-0.000000
321.164000	-0.000000
321.338000	-0.000000
321.512000	-0.000000
321.686000	-0.000000
321.859000	-0.000000
322.033000	-0.000000
322.207000	-0.000000
322.381000	-0.000000
322.555000	0.000000
322.728000	0.000000
322.902000	-0.000000
323.076000	-0.000000
323.250000	-0.000000
323.423000	-0.000000
323.597000	-0.000000
323.771000	-0.000000
323.945000	-0.000000
324.119000	-0.000000
324.292000	-0.000000
324.466000	-0.000000
324.640000	0.000000
324.814000	0.000000
324.988000	-0.000000
325.161000	0.000000
325.335000	0.000000
325.509000	-0.000000
325.683000	-0.000000
325.856000	-0.000000
326.030000	-0.000000
326.204000	-0.000000
326.378000	-0.000000
326.552000	-0.000000
326.725000	-0.000000
326.899000	-0.000000
327.073000	-0.000000
327.247000	0.000000
327.421000	0.000000
327.594000	-0.000000
327.768000	-0.000000
327.942000	0.000000
328.116000	0.000000
328.289000	-0.000000
328.463000	0.000000
328.637000	0.000000
328.811000	-0.000000
328.985000	-0.000000
329.158000	0.000000
329.332000	0.000000
329.506000	0.000000
329.680000	-0.000000
329.854000	-0.000000
330.027000	0.000000
330.201000	0.000000
330.375000	0.000000
330.549000	0.000000
330.723000	0.000000
330.896000	-0.000000
331.070000	-0.000000
331.244000	-0.000000
331.418000	-0.000000
331.591000	-0.000000
331.765000	-0.000000
331.939000	-0.000000
332.113000	-0.000000
332.287000	-0.000000
332.460000	0.000000
332.634000	0.000000
332.808000	-0.000000
332.982000	-0.000000
333.156000	-0.000000
333.329000	-0.000000
333.503000	-0.000000
333.677000	-0.000000
333.851000	-0.000000
334.024000	-0.000000
334.198000	-0.000000
334.372000	-0.000000
334.546000	-0.000000
334.720000	-0.000000
334.893000	-0.000000
335.067000	-0.000000
335.241000	-0.000000
335.415000	-0.000000
335.589000	-0.000000
335.762000	-0.000000
335.936000	-0.000000
336.110000	-0.000000
336.284000	-0.000000
336.458000	0.000000
336.631000	0.000000
336.805000	-0.000000
336.979000	-0.000000
337.153000	-0.000000
337.326000	-0.000000
337.500000	0.000000
337.674000	-0.000000
337.848000	-0.000000
338.022000	-0.000000
338.195000	-0.000000
338.369000	-0.000000
338.543000	-0.000000
338.717000	-0.000000
338.891000	0.000000
339.064000	0.000000
339.238000	-0.000000
339.412000	-0.000000
339.586000	0.000000
339.759000	-0.000000
339.933000	-0.000000
340.107000	0.000000
340.281000	0.000000
340.455000	-0.000000
340.628000	-0.000000
340.802000	-0.000000
340.976000	0.000000
341.150000	-0.000000
341.324000	-0.000000
341.497000	-0.000000
341.671000	-0.000000
341.845000	-0.000000
342.019000	-0.000000
342.192000	0.000000
342.366000	-0.000000
342.540000	-0.000000
342.714000	0.000000
342.888000	-0.000000
343.061000	-0.000000
343.235000	-0.000000
343.409000	-0.000000
343.583000	-0.000000
343.757000	-0.000000
343.930000	-0.000000
344.104000	-0.000000
344.278000	0.000000
344.452000	0.000000
344.626000	-0.000000
344.799000	-0.000000
344.973000	-0.000000
345.147000	-0.000000
345.321000	-0.000000
345.494000	-0.000000
345.668000	0.000000
345.842000	0.000000
346.016000	-0.000000
346.190000	-0.000000
346.363000	0.000000
346.537000	0.000000
346.711000	0.000000
346.885000	-0.000000
347.059000	-0.000000
347.232000	0.000000
347.406000	0.000000
347.580000	-0.000000
347.754000	-0.000000
347.927000	0.000000
348.101000	0.000000
348.275000	-0.000000
348.449000	-0.000000
348.623000	-0.000000
348.796000	0.000000
348.970000	0.000000
349.144000	-0.000000
349.318000	-0.000000
349.492000	-0.000000
349.665000	-0.000000
349.839000	-0.000000
350.013000	-0.000000
350.187000	-0.000000
350.361000	-0.000000
350.534000	-0.000000
350.708000	-0.000000
350.882000	0.000000
351.056000	0.000000
351.229000	0.000000
351.403000	-0.000000
351.577000	-0.000000
351.751000	-0.000000
351.925000	-0.000000
352.098000	-0.000000
352.272000	-0.000000
352.446000	-0.000000
352.620000	-0.000000
352.794000	-0.000000
352.967000	-0.000000
353.141000	0.000000
353.315000	0.000000
353.489000	-0.000000
353.662000	-0.000000
353.836000	-0.000000
354.010000	-0.000000
354.184000	0.000000
354.358000	-0.000000
354.531000	-0.000000
354.705000	-0.000000
354.879000	0.000000
355.053000	-0.000000
355.227000	-0.000000
355.400000	-0.000000
355.574000	0.000000
355.748000	0.000000
355.922000	-0.000000
356.095000	-0.000000
356.269000	-0.000000
356.443000	-0.000000
356.617000	-0.000000
356.791000	-0.000000
356.964000	-0.000000
357.138000	-0.000000
357.312000	-0.000000
357.486000	-0.000000
357.660000	0.000000
357.833000	0.000000
358.007000	-0.000000
358.181000	-0.000000
358.355000	-0.000000
358.529000	-0.000000
358.702000	-0.000000
358.876000	-0.000000
359.050000	-0.000000
359.224000	-0.000000
359.397000	-0.000000
359.571000	0.000000
359.745000	0.000000
359.919000	-0.000000
360.093000	-0.115309
360.266000	0.030959
360.440000	0.155986
360.614000	0.099051
360.788000	0.148843
360.962000	-0.076748
361.135000	-0.084885
361.309000	-0.155176
361.483000	-0.332784
361.657000	-0.329963
361.830000	-0.102122
362.004000	0.203131
362.178000	-0.223389
362.352000	-0.200781
362.526000	0.017265
362.699000	-0.163524
362.873000	-0.473150
363.047000	-0.290927
363.221000	-0.352636
363.395000	-0.215217
363.568000	-0.141181
363.742000	0.009238
363.916000	-0.128059
364.090000	-0.311046
364.263000	-0.237487
364.437000	-0.295150
364.611000	-0.086444
364.785000	-0.025745
364.959000	-0.233287
365.132000	-0.317301
365.306000	-0.201993
365.480000	-0.060342
365.656000	-0.243552
365.831000	-0.243754
366.007000	-0.146523
366.183000	-0.080529
366.358000	-0.247207
366.534000	-0.125474
366.710000	-0.241899
366.886000	-0.217806
367.061000	-0.008163
367.237000	0.108946
367.413000	-0.125354
367.588000	-0.247909
367.764000	-0.245888
367.940000	-0.371841
368.115000	-0.264031
368.291000	-0.383364
368.467000	-0.180213
368.643000	0.265913
368.818000	-0.017547
368.994000	-0.280960
369.170000	-0.203996
369.345000	-0.127024
369.521000	-0.264032
369.697000	-0.094038
369.872000	0.010317
370.048000	-0.140381
370.224000	-0.148800
370.399000	-0.532657
370.575000	-0.343872
370.751000	-0.408796
370.927000	-0.512778
371.102000	-0.524805
371.278000	-0.417557
371.454000	-0.251730
371.629000	0.010393
371.805000	0.019822
371.981000	0.402100
372.156000	0.551033
372.332000	0.233019
372.508000	0.038729
372.683000	-0.121130
372.859000	-0.188190
373.035000	-0.180653
373.211000	0.259916
373.386000	0.029662
373.562000	-0.351769
373.738000	-0.261721
373.913000	-0.530182
374.089000	-0.388972
374.265000	0.000955
374.440000	-0.105008
374.616000	0.106704
374.792000	-0.111288
374.968000	0.263169
375.143000	0.189498
375.319000	-0.094579
375.495000	-0.385429
375.670000	-0.403016
375.846000	-0.283286
376.022000	-0.267102
376.197000	0.010444
376.373000	-0.307179
376.549000	-0.315430
376.724000	-0.282751
376.900000	-0.166245
377.076000	0.047526
377.252000	0.055724
377.427000	0.074462
377.603000	-0.259634
377.779000	-0.259730
377.954000	-0.283285
378.130000	-0.218590
378.306000	-0.109894
378.481000	-0.155427
378.657000	-0.246136
378.833000	-0.364472
379.009000	-0.304755
379.184000	-0.192722
379.360000	-0.154472
379.536000	-0.091240
379.711000	-0.280143
379.887000	-0.359109
380.063000	-0.455767
380.238000	-0.422183
380.414000	0.055787
380.590000	-0.174525
380.765000	-0.404123
380.941000	-0.144733
381.117000	-0.017185
381.293000	-0.098357
381.468000	-0.204337
381.644000	-0.252666
381.820000	-0.135054
381.995000	0.092444
382.171000	0.313586
382.347000	0.056028
382.522000	-0.318755
382.698000	0.082695
382.874000	0.127941
383.050000	-0.364447
383.225000	0.037389
383.401000	0.247945
383.577000	-0.082007
383.752000	-0.152717
383.928000	0.000902
384.104000	-0.165434
384.279000	-0.248812
384.455000	-0.106960
384.631000	-0.053108
384.806000	-0.438234
384.982000	-0.350562
385.158000	-0.371769
385.334000	-0.169168
385.509000	-0.035053
385.685000	-0.318618
385.861000	-0.218216
386.036000	-0.233218
386.212000	-0.490877
386.388000	-0.258038
386.563000	-0.248636
386.739000	-0.449397
386.915000	-0.530308
387.090000	-0.180368
387.266000	0.073161
387.442000	0.118211
387.618000	-0.079676
387.793000	-0.342213
387.969000	-0.432285
388.145000	-0.359055
388.320000	-0.415294
388.496000	-0.380658
388.672000	-0.542552
388.847000	-0.150567
389.023000	-0.160503
389.199000	-0.332597
389.375000	-0.123501
389.550000	-0.228375
389.726000	-0.158234
389.902000	-0.306701
390.077000	-0.217637
390.253000	-0.105808
390.429000	-0.151148
390.604000	-0.114574
390.780000	0.036234
390.956000	-0.227125
391.131000	-0.314216
391.307000	-0.077952
391.483000	-0.209253
391.659000	-0.394403
391.834000	-0.147813
392.010000	-0.173816
392.186000	-0.305152
392.361000	-0.200661
392.537000	-0.389650
392.713000	0.052548
392.888000	0.294191
393.064000	-0.198273
393.240000	-0.439589
393.416000	-0.522719
393.591000	-0.500558
393.767000	-0.588875
393.943000	-0.435899
394.118000	0.017884
394.294000	0.196596
394.470000	-0.134971
394.645000	-0.024539
394.821000	0.375330
394.997000	-0.244431
395.172000	-0.251556
395.348000	-0.134034
395.524000	-0.383053
395.700000	-0.262240
395.875000	-0.007516
396.051000	-0.224361
396.227000	-0.268048
396.402000	-0.320155
396.578000	-0.260357
396.754000	-0.325985
396.929000	-0.291158
397.105000	-0.124119
397.281000	-0.248993
397.457000	-0.239965
397.632000	-0.204573
397.808000	-0.486992
397.984000	-0.322567
398.159000	-0.397895
398.335000	-0.314132
398.511000	0.191110
398.686000	-0.114876
398.862000	-0.278274
399.038000	-0.236619
399.213000	-0.072526
399.389000	-0.434231
399.565000	-0.121963
399.741000	0.098933
399.916000	0.042102
400.092000	0.403354
400.268000	-0.194722
400.443000	-0.394911
400.619000	0.033739
400.795000	-0.106546
400.970000	-0.211087
401.146000	-0.244641
401.322000	0.033773
401.497000	0.412384
401.673000	0.108384
401.849000	-0.263054
402.025000	-0.122349
402.200000	-0.212094
402.376000	-0.400265
402.552000	0.156987
402.727000	-0.056447
402.903000	-0.423687
403.079000	-0.268761
403.254000	0.058050
403.430000	-0.153496
403.606000	-0.202559
403.782000	-0.064185
403.957000	-0.235471
404.133000	-0.423963
404.309000	-0.285005
404.484000	-0.137519
404.660000	-0.170542
404.841000	-0.366604
405.023000	-0.177834
405.204000	-0.096917
405.385000	-0.498257
405.566000	-0.463438
405.748000	-0.196690
405.929000	0.017369
406.110000	0.058044
406.292000	-0.201530
406.473000	-0.137120
406.654000	-0.260880
406.835000	-0.080686
407.017000	-0.299604
407.198000	-0.215974
407.379000	-0.151325
407.560000	-0.191957
407.742000	-0.242010
407.923000	-0.153825
408.104000	-0.298899
408.286000	-0.104282
408.467000	-0.200789
408.648000	-0.371273
408.829000	-0.442510
409.011000	-0.313937
409.192000	-0.347568
409.373000	-0.112464
409.555000	-0.096299
409.736000	-0.240338
409.917000	-0.297707
410.098000	-0.247649
410.280000	-0.110596
410.461000	0.008737
410.642000	-0.094689
410.823000	0.072383
411.005000	-0.150525
411.186000	-0.198443
411.367000	-0.158732
411.549000	-0.086881
411.730000	0.176103
411.911000	0.167851
412.092000	-0.141971
412.274000	-0.227488
412.455000	-0.093865
412.636000	-0.093951
412.818000	-0.337352
412.999000	-0.335070
413.180000	-0.289948
413.361000	-0.306801
413.543000	-0.414989
413.724000	-0.374803
413.905000	-0.406115
414.087000	-0.391282
414.268000	-0.363727
414.449000	-0.379947
414.630000	-0.529625
414.812000	-0.551904
414.993000	-0.184446
415.174000	-0.084160
415.355000	-0.185674
415.537000	-0.486493
415.718000	-0.332147
415.899000	-0.253964
416.081000	-0.398983
416.262000	-0.198698
416.443000	-0.274725
416.624000	-0.190107
416.806000	-0.228720
416.987000	0.046886
417.168000	-0.037437
417.350000	-0.236025
417.531000	-0.287753
417.712000	-0.295322
417.893000	-0.059953
418.075000	0.015877
418.256000	-0.279795
418.437000	-0.189565
418.618000	-0.052341
418.800000	0.068921
418.981000	-0.210258
419.162000	-0.126541
419.344000	-0.052003
419.525000	-0.075017
419.706000	-0.158544
419.887000	-0.052237
420.069000	0.091508
420.250000	-0.059729
420.431000	-0.127465
420.613000	-0.097757
420.794000	-0.295344
420.975000	0.105946
421.156000	-0.164872
421.338000	-0.270050
421.519000	-0.315119
421.700000	-0.346226
421.882000	-0.202872
422.063000	-0.097050
422.244000	0.285186
422.425000	0.158541
422.607000	-0.318122
422.788000	-0.263746
422.969000	-0.321961
423.150000	-0.427526
423.332000	-0.501213
423.513000	-0.179629
423.694000	-0.188128
423.876000	-0.134831
424.057000	-0.029381
424.238000	0.008318
424.419000	0.122101
424.601000	-0.037157
424.782000	0.023483
424.963000	0.151000
425.145000	-0.089642
425.326000	-0.021752
425.507000	-0.044189
425.688000	-0.089579
425.870000	-0.384685
426.051000	-0.419583
426.232000	-0.314473
426.413000	-0.286125
426.595000	-0.194508
426.776000	-0.209431
426.957000	-0.119868
427.139000	-0.111854
427.320000	-0.195291
427.501000	-0.090078
427.682000	-0.067040
427.864000	-0.104644
428.045000	0.121559
428.226000	0.152304
428.408000	-0.256626
428.589000	-0.187694
428.770000	-0.074456
428.951000	-0.141902
429.133000	-0.455876
429.314000	-0.253408
429.495000	-0.237666
429.677000	-0.193647
429.858000	-0.276190
430.039000	-0.254033
430.220000	-0.029230
430.402000	-0.081439
430.583000	-0.231409
430.764000	-0.215569
430.945000	-0.096410
431.127000	0.067525
431.308000	0.030284
431.489000	0.119578
431.671000	-0.044000
431.852000	-0.162230
432.033000	-0.110388
432.214000	0.126438
432.396000	0.170352
432.577000	-0.169250
432.758000	-0.369780
432.940000	-0.169517
433.121000	-0.102786
433.302000	-0.198258
433.483000	-0.036042
433.665000	0.228882
433.846000	0.059600
434.027000	-0.123573
434.208000	-0.196435
434.390000	-0.189830
434.571000	0.059393
434.752000	0.481098
434.934000	0.362648
435.115000	0.298245
435.296000	0.370692
435.477000	0.181547
435.659000	-0.113794
435.840000	-0.035176
436.026000	-0.063702
436.211000	-0.306720
436.397000	-0.554848
436.582000	-0.305572
436.768000	-0.155863
436.953000	-0.113007
437.139000	-0.162404
437.325000	-0.048719
437.510000	-0.027533
437.696000	0.127443
437.881000	0.204570
438.067000	-0.236949
438.252000	-0.202152
438.438000	-0.146090
438.624000	-0.153086
438.809000	-0.041074
438.995000	0.077185
439.180000	0.021490
439.366000	-0.227830
439.551000	-0.130706
439.737000	-0.033818
439.923000	-0.026952
440.108000	-0.095932
440.294000	0.000688
440.479000	0.151519
440.665000	0.082419
440.850000	-0.012870
441.036000	0.021046
441.222000	-0.006136
441.407000	-0.155597
441.593000	-0.066977
441.778000	-0.033074
441.964000	0.048128
442.149000	-0.154639
442.335000	-0.160581
442.521000	-0.146981
442.706000	-0.066174
442.892000	-0.106050
443.077000	-0.213480
443.263000	-0.072642
443.448000	-0.158561
443.634000	-0.298094
443.820000	0.139192
444.005000	0.112732
444.191000	-0.197526
444.376000	-0.143996
444.562000	0.229375
444.747000	0.171452
444.933000	0.066158
445.119000	-0.005881
445.304000	-0.129796
445.490000	-0.031973
445.675000	0.020218
445.861000	-0.175909
446.046000	-0.169000
446.232000	-0.071026
446.418000	0.052722
446.603000	-0.031890
446.789000	-0.038357
446.974000	-0.097159
447.160000	-0.246248
447.345000	-0.160934
447.531000	-0.225369
447.717000	-0.031836
447.902000	0.059370
448.088000	0.253601
448.273000	0.084529
448.459000	-0.025094
448.644000	-0.095925
448.830000	-0.212600
449.016000	-0.322185
449.201000	-0.212122
449.387000	-0.122131
449.572000	-0.095995
449.758000	-0.186070
449.943000	-0.160546
450.129000	-0.243390
450.315000	-0.178834
450.500000	-0.211067
450.686000	-0.050775
450.871000	-0.308157
451.057000	-0.147071
451.243000	-0.236710
451.428000	-0.108558
451.614000	-0.076259
451.799000	-0.114641
451.985000	0.051854
452.170000	-0.037734
452.356000	-0.159137
452.542000	-0.069746
452.727000	0.083559
452.913000	-0.063252
453.098000	0.038969
453.284000	0.185833
453.469000	0.032607
453.655000	0.128288
453.841000	-0.012108
454.026000	-0.081845
454.212000	0.006959
454.397000	-0.024706
454.583000	-0.299697
454.768000	-0.431525
454.954000	-0.075172
455.140000	0.006937
455.325000	-0.225878
455.511000	-0.315490
455.696000	-0.290227
455.882000	-0.081384
456.067000	0.265731
456.253000	0.070067
456.439000	-0.201333
456.624000	-0.200670
456.810000	-0.225212
456.995000	-0.225516
457.181000	-0.262512
457.366000	-0.067943
457.552000	-0.049041
457.738000	0.031624
457.923000	0.075162
458.109000	0.243615
458.294000	0.150006
458.480000	0.125263
458.665000	-0.067727
458.851000	-0.154443
459.037000	-0.381382
459.222000	-0.190397
459.408000	-0.165754
459.593000	-0.177218
459.779000	0.086186
459.964000	0.159817
460.150000	0.350258
460.336000	0.251856
460.521000	0.024951
460.707000	-0.060106
460.892000	-0.259956
461.078000	-0.060130
461.263000	0.073164
461.449000	-0.084348
461.635000	-0.017579
461.820000	-0.132485
462.006000	-0.065659
462.191000	0.066618
462.377000	-0.202857
462.562000	0.120662
462.748000	0.282028
462.934000	-0.179249
463.119000	-0.303736
463.305000	-0.136069
463.490000	-0.064452
463.676000	0.018377
463.861000	-0.011313
464.047000	-0.040953
464.233000	-0.028891
464.418000	-0.099538
464.604000	-0.216859
464.789000	-0.075868
464.975000	-0.011139
465.160000	-0.022903
465.346000	-0.093319
465.532000	-0.169864
465.717000	-0.198930
465.903000	-0.022849
466.088000	-0.011118
466.274000	-0.168248
466.459000	-0.255869
466.645000	0.140660
466.831000	0.087578
467.016000	0.168500
467.202000	0.023847
467.387000	-0.144419
467.573000	-0.224708
467.758000	0.035088
467.944000	-0.200660
468.130000	-0.253709
468.315000	0.017925
468.501000	0.133097
468.686000	0.046557
468.872000	0.000575
469.057000	0.081050
469.243000	0.052382
469.429000	-0.108712
469.614000	-0.154357
469.800000	-0.160100
469.985000	-0.050912
470.171000	0.017667
470.356000	-0.068072
470.542000	-0.051106
470.728000	-0.016595
470.913000	-0.079146
471.099000	0.085920
471.284000	0.000573
471.470000	-0.142899
471.655000	-0.079783
471.841000	-0.079530
472.027000	-0.158779
472.212000	0.040440
472.398000	0.132006
472.583000	0.040617
472.769000	0.017767
472.954000	-0.016595
473.140000	-0.187462
473.326000	-0.267576
473.511000	0.068893
473.697000	0.182982
473.882000	-0.016599
474.068000	-0.073979
474.253000	-0.165025
474.439000	-0.136690
474.625000	-0.027973
474.810000	0.029136
474.996000	-0.005142
475.181000	-0.210026
475.367000	-0.033616
475.552000	0.304269
475.738000	-0.107690
475.924000	-0.142196
476.109000	-0.010846
476.295000	-0.113657
476.480000	-0.090905
476.666000	-0.147853
476.851000	-0.130658
477.037000	0.000574
477.223000	-0.050845
477.408000	-0.273723
477.594000	-0.279174
477.779000	-0.062357
477.965000	-0.062378
478.151000	-0.245457
478.336000	-0.091058
478.522000	-0.119406
478.707000	-0.227934
478.893000	-0.079570
479.078000	-0.234709
479.264000	-0.326610
479.450000	-0.240606
479.635000	-0.022365
479.821000	-0.166021
480.006000	-0.200336
480.192000	-0.142798
480.377000	0.023564
480.563000	0.057991
480.749000	-0.252224
480.934000	-0.188822
481.120000	-0.148102
481.305000	-0.085084
481.491000	-0.010894
481.676000	-0.010918
481.862000	-0.045502
482.048000	-0.222846
482.233000	-0.022315
482.419000	-0.085449
482.604000	-0.263499
482.790000	-0.183133
482.975000	-0.131587
483.161000	0.006302
483.347000	-0.005148
483.532000	-0.113847
483.718000	-0.274939
483.903000	-0.200602
484.089000	-0.119842
484.274000	-0.228428
484.460000	-0.108420
484.646000	-0.039585
484.831000	-0.200365
485.017000	-0.073828
485.202000	-0.022278
485.388000	0.114740
485.573000	0.137303
485.759000	-0.027987
485.945000	0.063413
486.130000	-0.159268
486.316000	-0.165040
486.501000	0.000570
486.687000	-0.152996
486.872000	-0.147442
487.058000	0.103107
487.244000	0.023370
487.429000	-0.141519
487.615000	-0.016485
487.800000	0.034670
487.986000	-0.101349
488.171000	0.051643
488.357000	-0.112552
488.543000	-0.033248
488.728000	0.068209
488.914000	-0.179941
489.099000	-0.332041
489.285000	-0.213504
489.470000	0.023039
489.656000	0.079291
489.842000	0.146209
490.027000	0.263050
490.213000	-0.021818
490.398000	-0.268631
490.584000	0.000559
490.769000	-0.016207
490.955000	-0.010600
491.141000	0.000557
491.326000	-0.121483
491.512000	0.022733
491.697000	0.006087
491.883000	-0.137834
492.068000	-0.093562
492.254000	0.033831
492.440000	0.050439
492.625000	-0.154184
492.811000	-0.220053
492.996000	-0.065540
493.182000	-0.109251
493.367000	-0.131585
493.553000	-0.164664
493.739000	-0.147920
493.924000	-0.126068
494.110000	-0.048841
494.295000	-0.190940
494.481000	-0.026841
494.666000	0.022475
494.852000	0.104533
495.038000	-0.032224
495.223000	-0.283886
495.409000	-0.250477
495.594000	-0.207163
495.780000	-0.173913
495.965000	-0.245034
496.151000	-0.037610
496.337000	0.060447
496.522000	-0.113374
496.708000	-0.075676
496.893000	0.071316
497.079000	-0.124353
497.264000	-0.183734
497.450000	-0.183805
497.636000	-0.080861
497.821000	-0.113127
498.007000	0.033019
498.192000	0.109205
498.378000	0.016813
498.563000	-0.129664
498.749000	-0.146089
498.935000	-0.048261
499.120000	0.135777
499.306000	0.000542
499.491000	-0.237172
499.677000	-0.172288
499.862000	0.011385
500.048000	0.114592
500.234000	-0.021127
500.419000	-0.107999
500.605000	0.087453
500.790000	-0.048290
500.976000	-0.140756
501.161000	-0.140718
501.347000	-0.059219
501.533000	-0.026638
501.718000	-0.108120
501.904000	-0.130156
502.089000	-0.043086
502.275000	0.087581
502.460000	0.060204
502.646000	0.027693
502.832000	-0.004890
503.017000	-0.059339
503.203000	-0.282935
503.388000	-0.218039
503.574000	-0.032157
503.759000	-0.004904
503.945000	0.115167
504.131000	0.016920
504.316000	0.000545
504.502000	-0.064937
504.687000	-0.130768
504.873000	-0.218433
505.058000	-0.174615
505.244000	-0.190990
505.430000	-0.196833
505.615000	-0.081798
505.801000	0.011549
505.986000	-0.245745
506.172000	-0.152794
506.358000	-0.026896
506.543000	-0.191461
506.729000	0.011528
506.914000	-0.010453
507.100000	0.121996
507.285000	-0.032624
507.471000	-0.148577
507.657000	0.050256
507.842000	0.050187
508.028000	-0.192605
508.213000	-0.159891
508.399000	-0.099238
508.584000	-0.038292
508.770000	-0.049304
508.956000	-0.115871
509.141000	-0.082533
509.327000	0.011656
509.512000	-0.021562
509.698000	-0.038205
509.883000	0.044975
510.069000	-0.010578
510.255000	-0.211099
510.440000	-0.066363
510.626000	0.000557
510.811000	-0.055261
510.997000	-0.066439
511.182000	0.195733
511.368000	0.117791
511.554000	-0.261974
511.739000	-0.183654
511.925000	0.000559
512.110000	-0.060827
512.296000	0.073287
512.481000	0.162599
512.667000	0.129213
512.853000	-0.128116
513.038000	-0.010645
513.224000	-0.111516
513.409000	-0.201156
513.595000	-0.033112
513.780000	-0.184550
513.966000	-0.223275
514.152000	-0.268076
514.337000	-0.329771
514.523000	-0.223413
514.708000	-0.038675
514.894000	-0.050023
515.079000	-0.167398
515.265000	-0.139884
515.451000	-0.224244
515.636000	-0.218464
515.822000	0.006185
516.007000	-0.089420
516.193000	0.023035
516.378000	0.101867
516.564000	-0.111835
516.750000	-0.089386
516.935000	0.034310
517.121000	0.096163
517.306000	0.135651
517.492000	0.000564
517.677000	-0.168360
517.863000	-0.252868
518.049000	-0.027604
518.234000	-0.128911
518.420000	-0.078345
518.605000	0.113251
518.791000	-0.044489
518.976000	-0.129474
519.162000	-0.275969
519.348000	-0.106685
519.533000	-0.072711
519.719000	0.214969
519.904000	0.034457
520.090000	-0.044534
520.275000	0.158510
520.461000	0.074043
520.647000	-0.174617
520.832000	-0.333748
521.018000	-0.197242
521.203000	-0.089567
521.389000	-0.247115
521.574000	-0.151577
521.760000	-0.106639
521.946000	-0.050369
522.131000	-0.169363
522.317000	-0.106890
522.502000	-0.197295
522.688000	-0.106892
522.873000	-0.010756
523.059000	-0.027759
523.245000	-0.106968
523.430000	-0.226109
523.616000	-0.192054
523.801000	-0.322783
523.987000	-0.232434
524.172000	-0.130127
524.358000	-0.033540
524.544000	-0.124294
524.729000	-0.056038
524.915000	0.057308
525.100000	-0.107197
525.286000	0.034649
525.471000	-0.107658
525.657000	-0.079259
525.843000	-0.210654
526.028000	-0.107972
526.214000	-0.130774
526.399000	-0.182697
526.585000	-0.331671
526.770000	-0.360270
526.956000	-0.171685
527.142000	-0.119986
527.327000	-0.091386
527.513000	-0.281403
527.698000	-0.270196
527.884000	-0.207577
528.069000	-0.241782
528.255000	-0.045646
528.441000	-0.068841
528.626000	-0.132882
528.812000	0.029570
528.997000	-0.109805
529.183000	-0.254939
529.368000	-0.104433
529.554000	-0.057912
529.740000	-0.110871
529.925000	-0.228243
530.111000	-0.222621
530.296000	-0.181772
530.482000	0.053663
530.667000	-0.082002
530.853000	-0.058591
531.039000	-0.023132
531.224000	0.018486
531.410000	0.066170
531.595000	-0.005370
531.781000	-0.065049
531.967000	-0.191435
532.152000	-0.011438
532.338000	-0.156224
532.523000	-0.259256
532.709000	-0.084312
532.894000	-0.084727
533.080000	0.000610
533.266000	-0.243652
533.451000	-0.311980
533.637000	-0.171563
533.822000	-0.011730
534.008000	-0.239946
534.193000	-0.166542
534.379000	0.037902
534.565000	-0.086715
534.750000	-0.187221
534.936000	0.006914
535.121000	-0.043481
535.307000	0.101631
535.492000	0.101795
535.678000	-0.221980
535.864000	-0.120808
536.049000	0.187078
536.235000	-0.018664
536.420000	-0.186850
536.606000	-0.258709
536.791000	-0.168931
536.977000	-0.188970
537.163000	-0.005908
537.348000	-0.071968
537.534000	0.146894
537.719000	0.107280
537.905000	-0.260215
538.090000	-0.126929
538.276000	0.108506
538.462000	0.156189
538.647000	0.129666
538.833000	-0.169966
539.018000	0.076122
539.204000	0.110488
539.389000	-0.158231
539.575000	0.221985
539.761000	0.091044
539.946000	-0.138956
540.132000	-0.013319
540.317000	-0.153958
540.503000	-0.027476
540.688000	-0.056008
540.874000	0.078934
541.060000	0.121560
541.245000	0.093562
541.431000	0.072409
541.616000	0.079797
541.802000	0.029500
541.987000	0.173896
542.173000	0.131101
542.359000	0.065991
542.544000	0.094859
542.730000	-0.050163
542.915000	-0.028421
543.101000	0.073647
543.286000	-0.013883
543.472000	-0.102201
543.658000	-0.006622
543.843000	0.155634
544.029000	0.274529
544.214000	-0.036305
544.400000	-0.451728
544.585000	-0.207404
544.771000	-0.073836
544.957000	0.224976
545.142000	0.337368
545.328000	0.315755
545.513000	0.323858
545.699000	0.317709
545.884000	0.189547
546.070000	0.030976
546.261000	0.061420
546.451000	-0.029664
546.642000	-0.243057
546.833000	-0.174784
547.023000	-0.266313
547.214000	-0.206097
547.405000	-0.022215
547.595000	0.138828
547.786000	0.193260
547.977000	0.047096
548.167000	-0.215586
548.358000	-0.100120
548.549000	0.273421
548.740000	0.055307
548.930000	-0.349882
549.121000	-0.366518
549.312000	-0.163956
549.502000	-0.290171
549.693000	-0.187791
549.884000	-0.203567
550.074000	-0.156960
550.265000	-0.244301
550.456000	-0.118088
550.646000	-0.054815
550.837000	-0.054834
551.028000	-0.182229
551.218000	-0.070804
551.409000	-0.174987
551.600000	-0.119156
551.790000	-0.015254
551.981000	-0.199903
552.172000	-0.184189
552.362000	0.081201
552.553000	0.267467
552.744000	0.041184
552.934000	-0.160835
553.125000	-0.112543
553.316000	-0.153123
553.506000	0.073878
553.697000	0.025261
553.888000	0.057754
554.079000	0.375289
554.269000	0.245283
554.460000	-0.113556
554.651000	-0.293587
554.841000	-0.482219
555.032000	-0.220570
555.223000	-0.237301
555.413000	-0.121804
555.604000	0.091125
555.795000	0.074902
555.985000	0.108048
556.176000	-0.246164
556.367000	-0.410733
556.557000	-0.263448
556.748000	-0.181215
556.939000	-0.164412
557.129000	-0.255077
557.320000	-0.032214
557.511000	-0.139335
557.701000	-0.147346
557.892000	-0.164467
558.083000	0.116405
558.273000	0.091655
558.464000	-0.197359
558.655000	-0.023927
558.845000	-0.089667
559.036000	-0.056802
559.227000	0.099683
559.418000	0.264935
559.608000	0.165828
559.799000	-0.287572
559.990000	-0.318828
560.180000	-0.212557
560.371000	-0.327950
560.562000	-0.179728
560.752000	-0.105964
560.943000	-0.336118
561.134000	-0.449960
561.324000	-0.285694
561.515000	-0.105404
561.706000	-0.269123
561.896000	-0.431783
562.087000	-0.113327
562.278000	-0.211082
562.468000	-0.513137
562.659000	-0.251393
562.850000	0.057800
563.040000	0.041519
563.231000	-0.398402
563.422000	-0.340249
563.612000	-0.251200
563.803000	-0.177711
563.994000	-0.273767
564.185000	-0.329744
564.375000	0.033093
564.566000	-0.112058
564.757000	-0.055781
564.947000	-0.079938
565.138000	0.089324
565.329000	-0.135724
565.519000	-0.288164
565.710000	-0.216140
565.901000	0.008845
566.091000	0.201668
566.282000	-0.111424
566.473000	-0.063131
566.663000	-0.134896
566.854000	-0.325170
567.045000	-0.205380
567.235000	-0.086418
567.426000	-0.022984
567.617000	-0.030798
567.807000	-0.125614
567.998000	-0.243621
568.189000	-0.227796
568.379000	-0.077836
568.570000	0.040042
568.761000	0.008618
568.951000	-0.179131
569.142000	-0.343860
569.333000	-0.273360
569.524000	-0.295747
569.714000	-0.358141
569.905000	-0.513312
570.096000	-0.108250
570.286000	0.070773
570.477000	0.202436
570.668000	0.000775
570.858000	-0.045716
571.049000	-0.138211
571.240000	-0.230983
571.430000	-0.037804
571.621000	-0.137610
571.812000	-0.114080
572.002000	-0.106613
572.193000	-0.160042
572.384000	-0.022197
572.574000	-0.022215
572.765000	-0.098639
572.956000	-0.220290
573.146000	-0.067942
573.337000	-0.182088
573.528000	-0.105716
573.718000	-0.037169
573.909000	0.205277
574.100000	0.076232
574.290000	-0.179816
574.481000	-0.179414
574.672000	-0.254774
574.863000	-0.126504
575.053000	-0.230863
575.244000	-0.140872
575.435000	-0.326897
575.625000	-0.177184
575.816000	-0.169560
576.007000	-0.117730
576.197000	-0.125331
576.388000	-0.050972
576.579000	0.237052
576.769000	0.163014
576.960000	-0.264605
577.155000	-0.447630
577.350000	-0.175455
577.545000	-0.065215
577.740000	-0.159998
577.935000	0.212161
578.130000	0.080990
578.326000	-0.253868
578.521000	0.066164
578.716000	0.130995
578.911000	-0.136634
579.106000	-0.064099
579.301000	0.050979
579.496000	-0.163908
579.691000	-0.328252
579.886000	-0.063482
580.081000	-0.034897
580.276000	-0.020603
580.471000	-0.020599
580.666000	-0.190744
580.861000	-0.268648
581.057000	-0.112778
581.252000	0.029088
581.447000	-0.169182
581.642000	0.014890
581.837000	-0.013454
582.032000	-0.055781
582.227000	0.162160
582.422000	0.077776
582.617000	-0.229479
582.812000	-0.354117
583.007000	-0.263531
583.202000	-0.242225
583.397000	0.173599
583.592000	0.359706
583.788000	-0.116308
583.983000	-0.088695
584.178000	0.041875
584.373000	-0.170418
584.568000	-0.156402
584.763000	-0.197572
584.958000	-0.327440
585.153000	-0.197572
585.348000	-0.142803
585.543000	0.103279
585.738000	0.028030
585.933000	-0.142920
586.128000	0.055371
586.324000	0.158322
586.519000	0.076022
586.714000	0.254291
586.909000	0.371473
587.104000	0.331375
587.299000	0.186165
587.494000	0.254515
587.689000	-0.006186
587.884000	0.035162
588.079000	0.117903
588.274000	0.104305
588.469000	0.048946
588.664000	0.145650
588.859000	0.221902
589.055000	0.194474
589.250000	0.090706
589.445000	0.014558
589.640000	-0.020120
589.835000	0.320609
590.030000	0.577761
590.225000	0.563959
590.420000	0.272273
590.615000	0.202820
590.810000	0.307023
591.005000	0.343231
591.200000	0.413307
591.395000	0.280391
591.591000	0.349711
591.786000	0.579573
591.981000	0.567298
592.176000	0.617519
592.371000	0.666842
592.566000	0.631323
592.761000	0.911469
592.956000	0.927047
593.151000	1.103044
593.346000	0.923039
593.541000	0.943187
593.736000	1.044861
593.931000	0.946501
594.126000	1.145825
594.322000	1.216464
594.517000	1.322218
594.712000	1.195539
594.907000	1.292083
595.102000	1.485610
595.297000	1.505943
595.492000	1.722612
595.687000	1.676156
595.882000	1.691268
596.077000	1.844636
596.272000	2.215832
596.467000	2.295177
596.662000	2.068465
596.857000	2.055172
597.053000	2.324866
597.248000	2.496474
597.443000	2.535799
597.638000	2.578009
597.833000	2.407038
598.028000	2.714320
598.223000	2.965483
598.418000	3.093926
598.613000	3.086276
598.808000	3.385846
599.003000	3.425780
599.198000	3.190341
599.393000	3.479916
599.589000	3.773439
599.784000	3.513681
599.979000	3.708644
600.174000	4.112932
600.369000	4.117233
600.564000	4.181137
600.759000	4.545188
600.954000	4.749745
601.149000	4.624836
601.344000	4.489941
601.539000	4.862990
601.734000	4.893365
601.929000	4.942510
602.124000	5.101435
602.320000	5.405633
602.515000	5.790504
602.710000	5.832064
602.905000	5.557479
603.100000	5.747989
603.295000	6.098994
603.490000	6.339122
603.685000	6.496086
603.880000	6.652646
604.075000	6.632227
604.270000	6.892688
604.465000	7.111290
604.660000	6.960222
604.856000	7.358017
605.051000	7.917921
605.246000	8.075755
605.441000	7.902262
605.636000	8.031640
605.831000	8.346049
606.026000	8.365045
606.221000	8.406489
606.416000	8.710043
606.611000	9.184744
606.806000	9.476708
607.001000	9.909917
607.196000	10.107252
607.391000	10.008325
607.587000	10.330665
607.782000	10.556036
607.977000	10.749856
608.172000	11.411464
608.367000	11.623147
608.562000	11.676699
608.757000	11.915486
608.952000	12.125575
609.147000	12.884430
609.342000	12.995572
609.537000	13.004208
609.732000	13.291680
609.927000	13.448004
610.122000	14.035131
610.318000	14.636428
610.513000	14.865432
610.708000	15.126188
610.903000	15.556299
611.098000	16.011259
611.293000	16.153692
611.488000	16.562447
611.683000	17.075599
611.878000	17.319139
612.073000	17.662353
612.268000	18.058764
612.463000	18.731804
612.658000	18.894104
612.854000	19.397624
613.049000	19.847194
613.244000	20.230061
613.439000	20.996568
613.634000	21.196326
613.829000	21.590615
614.024000	21.929716
614.219000	22.619004
614.414000	23.381357
614.609000	23.603263
614.804000	23.859070
614.999000	24.281454
615.194000	25.032086
615.389000	25.382228
615.585000	25.859770
615.780000	26.681352
615.975000	26.899620
616.170000	27.548133
616.365000	28.520840
616.560000	29.194383
616.755000	29.781029
616.950000	30.292085
617.145000	30.850180
617.340000	31.006397
617.535000	31.362320
617.730000	32.737728
617.925000	33.235827
618.120000	33.691354
618.316000	34.752537
618.511000	35.358797
618.706000	35.915636
618.901000	36.496859
619.096000	37.767711
619.291000	38.151707
619.486000	38.980605
619.681000	39.381531
619.876000	39.831392
620.071000	40.897450
620.266000	41.602470
620.461000	42.485989
620.656000	43.278365
620.852000	44.187055
621.047000	45.025288
621.242000	45.425892
621.437000	46.731332
621.632000	47.925059
621.827000	48.409389
622.022000	48.626350
622.217000	49.790572
622.412000	51.026147
622.607000	51.814951
622.802000	52.039094
622.997000	53.185386
623.192000	54.417781
623.387000	55.353122
623.583000	55.355178
623.778000	56.867387
623.973000	57.875156
624.168000	58.760376
624.363000	59.632593
624.558000	60.757043
624.753000	61.569387
624.948000	62.854766
625.143000	63.435488
625.338000	64.371548
625.533000	65.329799
625.728000	66.406893
625.923000	67.515632
626.119000	68.883621
626.314000	70.010970
626.509000	70.851171
626.704000	71.766557
626.899000	72.845626
627.094000	74.135243
627.289000	75.300957
627.484000	75.853473
627.679000	76.919977
627.874000	78.224327
628.069000	79.100315
628.264000	80.465315
628.459000	81.451328
628.654000	82.177255
628.850000	82.973224
629.045000	83.841273
629.240000	84.192419
629.435000	84.595631
629.630000	85.482356
629.825000	86.120234
630.020000	86.485737
630.215000	86.664295
630.410000	87.652750
630.605000	87.427802
630.800000	87.117856
630.995000	87.234612
631.190000	87.378212
631.385000	87.474796
631.581000	87.193824
631.776000	86.590479
631.971000	85.133620
632.166000	84.352140
632.361000	84.025202
632.556000	83.382064
632.751000	82.604753
632.946000	80.474842
633.141000	79.793856
633.336000	78.679517
633.531000	77.365856
633.726000	75.796576
633.921000	74.058730
634.117000	72.678808
634.312000	70.828888
634.507000	69.124325
634.702000	67.274579
634.897000	65.330893
635.092000	63.756917
635.287000	62.145011
635.482000	60.107991
635.677000	58.608750
635.872000	56.978175
636.067000	55.104301
636.262000	52.939871
636.457000	50.692866
636.652000	48.842666
636.848000	47.357850
637.043000	45.616023
637.238000	44.197439
637.433000	42.396844
637.628000	40.736288
637.823000	39.420961
638.018000	37.869356
638.213000	36.600790
638.408000	35.196919
638.603000	33.593832
638.798000	32.507594
638.993000	31.451486
639.188000	30.017024
639.383000	28.754568
639.579000	28.164950
639.774000	27.149785
639.969000	26.104267
640.164000	25.179672
640.359000	24.315351
640.554000	23.416547
640.749000	22.736711
640.944000	22.049545
641.139000	21.194173
641.334000	20.382619
641.529000	19.307038
641.724000	18.611011
641.919000	18.061836
642.115000	17.800815
642.310000	17.423913
642.505000	16.591562
642.700000	15.955652
642.895000	15.565268
643.090000	15.226474
643.285000	14.636921
643.480000	14.115638
643.675000	13.802292
643.870000	13.627509
644.065000	13.029512
644.260000	12.180802
644.455000	11.799353
644.650000	11.288356
644.846000	11.105317
645.041000	10.724528
645.236000	10.315609
645.431000	9.681813
645.626000	9.298659
645.821000	9.324050
646.016000	9.419210
646.211000	9.252330
646.406000	8.636928
646.601000	8.453354
646.796000	8.188979
646.991000	7.412188
647.186000	7.223898
647.381000	7.316342
647.577000	7.176903
647.772000	7.001560
647.967000	6.760905
648.162000	6.482378
648.357000	6.196998
648.552000	6.018137
648.747000	5.766690
648.942000	5.770378
649.137000	5.610838
649.332000	5.322544
649.527000	5.142989
649.722000	5.239699
649.917000	5.205706
650.113000	4.755539
650.308000	4.535086
650.503000	4.404309
650.698000	4.407131
650.893000	4.192277
651.088000	3.957068
651.283000	4.035259
651.478000	3.647758
651.673000	3.723486
651.868000	3.412650
652.063000	3.469265
652.258000	3.671397
652.453000	3.691496
652.648000	3.188556
652.844000	3.190865
653.039000	3.126355
653.234000	2.388208
653.429000	2.362454
653.624000	2.400698
653.819000	2.616403
654.014000	2.667030
654.209000	2.262030
654.404000	2.420297
654.599000	2.325822
654.794000	2.171111
654.989000	2.530211
655.184000	2.412119
655.380000	2.158167
655.575000	2.007192
655.770000	2.071113
655.965000	1.980723
656.160000	1.779651
656.355000	1.951059
656.550000	1.865834
656.745000	1.796106
656.940000	1.797578
657.135000	1.624630
657.330000	1.554229
657.525000	1.148980
657.720000	1.578419
657.915000	1.831144
658.111000	1.567388
658.306000	1.762043
658.501000	1.419199
658.696000	1.041283
658.891000	1.449899
659.086000	1.551306
659.281000	1.288227
659.476000	0.911529
659.671000	0.471578
659.866000	0.676464
660.061000	1.178721
660.256000	1.128033
660.451000	1.057252
660.646000	0.719796
660.842000	0.905667
661.037000	0.854590
661.232000	0.721933
661.427000	0.834553
661.622000	0.897948
661.817000	0.763720
662.012000	0.941288
662.207000	0.941935
662.402000	0.851015
662.597000	0.893090
662.792000	0.653916
662.987000	0.570542
663.182000	0.810409
663.378000	0.727979
663.573000	0.282121
663.768000	0.271147
663.963000	0.614648
664.158000	0.603696
664.353000	1.127823
664.548000	1.336018
664.743000	0.805024
664.938000	0.502175
665.133000	0.398396
665.328000	0.786454
665.523000	0.672577
665.718000	0.599198
665.913000	0.579079
666.109000	0.464510
666.304000	0.706541
666.499000	0.685049
666.694000	0.771421
666.889000	0.961268
667.084000	0.572770
667.279000	0.413714
667.474000	0.191622
667.669000	0.308003
667.864000	0.562691
668.059000	0.489258
668.254000	0.596143
668.449000	0.437240
668.644000	0.480233
668.840000	0.468970
669.035000	0.171455
669.230000	-0.063045
669.425000	0.492938
669.620000	0.236293
669.815000	0.290803
670.010000	0.215488
670.205000	0.333694
670.400000	0.236705
670.595000	0.248168
670.790000	0.237744
670.985000	0.410295
671.180000	0.561681
671.376000	0.011870
671.571000	0.120040
671.766000	0.282909
671.961000	0.001084
672.156000	-0.009771
672.351000	-0.042352
672.546000	0.196973
672.741000	0.468010
672.936000	0.501242
673.131000	0.960503
673.326000	0.591463
673.521000	0.143343
673.716000	-0.184920
673.911000	-0.502596
674.107000	0.143712
674.302000	0.560975
674.497000	0.264872
674.692000	-0.042894
674.887000	-0.186506
675.082000	-0.219946
675.277000	0.189264
675.472000	0.400081
675.667000	0.156504
675.862000	-0.087731
676.057000	0.256702
676.252000	0.268381
676.447000	0.123914
676.643000	0.279973
676.838000	0.716346
677.033000	0.348047
677.228000	0.438672
677.423000	0.394034
677.618000	-0.077669
677.813000	-0.077624
678.008000	0.373567
678.203000	0.249685
678.398000	-0.123372
678.593000	0.080389
678.788000	0.341910
678.983000	-0.100973
679.178000	0.046539
679.374000	-0.021598
679.569000	-0.089996
679.764000	-0.181669
679.959000	-0.193558
680.154000	-0.170686
680.349000	-0.401180
680.544000	-0.297325
680.739000	-0.171138
680.934000	-0.251792
681.129000	-0.183320
681.324000	-0.345159
681.519000	0.186441
681.714000	0.128585
681.909000	-0.010413
682.105000	-0.323716
682.300000	0.082699
682.495000	0.292209
682.690000	0.327879
682.885000	0.176332
683.080000	-0.303290
683.275000	-0.338590
683.470000	0.411728
683.665000	0.718288
683.860000	0.825512
684.055000	0.578542
684.250000	0.154507
684.445000	-0.057701
684.641000	0.355515
684.836000	-0.093463
685.031000	-0.165041
685.226000	-0.046369
685.421000	0.454267
685.616000	0.096576
685.811000	0.013147
686.006000	0.216304
686.201000	0.061029
686.396000	-0.479290
686.591000	-0.323779
686.786000	0.230261
686.981000	0.266452
687.176000	0.206670
687.372000	0.158505
687.567000	0.279626
687.762000	0.304673
687.957000	0.122593
688.152000	0.049872
688.347000	0.208376
688.542000	-0.059858
688.737000	-0.706993
688.932000	-0.916127
689.127000	-0.402972
689.322000	0.160911
689.517000	0.136316
689.712000	-0.220602
689.908000	-0.294845
690.103000	-0.184172
690.298000	-0.072939
690.493000	-0.035945
690.688000	-0.358657
690.883000	-0.397250
691.078000	0.113360
691.273000	0.063538
691.468000	-0.273373
691.663000	-0.011277
691.858000	0.164175
692.053000	0.001253
692.248000	0.176880
692.443000	0.214505
692.639000	-0.074164
692.834000	0.177681
693.029000	0.707206
693.224000	0.495241
693.419000	-0.188899
693.614000	-0.341677
693.809000	-0.608860
694.004000	-0.418983
694.199000	-0.317020
694.394000	-0.394745
694.589000	-0.548625
694.784000	-0.229146
694.979000	0.078091
695.174000	0.039786
695.370000	0.488160
695.565000	0.142566
695.760000	-0.269049
695.955000	0.298090
696.150000	0.504718
696.345000	-0.167164
696.540000	-0.154476
696.740000	-0.024647
696.940000	0.092172
697.140000	0.210086
697.340000	-0.037907
697.539000	0.145170
697.739000	-0.168779
697.939000	-0.168896
698.139000	-0.287028
698.339000	-0.774858
698.539000	-0.550899
698.739000	-0.565562
698.939000	-0.223771
699.138000	-0.144564
699.338000	0.173150
699.538000	0.359561
699.738000	0.054558
699.938000	-0.051940
700.138000	-0.492267
700.338000	-0.520446
700.538000	-0.132782
700.737000	-0.347266
700.937000	-0.760650
701.137000	-0.627932
701.337000	0.095554
701.537000	0.136227
701.737000	-0.092949
701.937000	-0.201171
702.137000	-0.106667
702.337000	-0.120370
702.536000	-0.310349
702.736000	-0.147898
702.936000	-0.555777
703.136000	0.028621
703.336000	0.001363
703.536000	-0.080615
703.736000	-0.532955
703.936000	-0.627558
704.135000	-0.695570
704.335000	-0.094555
704.535000	-0.314671
704.735000	-0.507566
704.935000	-0.039805
705.135000	-0.233099
705.335000	-0.593690
705.535000	-0.137095
705.735000	-0.067844
705.934000	-0.095486
706.134000	-0.330852
706.334000	-0.470398
706.534000	-0.471074
706.734000	-0.151587
706.934000	-0.179391
707.134000	-0.485454
707.334000	-0.570124
707.533000	-0.319803
707.733000	-0.361437
707.933000	-0.599272
708.133000	-0.124174
708.333000	0.127625
708.533000	-0.321760
708.733000	-0.068838
708.933000	-0.293874
709.132000	-0.463504
709.332000	-0.323167
709.532000	-0.295594
709.732000	-0.295163
709.932000	-0.748876
710.132000	-0.423012
710.332000	-0.748064
710.532000	-0.168435
710.732000	0.015612
710.931000	-0.467295
711.131000	-0.597453
711.331000	-0.326783
711.531000	-0.355926
711.731000	-0.356822
711.931000	-0.256936
712.131000	-0.270965
712.331000	-0.141979
712.530000	-0.199102
712.730000	-0.501221
712.930000	-0.314414
713.130000	-0.329923
713.330000	-0.344756
713.530000	-0.172289
713.730000	0.479442
713.930000	0.334489
714.129000	-0.577151
714.329000	-1.101413
714.529000	-0.593064
714.729000	-0.027607
714.929000	-0.303691
715.129000	-0.609843
715.329000	-0.304476
715.529000	-0.174072
715.729000	0.439472
715.928000	0.221020
716.128000	-0.232874
716.328000	-0.160117
716.528000	-0.292657
716.728000	-0.101499
716.928000	-0.160354
717.128000	-0.072247
717.328000	-0.352330
717.527000	-0.116602
717.727000	-0.116716
717.927000	-0.042983
718.127000	-0.206139
718.327000	-0.771078
718.527000	-0.607347
718.727000	-0.043104
718.927000	-0.236755
719.127000	-0.491859
719.326000	-0.445195
719.526000	-0.028342
719.726000	0.195821
719.926000	-0.643670
720.126000	-0.868871
720.326000	-0.388608
720.526000	-0.433701
720.726000	-0.239331
720.925000	0.061754
721.125000	-0.346195
721.325000	-0.104186
721.525000	-0.149846
721.725000	-0.089312
721.925000	-0.119924
722.125000	-0.393201
722.325000	-0.028842
722.524000	-0.409578
722.724000	-0.699740
722.924000	-0.745429
723.124000	-0.410572
723.324000	-0.365158
723.524000	-0.350197
723.724000	-0.472964
723.924000	-0.228881
724.124000	-0.397991
724.323000	0.001539
724.523000	-0.044582
724.723000	0.155601
724.923000	-0.183386
725.123000	0.047823
725.323000	0.356996
725.523000	0.078968
725.723000	-0.385144
725.922000	-0.277183
726.122000	-0.075962
726.322000	-0.231610
726.522000	-0.434111
726.722000	0.234678
726.922000	-0.107164
727.122000	-0.091952
727.322000	0.298055
727.521000	0.017208
727.721000	-0.437090
727.921000	-0.358775
728.121000	-0.170728
728.321000	-0.720261
728.521000	-0.313069
728.721000	-0.376637
728.921000	0.363902
729.121000	1.011453
729.320000	0.080564
729.520000	-0.424972
729.720000	-0.694685
729.920000	-0.364101
730.120000	-0.299740
730.320000	-0.364067
730.520000	-0.491454
730.720000	-0.477047
730.919000	-0.205778
731.119000	-0.014383
731.319000	-0.878789
731.519000	-0.894674
731.719000	0.033636
731.919000	-0.302884
732.119000	-0.945473
732.319000	-0.819620
732.519000	-0.417279
732.718000	-0.724340
732.918000	-0.450478
733.118000	-0.160246
733.318000	0.163953
733.518000	-0.225657
733.718000	-0.925017
733.918000	-0.876758
734.118000	-0.144720
734.317000	-0.096329
734.517000	-0.389673
734.717000	-0.211339
734.917000	0.231521
735.117000	0.034519
735.317000	-0.261289
735.517000	0.232339
735.717000	0.794934
735.916000	-0.213226
736.116000	-0.460763
736.316000	-0.280823
736.516000	-0.397016
736.716000	-0.447077
736.916000	-0.782654
737.116000	-0.518162
737.316000	0.152573
737.516000	-0.048718
737.715000	-0.216851
737.915000	-0.822389
738.115000	-0.487577
738.315000	-0.285333
738.515000	-0.606005
738.715000	-0.236015
738.915000	0.239732
739.115000	-0.032358
739.314000	-0.474719
739.514000	0.206621
739.714000	0.481051
739.914000	0.104733
740.114000	-0.583130
740.314000	-0.239278
740.514000	0.518943
740.714000	-0.396147
740.913000	-0.864479
741.113000	-0.640265
741.313000	-0.293238
741.513000	-0.415865
741.713000	-0.434429
741.913000	-0.138482
742.113000	-0.313299
742.313000	-0.664770
742.513000	-0.314261
742.712000	-0.227212
742.912000	-0.614867
743.112000	-0.457848
743.312000	-0.812747
743.512000	-0.353163
743.712000	-0.567942
743.912000	-0.872013
744.112000	-0.943947
744.311000	-0.660223
744.511000	-0.428397
744.711000	0.055705
744.911000	-0.502060
745.111000	-0.484666
745.311000	0.128169
745.511000	-0.395885
745.711000	-0.577198
745.911000	-0.288068
746.110000	-1.085754
746.310000	-1.310958
746.510000	-0.744123
746.710000	-0.034727
746.910000	0.166470
747.110000	-0.767729
747.310000	-1.246300
747.510000	-0.679876
747.709000	-0.496030
747.909000	-0.404867
748.109000	-0.146541
748.309000	-0.481414
748.509000	-0.668336
748.709000	-0.708183
748.909000	-0.670605
749.109000	-0.410874
749.308000	0.452607
749.508000	-0.016964
749.708000	-0.224382
749.908000	-0.111273
750.108000	0.209967
750.308000	-0.719414
750.508000	-0.340645
750.708000	-0.645349
750.908000	-0.913835
751.107000	0.097598
751.307000	0.728249
751.507000	0.136285
751.707000	0.116941
751.907000	-0.151821
752.107000	-0.210183
752.307000	-0.288281
752.507000	-0.133849
752.706000	-0.618389
752.906000	0.409897
753.106000	-0.056532
753.306000	-0.897511
753.506000	0.099995
753.706000	-0.390956
753.906000	-0.469614
754.106000	-0.194784
754.305000	-0.273839
754.505000	-0.373318
754.705000	-0.573958
754.905000	-0.793594
755.105000	-0.316713
755.305000	-0.616357
755.505000	-0.758162
755.705000	-0.198290
755.905000	-0.399781
756.104000	-0.842477
756.304000	-1.389083
756.504000	-1.755591
756.704000	-0.404117
756.904000	-0.403886
757.104000	-0.808660
757.304000	-0.708000
757.504000	-0.038780
757.703000	-0.161214
757.903000	0.288429
758.103000	0.330016
758.303000	-0.347389
758.503000	-0.698672
758.703000	-0.452408
758.903000	-0.762617
759.103000	-0.267343
759.303000	-0.289450
759.502000	-0.749933
759.702000	0.169140
759.902000	-0.144818
760.102000	-0.376587
760.302000	-0.441183
760.502000	-0.103127
760.702000	-0.229733
760.902000	-0.547038
761.101000	-0.866339
761.301000	-1.271019
761.501000	-0.804459
761.701000	-0.954955
761.901000	-0.639239
762.101000	-0.276382
762.301000	-0.619190
762.501000	-0.748356
762.700000	-0.708720
762.900000	-1.118410
763.100000	-0.709780
763.300000	-0.062820
763.500000	-0.106249
763.703000	-0.235560
763.905000	-0.540160
764.108000	-0.084904
764.311000	-0.084916
764.513000	-0.324813
764.716000	-0.260465
764.919000	-0.238897
765.121000	-0.699428
765.324000	-0.855471
765.527000	-0.904253
765.729000	-0.860009
765.932000	0.068648
766.135000	0.179316
766.337000	-0.330024
766.540000	-0.397774
766.743000	-0.132084
766.945000	-0.623366
767.148000	-1.027859
767.351000	-1.274008
767.553000	-0.379812
767.756000	-0.717687
767.958000	-0.875083
768.161000	-0.718236
768.364000	-0.811274
768.566000	-0.790402
768.769000	-0.611254
768.972000	0.002272
769.174000	-0.271192
769.377000	-0.820476
769.580000	-1.074159
769.782000	-0.432494
769.985000	-0.479788
770.188000	-1.815563
770.390000	-1.130801
770.593000	0.510420
770.796000	0.002311
770.998000	-0.529600
771.201000	-0.784818
771.404000	0.048686
771.606000	-0.183878
771.809000	-0.160550
772.012000	-0.557179
772.214000	-1.864168
772.417000	-1.724366
772.620000	-0.067459
772.822000	-0.349284
773.025000	-1.146517
773.228000	-0.890269
773.430000	-1.032927
773.633000	-0.822723
773.836000	-0.705816
774.038000	-0.234582
774.241000	0.097124
774.444000	-0.425331
774.646000	0.334767
774.849000	-0.092804
775.052000	-0.211747
775.254000	-0.188329
775.457000	-0.616870
775.659000	-0.594474
775.862000	-0.952816
776.065000	-0.571674
776.267000	0.170120
776.470000	0.411556
776.673000	0.002408
776.875000	0.292274
777.078000	-0.190520
777.281000	-0.530157
777.483000	0.075284
777.686000	-0.192212
777.889000	-0.192419
778.091000	0.197969
778.294000	-1.071419
778.497000	-1.366043
778.699000	-1.171480
778.902000	-1.200022
779.105000	-0.758348
779.307000	0.199074
779.510000	-0.736496
779.713000	0.076656
779.915000	-0.245614
780.118000	0.598494
780.321000	0.574365
780.523000	-0.545793
780.726000	-0.770412
780.929000	-1.268604
781.131000	-1.295528
781.334000	-1.275285
781.537000	-1.228603
781.739000	-0.022633
781.942000	-0.601517
782.145000	-0.933505
782.347000	-1.237865
782.550000	-1.289320
782.753000	-1.293558
782.955000	-1.322557
783.158000	-0.761486
783.361000	-0.482529
783.563000	-0.329399
783.766000	-0.611864
783.968000	0.746134
784.171000	0.543494
784.374000	-0.589911
784.576000	-0.460973
784.779000	-0.331686
784.982000	-0.230157
785.184000	-0.777417
785.387000	0.158846
785.590000	0.835446
785.792000	1.047614
785.995000	0.761402
786.198000	0.028828
786.400000	-0.102641
786.603000	-0.208442
786.806000	0.002630
787.008000	-0.102574
787.211000	0.002640
787.414000	-1.003829
787.616000	-0.422723
787.819000	-0.210527
788.022000	-1.331580
788.224000	-0.585855
788.427000	-1.041217
788.630000	-0.829987
788.832000	-0.453449
789.035000	-1.176020
789.238000	-1.746426
789.440000	-0.863421
789.643000	0.083732
789.846000	-0.511951
790.048000	-0.350274
790.251000	-0.133082
790.454000	-0.295446
790.656000	0.057131
790.859000	-0.678977
791.062000	-0.844069
791.264000	-0.188326
791.467000	-1.203260
791.669000	-1.863798
791.872000	-0.190345
792.075000	-1.126977
792.277000	-1.182277
792.480000	-0.385151
792.683000	-0.936759
792.885000	-1.103624
793.088000	-0.663492
793.291000	-1.333087
793.493000	-1.921025
793.696000	-0.917656
793.899000	-0.137049
794.101000	-0.137367
794.304000	-0.025288
794.507000	-0.053464
794.709000	-0.053613
794.912000	-0.705435
795.115000	-1.217726
795.317000	-0.933617
795.520000	-0.538678
795.723000	-0.970096
795.925000	-1.516021
796.128000	-1.599939
796.331000	-1.231896
796.533000	-1.407530
796.736000	-0.517819
796.939000	-0.287077
797.141000	-0.433206
797.344000	0.352134
797.547000	0.497859
797.749000	-0.113710
797.952000	-0.788288
798.155000	-0.757326
798.357000	-0.761886
798.560000	-1.446585
798.763000	-0.647190
798.965000	-0.321812
799.168000	-0.648463
799.371000	-0.678865
799.573000	-1.067797
799.776000	-1.694950
799.978000	-1.312243
800.181000	-0.326443
800.384000	1.082826
800.586000	0.393860
800.789000	-0.808417
800.992000	-1.498614
801.194000	-1.411627
801.397000	-1.204041
801.600000	-1.601797
801.802000	-0.330541
802.005000	-0.331593
802.208000	-1.918974
802.410000	-0.637077
802.613000	-0.517422
802.816000	-1.069770
803.018000	-1.656565
803.221000	-1.259369
803.424000	0.558484
803.626000	0.003090
803.829000	-0.027902
804.032000	0.718035
804.234000	0.842111
804.437000	-0.589834
804.640000	-1.025887
804.842000	-0.621941
805.045000	-0.750670
805.248000	-1.255556
805.450000	-1.128583
805.653000	-0.376470
805.856000	-0.439262
806.058000	0.510347
806.261000	-0.060369
806.464000	-0.378482
806.666000	-0.219803
806.869000	-0.125033
807.072000	-1.695775
807.274000	-2.242202
807.477000	-1.251213
807.679000	-0.865955
807.882000	-1.545523
808.085000	-1.068695
808.287000	-0.874661
808.490000	-1.658202
808.693000	-1.039960
808.895000	-0.551570
809.098000	-1.368163
809.301000	-1.077879
809.503000	-0.687702
809.706000	0.433400
809.909000	0.234857
810.111000	0.102687
810.314000	-0.295485
810.517000	-0.493079
810.719000	-0.961765
810.922000	-0.631638
811.125000	0.837039
811.327000	0.774747
811.530000	-0.063976
811.735000	-0.467332
811.940000	-1.108605
812.146000	-0.977917
812.351000	-0.571906
812.556000	-0.879286
812.761000	-1.358875
812.967000	-0.304415
813.172000	0.140089
813.377000	-0.030846
813.582000	1.139275
813.788000	0.557975
813.993000	-1.241059
814.198000	-0.134955
814.403000	-1.034077
814.609000	-1.319002
814.814000	-0.940399
815.019000	0.771183
815.224000	0.422014
815.429000	-0.979539
815.635000	-0.806520
815.840000	-0.877910
816.045000	-0.846492
816.250000	0.074498
816.456000	-0.991451
816.661000	-1.924169
816.866000	-1.821067
817.071000	-1.140578
817.277000	-1.975598
817.482000	-0.897585
817.687000	-0.320619
817.892000	-0.467349
818.097000	-0.141729
818.303000	0.657762
818.508000	0.692749
818.713000	2.150909
818.918000	0.768473
819.124000	0.770449
819.329000	-0.399695
819.534000	-0.915785
819.739000	-1.136550
819.945000	-1.363642
820.150000	-1.482887
820.355000	-0.852736
820.560000	-0.404795
820.766000	-0.107974
820.971000	0.303321
821.176000	-2.286063
821.381000	-2.279467
821.586000	-1.314126
821.792000	-0.411864
821.997000	-0.979563
822.202000	-0.791236
822.407000	-0.717689
822.613000	-1.442198
822.818000	-1.331508
823.023000	-1.065741
823.228000	-0.957288
823.434000	-1.494336
823.639000	-0.150139
823.844000	-0.459324
824.049000	-0.112019
824.255000	0.081380
824.460000	-0.930501
824.665000	-1.438630
824.870000	-0.152566
825.075000	0.003917
825.281000	0.121789
825.486000	0.873389
825.691000	-1.064691
825.896000	-2.494430
826.102000	-1.662664
826.307000	-1.268929
826.512000	-1.233748
826.717000	-0.756950
826.923000	-1.120593
827.128000	-1.163302
827.333000	-2.143129
827.538000	-0.565238
827.744000	0.697054
827.949000	-0.240048
828.154000	-0.567828
828.359000	-0.281730
828.564000	-0.365215
828.770000	-0.819980
828.975000	0.417115
829.180000	0.004151
829.385000	-0.867183
829.591000	-0.829163
829.796000	-0.791432
830.001000	-1.296400
830.206000	-1.132144
830.412000	-1.046901
830.617000	-0.922992
830.822000	0.681932
831.027000	-0.249344
831.232000	-1.313810
831.438000	-1.451545
831.643000	-0.894829
831.848000	-0.725344
832.053000	-0.211110
832.259000	-0.254508
832.464000	-2.028802
832.669000	-2.079548
832.874000	-2.422919
833.080000	-1.911206
833.285000	-0.344489
833.490000	-0.388370
833.695000	-1.840434
833.901000	-1.496045
834.106000	-0.923747
834.311000	-0.084418
834.516000	0.894428
834.721000	0.004475
834.927000	0.139298
835.132000	-0.895957
835.337000	0.816130
835.542000	0.231327
835.748000	-1.398849
835.953000	0.277103
836.158000	0.414397
836.363000	0.050293
836.569000	-0.686523
836.774000	-2.210889
836.979000	-1.936302
837.184000	-1.663054
837.390000	-1.758908
837.595000	-1.624019
837.800000	-0.741582
838.005000	-0.605346
838.210000	-0.840340
838.416000	-0.372313
838.621000	-1.318416
838.826000	-1.506515
839.031000	-1.039563
839.237000	-1.669037
839.442000	-2.677603
839.647000	-3.725828
839.852000	-2.204788
840.058000	-0.862926
840.263000	-2.126734
840.468000	-3.341217
840.673000	-2.032091
840.878000	-1.451476
841.084000	-1.704295
841.289000	-0.190930
841.494000	1.828950
841.699000	1.736080
841.905000	0.104141
842.110000	0.952308
842.315000	-0.744481
842.520000	0.054907
842.726000	-0.295202
842.931000	-0.944882
843.136000	0.256812
843.341000	-1.567585
843.547000	-0.754343
843.752000	-1.110002
843.957000	-1.987794
844.162000	-2.151256
844.367000	-0.921036
844.573000	0.263548
844.778000	0.056693
844.983000	0.418495
845.188000	-0.202531
845.394000	-2.300360
845.599000	-1.458372
845.804000	-0.676601
846.009000	-0.258780
846.215000	-1.321118
846.420000	-2.016285
846.625000	-0.528397
846.830000	-0.579678
847.036000	-1.223756
847.241000	-1.014283
847.446000	0.971233
847.651000	-0.641233
847.856000	-2.169490
848.062000	-2.394063
848.267000	0.005455
848.472000	-1.363021
848.677000	-2.903822
848.883000	-1.144844
849.088000	0.946176
849.293000	-0.994347
849.498000	-1.214996
849.704000	-0.328245
849.909000	-1.946684
850.114000	-2.560333
850.319000	-0.721180
850.524000	-1.455914
850.730000	-0.955387
850.935000	-1.299778
851.140000	0.119508
851.345000	0.460894
851.551000	-0.507938
851.756000	-0.338534
851.961000	-0.742155
852.166000	-1.663520
852.372000	-1.263860
852.577000	-1.156830
852.782000	-2.044200
852.987000	-0.052566
853.193000	0.123095
853.398000	0.123132
853.603000	-0.934369
853.808000	-1.699210
854.013000	-0.644955
854.219000	0.776538
854.424000	2.743304
854.629000	1.258384
854.834000	-1.434889
855.040000	-0.779441
855.245000	0.307121
855.450000	-1.915102
855.655000	-2.889379
855.861000	-3.696887
856.066000	-3.053740
856.271000	-2.752178
856.476000	-0.608917
856.682000	-1.413928
856.887000	-4.373768
857.092000	-2.404737
857.297000	0.937215
857.502000	0.192787
857.708000	-0.305322
857.913000	-0.118595
858.118000	-0.749629
858.323000	-1.320445
858.529000	-1.255321
858.734000	-0.752712
858.939000	0.196663
859.144000	-0.502868
859.350000	-3.367784
859.555000	-1.781758
859.760000	1.483263
859.965000	0.712530
860.171000	-1.605287
860.376000	-1.870943
860.581000	-1.940862
860.786000	-4.165283
860.991000	-4.183447
861.197000	-3.919181
861.402000	-2.355627
861.607000	-2.160157
861.812000	-2.367275
862.018000	-2.839712
862.223000	-2.314513
862.428000	-0.860551
862.633000	-0.060066
862.839000	-0.799182
863.044000	-1.483059
863.249000	-1.951786
863.454000	-0.872077
863.659000	-1.688423
863.865000	-2.446415
864.070000	-2.657804
864.275000	-2.183182
864.480000	-0.955645
864.686000	-4.409449
864.891000	-4.205933
865.096000	-1.172521
865.301000	0.215480
865.507000	-0.762113
865.712000	-0.272664
865.917000	-1.752049
866.122000	-0.416273
866.328000	-3.469692
866.533000	-4.176324
866.738000	1.852989
866.943000	0.576278
867.148000	-0.851390
867.354000	-2.372317
867.559000	-2.805770
867.764000	-2.022199
867.969000	-1.012585
868.175000	-2.170799
868.380000	-1.814130
868.585000	-3.056669
868.790000	-1.676356
868.996000	-0.434754
869.201000	-1.839617
869.406000	-3.183131
869.611000	-3.410547
869.817000	-1.996552
870.022000	2.242519
870.227000	-0.216587
870.432000	-2.169029
870.637000	-1.269845
870.843000	-2.184127
871.048000	-2.185182
871.253000	0.991088
871.458000	0.235723
871.664000	-2.976744
871.869000	-3.225257
872.074000	-3.003351
872.279000	-1.690018
872.485000	-2.710581
872.690000	-2.020299
872.895000	-1.323713
873.100000	-2.736816
873.306000	-2.905957
873.511000	-2.926204
873.716000	-1.025224
873.921000	-1.656687
874.126000	-1.103569
874.332000	-0.793740
874.537000	-1.281100
874.742000	-1.116341
874.947000	-1.121076
875.153000	1.880561
875.358000	0.252961
875.563000	-0.317947
875.768000	-2.529688
875.974000	-3.444320
876.179000	-0.897764
876.384000	-1.150418
876.589000	-1.578411
876.794000	-3.168777
877.000000	-2.753001
877.205000	-2.248081
877.410000	0.932214
877.615000	-2.171488
877.821000	-5.404970
878.026000	-2.699583
878.231000	-4.052686
878.436000	-4.737484
878.642000	-2.978197
878.847000	-1.616425
879.052000	-0.589282
879.257000	-2.920339
879.463000	-3.959546
879.668000	-3.097840
879.873000	-0.337874
880.078000	-3.117789
880.283000	-3.217113
880.489000	-3.565775
880.694000	-3.055899
880.899000	-1.843842
881.104000	-0.256883
881.310000	1.248951
881.515000	-0.522010
881.720000	1.427895
881.925000	3.398111
882.131000	5.093026
882.336000	3.424470
882.541000	-1.983876
882.746000	-2.266766
882.952000	-2.445989
883.157000	-2.907779
883.362000	-3.368712
883.567000	-3.199463
883.772000	-3.599274
883.978000	-3.325332
884.183000	-2.311669
884.388000	-2.954614
884.593000	-3.604416
884.799000	0.381599
885.004000	1.236478
885.209000	-0.934839
885.414000	-0.743426
885.620000	-3.687145
885.825000	0.295946
886.030000	-0.371591
886.235000	-2.578766
886.440000	-0.763639
886.646000	-4.451579
886.851000	-5.448689
887.056000	1.378759
887.261000	-0.675253
887.467000	-4.411918
887.672000	-2.265510
887.877000	-4.663508
888.082000	-6.683965
888.288000	-5.863214
888.493000	-7.194163
888.698000	-4.721600
888.903000	-2.816011
889.109000	-4.018858
889.314000	-0.493824
889.519000	-2.700689
889.724000	0.110596
889.929000	-0.392571
890.135000	-2.210366
890.340000	-1.413396
890.545000	-2.835668
890.750000	-4.675432
890.956000	-2.033787
891.161000	1.438943
891.366000	-1.217860
891.571000	-2.554276
891.777000	-2.762013
891.982000	0.113496
892.187000	-1.025846
892.392000	-0.403160
892.598000	0.634183
892.803000	-0.304162
893.008000	-1.980335
893.213000	-1.661595
893.418000	-2.515222
893.624000	-2.104772
893.829000	-5.385892
894.034000	-2.216210
894.239000	-2.653354
894.445000	-5.517676
894.650000	-3.194799
894.855000	-1.701025
895.060000	-3.834270
895.266000	-2.998877
895.471000	-2.893097
895.676000	-1.284314
895.881000	-3.472461
896.087000	-3.908634
896.292000	-2.290303
896.497000	0.891988
896.702000	-1.195518
896.907000	-2.295861
897.113000	0.672559
897.318000	-0.980779
897.523000	-0.541403
897.728000	-2.983632
897.934000	-2.421225
898.139000	-2.871354
898.344000	-0.548334
898.549000	-1.901964
898.755000	-1.566553
898.960000	-3.844178
899.165000	-5.547634
899.370000	-0.558246
899.575000	2.181572
899.781000	-2.393943
899.986000	-5.028687
900.191000	-2.639921
900.396000	-0.796358
900.602000	0.824360
900.807000	-1.508367
901.012000	-0.694366
901.217000	-0.106183
901.423000	-4.456165
901.628000	-4.824995
901.833000	-1.173725
902.038000	-0.704930
902.244000	-4.158395
902.449000	-2.624788
902.654000	-4.590318
902.859000	-3.854573
903.064000	0.133553
903.270000	1.961767
903.475000	-1.085286
903.680000	-6.687800
903.885000	-6.863901
904.091000	-1.838969
904.296000	-3.581039
904.501000	-3.719652
904.706000	-5.229261
904.912000	0.012615
905.117000	-1.254125
905.322000	-4.073875
905.527000	-6.851522
905.733000	-4.948039
905.938000	-2.419105
906.143000	-2.966308
906.348000	-7.376346
906.553000	-1.945447
906.759000	1.578872
906.964000	-1.298217
907.169000	-1.833016
907.374000	-2.881537
907.580000	-2.367772
907.785000	-1.601231
907.990000	28.386886
908.195000	20.131962
908.401000	-0.530428
908.606000	-9.012130
908.811000	-10.232743
909.016000	-2.442237
909.221000	-2.313100
909.427000	-3.702761
909.632000	-3.179841
909.837000	-4.600255
910.042000	-7.979111
910.248000	-10.837259
910.453000	-4.092391
910.658000	-3.124795
910.863000	-2.551394
911.069000	-6.566242
911.274000	-3.732343
911.479000	0.014499
911.684000	-7.518459
911.890000	-3.925113
912.095000	-3.053383
912.300000	-6.459301
912.506000	-7.640415
912.711000	-8.182770
912.917000	-3.416261
913.123000	-1.328903
913.328000	-0.285451
913.534000	-3.320384
913.740000	5.511719
913.946000	2.010103
914.151000	-5.895369
914.357000	-7.314472
914.563000	-1.827577
914.768000	-4.782821
914.974000	-6.397659
915.180000	-5.828116
915.385000	-5.375739
915.591000	-7.663254
915.797000	-3.033610
916.002000	-1.276408
916.208000	-4.487538
916.414000	-6.325534
916.620000	-7.642725
916.825000	-3.906893
917.031000	-5.872984
917.237000	-10.987473
917.442000	-6.125795
917.648000	-3.998794
917.854000	-5.333779
918.059000	0.521894
918.265000	-0.151328
918.471000	-2.011024
918.676000	-5.619276
918.882000	-9.094879
919.088000	-6.355680
919.294000	-9.876012
919.499000	-6.798468
919.705000	0.720449
919.911000	-0.685276
920.116000	-1.934428
920.322000	-9.428084
920.528000	-5.357429
920.733000	-9.429159
920.939000	-9.650473
921.145000	-5.988310
921.350000	-3.299855
921.556000	-1.282473
921.762000	-2.391648
921.968000	-5.373323
922.173000	-6.719545
922.379000	-8.102109
922.585000	-7.778710
922.790000	-10.840904
922.996000	-9.197254
923.202000	-7.559438
923.407000	-7.020118
923.613000	-6.246320
923.819000	-4.108574
924.024000	-6.232281
924.230000	-2.929370
924.436000	-5.519896
924.642000	4.026162
924.847000	-0.182146
925.053000	-9.481922
925.259000	-11.316871
925.464000	-2.832402
925.670000	-3.237317
925.876000	-7.803713
926.081000	-10.950658
926.287000	-3.505965
926.493000	-1.456678
926.698000	-8.014519
926.904000	-3.131504
927.110000	-3.150283
927.316000	-6.136055
927.521000	3.667680
927.727000	-2.590741
927.933000	-4.788516
928.138000	-2.613366
928.344000	-7.309059
928.550000	-1.980146
928.755000	3.398153
928.961000	-7.613831
929.167000	-8.790076
929.372000	1.837587
929.578000	1.167652
929.784000	-8.279513
929.990000	-9.244360
930.195000	-3.461290
930.401000	-4.189143
930.607000	-4.433836
930.812000	0.260576
931.018000	-5.209346
931.224000	-15.162445
931.429000	-14.262203
931.635000	-15.922682
931.841000	-8.758981
932.046000	-5.114887
932.252000	-2.682125
932.458000	5.487223
932.664000	4.293561
932.869000	-4.499129
933.075000	-10.097082
933.281000	-8.187496
933.486000	-8.035489
933.692000	-10.683914
933.898000	-11.903016
934.103000	-5.242369
934.309000	-5.352510
934.515000	-2.433191
934.720000	1.673422
934.926000	0.857560
935.132000	-1.356590
935.338000	-4.729544
935.543000	-11.894133
935.749000	-13.438355
935.955000	-14.651589
936.160000	-11.618296
936.366000	-5.245813
936.572000	-3.855005
936.777000	-3.628954
936.983000	5.226960
937.189000	-5.206334
937.394000	-10.896851
937.600000	4.736572
937.806000	9.826512
938.012000	-4.461263
938.217000	0.032334
938.423000	0.683867
938.629000	-6.807096
938.834000	-17.352823
939.040000	-13.371723
939.246000	-10.996990
939.451000	-10.797156
939.657000	-4.409416
939.863000	-10.364775
940.068000	-4.865154
940.274000	-11.594104
940.480000	-4.606494
940.686000	1.490823
940.891000	-10.780658
941.097000	13.233077
941.303000	5.923190
941.508000	-3.293464
941.714000	-0.706923
941.920000	-14.662989
942.125000	-7.160402
942.331000	-2.626286
942.537000	3.461032
942.742000	-1.114172
942.948000	-8.415137
943.154000	-14.929211
943.360000	-25.387364
943.565000	-4.271838
943.771000	3.600326
943.977000	2.789851
944.182000	-14.474531
944.388000	-11.779598
944.594000	0.838393
944.799000	9.719163
945.005000	-4.718735
945.211000	-1.153356
945.416000	1.251919
945.622000	-11.295871
945.828000	-4.869935
946.034000	1.289381
946.239000	-5.395440
946.445000	-6.135785
946.651000	-13.894342
946.856000	-15.573421
947.062000	-3.670082
947.268000	2.948346
947.473000	-8.297249
947.679000	-19.254399
947.885000	-5.007379
948.090000	-1.227781
948.296000	9.514799
948.502000	-0.381901
948.708000	-17.506800
948.913000	-16.415369
949.119000	2.641082
949.325000	-7.754979
949.530000	-29.002687
949.736000	-20.262224
949.942000	-5.121031
950.147000	-8.626069
950.353000	-12.850744
950.559000	-7.268191
950.764000	17.406758
950.970000	14.903182
951.176000	2.696900
951.382000	-9.323894
951.587000	0.499988
951.793000	7.366373
951.999000	4.555441
952.204000	-10.429644
952.410000	-26.135168
952.616000	-12.943459
952.821000	-9.421245
953.027000	-9.437618
953.233000	-14.204004
953.438000	-14.306338
953.644000	2.823039
953.850000	-2.269201
954.056000	-8.845246
954.261000	-12.667504
954.467000	8.543459
954.673000	17.946121
954.878000	-1.370672
955.084000	1.467011
955.290000	-12.781194
955.495000	-19.489917
955.701000	-23.239929
955.907000	-10.114755
956.112000	-0.919617
956.318000	16.837653
956.524000	7.326997
956.730000	-7.343670
956.935000	-10.826369
957.141000	-8.297831
957.347000	0.548048
957.552000	-9.904316
957.758000	-26.346642
957.964000	-27.620521
958.169000	5.106004
958.375000	5.121820
958.581000	-8.102449
958.786000	-28.005268
958.992000	-38.944920
959.198000	-11.409134
959.404000	-11.887748
959.609000	-24.614010
959.815000	-12.523994
960.021000	-2.590218
960.226000	-10.079290
960.432000	-32.259250
960.638000	-17.440374
960.843000	-14.000637
961.049000	-9.325474
961.255000	1.695421
961.460000	-14.266956
961.666000	-27.149393
961.872000	-16.776433
962.078000	-22.060333
962.283000	-45.311711
962.489000	-34.573331
962.695000	-13.639441
962.900000	-16.929256
963.106000	-25.124936
963.312000	-20.813328
963.517000	-15.703311
963.723000	-18.842846
963.929000	-1.116989
964.134000	14.140396
964.340000	-14.773211
964.546000	-18.170251
964.752000	-29.426191
964.957000	-29.679831
965.163000	-7.891899
965.369000	-8.615294
965.574000	-3.694632
965.780000	-6.204641
966.000000	-25.026957
966.220000	-6.877835
966.440000	-10.085894
966.661000	-5.041537
966.881000	-20.420167
967.101000	-41.829439
967.321000	-47.385213
967.541000	-16.148808
967.761000	-22.896303
967.981000	-14.357763
968.202000	-17.380822
968.422000	-5.322776
968.642000	-5.978097
968.862000	0.068573
969.082000	-15.127819
969.302000	-17.046851
969.522000	-22.363268
969.743000	-0.614398
969.963000	-20.861739
970.183000	-40.494760
970.403000	-25.005401
970.623000	-20.951719
970.843000	15.209049
971.063000	13.979912
971.284000	-40.427216
971.504000	-52.036053
971.724000	-18.626113
971.944000	-34.841836
972.164000	-32.929019
972.384000	-8.205212
972.604000	-30.465384
972.825000	-42.608800
973.045000	-31.910479
973.265000	17.944323
973.485000	14.320559
973.705000	-6.285454
973.925000	-3.957550
974.145000	-29.271920
974.365000	-7.362095
974.586000	-2.412944
974.806000	-36.790355
975.026000	-2.422588
975.246000	-29.675899
975.466000	-27.783661
975.686000	-4.905432
975.906000	-21.555340
976.127000	-59.327691
976.347000	-54.576218
976.567000	-11.204453
976.787000	-16.466494
977.007000	-26.958418
977.227000	-24.453325
977.447000	-28.546550
977.668000	-48.095381
977.888000	-30.233357
978.108000	-27.348703
978.328000	-31.800475
978.548000	2.864243
978.768000	12.329353
978.988000	-5.801101
979.209000	-19.477578
979.429000	-28.449305
979.649000	-12.414098
979.869000	-18.353067
980.089000	-47.863934
980.309000	-62.660509
980.529000	-69.388837
980.750000	-36.907610
980.970000	-30.924383
981.190000	-24.453661
981.410000	-26.988161
981.630000	-36.207657
981.850000	-22.156330
982.070000	-8.750154
982.291000	-37.588708
982.511000	-45.713404
982.731000	-11.152229
982.951000	-36.123858
983.171000	-45.182368
983.391000	-41.619486
983.611000	-20.457816
983.832000	-25.573733
984.052000	-64.992443
984.272000	-29.930364
984.492000	-24.774778
984.712000	-18.951737
984.932000	-53.974007
985.152000	-66.955135
985.373000	-47.133574
985.593000	-35.680887
985.813000	-34.449460
986.033000	-50.646737
986.253000	1.432112
986.473000	17.455723
986.693000	-16.443722
986.914000	-37.222116
987.134000	-2.534685
987.354000	-29.722263
987.574000	179.845446
987.794000	110.020563
988.014000	-28.816424
988.234000	-16.979361
988.455000	-24.355222
988.675000	-17.235389
988.895000	-13.339959
989.115000	-65.092958
989.335000	-42.640311
989.555000	3.092855
989.775000	-26.145979
989.995000	-56.870859
990.216000	-41.365056
990.436000	-28.511924
990.656000	4.946125
990.876000	-25.413578
991.096000	4.936027
991.316000	45.903633
991.536000	5.145430
991.757000	-21.576709
991.977000	-68.806070
992.197000	11.966380
992.417000	-32.888739
992.637000	-76.908290
992.857000	-101.844285
993.077000	-112.061001
993.298000	-39.286749
993.518000	-75.694372
993.738000	-97.438494
993.958000	-43.555461
994.178000	-41.232613
994.398000	-27.109743
994.618000	-101.413504
994.839000	-122.790393
995.059000	-33.361820
995.279000	48.236752
995.499000	10.278534
995.719000	-9.514793
995.939000	-79.588926
996.159000	-22.652054
996.380000	-3.826835
996.600000	-68.429020
996.820000	-45.600570
997.040000	4.447882
997.260000	-46.448769
997.480000	-32.851451
997.700000	-125.109063
997.921000	-59.792876
998.141000	13.037830
998.361000	2.374407
998.581000	-29.772226
998.801000	-99.359426
999.021000	-124.091407
999.241000	-83.054700
999.462000	-82.181566
999.682000	-99.951603
999.902000	-95.618083
1000.122000	-90.227861
1000.342000	-161.627468
1000.562000	-84.122473
1000.782000	-5.772434
1001.003000	-922.727851
