Wavelength	Irradiance
(nm)	(mW/cm2/nm)

294.396000	0.000000
294.577000	0.000000
294.757000	0.000000
294.938000	-0.000000
295.118000	0.000000
295.299000	0.000000
295.479000	0.000000
295.660000	-0.000000
295.840000	-0.000000
296.021000	-0.000000
296.202000	-0.000000
296.382000	-0.000000
296.563000	-0.000000
296.743000	-0.000000
296.924000	0.000000
297.104000	0.000000
297.285000	-0.000000
297.465000	-0.000000
297.646000	-0.000000
297.826000	0.000000
298.007000	0.000000
298.187000	-0.000000
298.368000	-0.000000
298.548000	0.000000
298.729000	0.000000
298.909000	-0.000000
299.090000	-0.000000
299.270000	-0.000000
299.451000	-0.000000
299.631000	-0.000000
299.812000	-0.000000
299.992000	0.000000
300.173000	0.000000
300.353000	-0.000000
300.534000	0.000000
300.714000	0.000000
300.895000	0.000000
301.075000	-0.000000
301.256000	0.000000
301.436000	0.000000
301.617000	-0.000000
301.797000	-0.000000
301.978000	0.000000
302.159000	0.000000
302.339000	0.000000
302.520000	-0.000000
302.700000	-0.000000
302.881000	0.000000
303.061000	0.000000
303.242000	0.000000
303.422000	0.000000
303.603000	-0.000000
303.783000	-0.000000
303.964000	-0.000000
304.144000	-0.000000
304.325000	-0.000000
304.505000	-0.000000
304.686000	-0.000000
304.866000	0.000000
305.047000	0.000000
305.227000	-0.000000
305.408000	-0.000000
305.588000	-0.000000
305.769000	-0.000000
305.949000	-0.000000
306.130000	-0.000000
306.310000	-0.000000
306.491000	-0.000000
306.671000	0.000000
306.852000	-0.000000
307.032000	-0.000000
307.213000	0.000000
307.393000	-0.000000
307.574000	0.000000
307.755000	0.000000
307.935000	0.000000
308.116000	-0.000000
308.296000	-0.000000
308.477000	0.000000
308.657000	0.000000
308.838000	0.000000
309.018000	0.000000
309.199000	-0.000000
309.379000	-0.000000
309.560000	0.000000
309.740000	-0.000000
309.921000	0.000000
310.101000	0.000000
310.282000	-0.000000
310.462000	-0.000000
310.643000	-0.000000
310.823000	-0.000000
311.004000	-0.000000
311.184000	-0.000000
311.365000	0.000000
311.545000	0.000000
311.726000	0.000000
311.906000	0.000000
312.087000	0.000000
312.267000	-0.000000
312.448000	-0.000000
312.628000	-0.000000
312.809000	-0.000000
312.989000	-0.000000
313.170000	-0.000000
313.344000	-0.000000
313.518000	-0.000000
313.691000	-0.000000
313.865000	-0.000000
314.039000	-0.000000
314.213000	-0.000000
314.387000	-0.000000
314.560000	-0.000000
314.734000	-0.000000
314.908000	-0.000000
315.082000	-0.000000
315.255000	0.000000
315.429000	0.000000
315.603000	0.000000
315.777000	-0.000000
315.951000	0.000000
316.124000	-0.000000
316.298000	-0.000000
316.472000	-0.000000
316.646000	-0.000000
316.820000	-0.000000
316.993000	0.000000
317.167000	-0.000000
317.341000	-0.000000
317.515000	-0.000000
317.688000	-0.000000
317.862000	-0.000000
318.036000	-0.000000
318.210000	-0.000000
318.384000	-0.000000
318.557000	-0.000000
318.731000	-0.000000
318.905000	-0.000000
319.079000	0.000000
319.253000	0.000000
319.426000	0.000000
319.600000	0.000000
319.774000	-0.000000
319.948000	-0.000000
320.122000	0.000000
320.295000	0.000000
320.469000	-0.000000
320.643000	-0.000000
320.817000	-0.000000
320.990000	-0.000000
321.164000	-0.000000
321.338000	-0.000000
321.512000	-0.000000
321.686000	-0.000000
321.859000	-0.000000
322.033000	0.000000
322.207000	-0.000000
322.381000	-0.000000
322.555000	0.000000
322.728000	0.000000
322.902000	-0.000000
323.076000	-0.000000
323.250000	-0.000000
323.423000	-0.000000
323.597000	-0.000000
323.771000	-0.000000
323.945000	-0.000000
324.119000	-0.000000
324.292000	0.000000
324.466000	-0.000000
324.640000	0.000000
324.814000	0.000000
324.988000	-0.000000
325.161000	-0.000000
325.335000	-0.000000
325.509000	-0.000000
325.683000	0.000000
325.856000	-0.000000
326.030000	-0.000000
326.204000	-0.000000
326.378000	-0.000000
326.552000	-0.000000
326.725000	-0.000000
326.899000	-0.000000
327.073000	-0.000000
327.247000	-0.000000
327.421000	0.000000
327.594000	0.000000
327.768000	-0.000000
327.942000	-0.000000
328.116000	0.000000
328.289000	0.000000
328.463000	0.000000
328.637000	0.000000
328.811000	-0.000000
328.985000	-0.000000
329.158000	-0.000000
329.332000	-0.000000
329.506000	0.000000
329.680000	-0.000000
329.854000	-0.000000
330.027000	-0.000000
330.201000	0.000000
330.375000	0.000000
330.549000	0.000000
330.723000	-0.000000
330.896000	-0.000000
331.070000	-0.000000
331.244000	-0.000000
331.418000	-0.000000
331.591000	0.000000
331.765000	-0.000000
331.939000	-0.000000
332.113000	-0.000000
332.287000	-0.000000
332.460000	0.000000
332.634000	0.000000
332.808000	-0.000000
332.982000	-0.000000
333.156000	-0.000000
333.329000	-0.000000
333.503000	-0.000000
333.677000	-0.000000
333.851000	-0.000000
334.024000	-0.000000
334.198000	-0.000000
334.372000	-0.000000
334.546000	-0.000000
334.720000	-0.000000
334.893000	-0.000000
335.067000	0.000000
335.241000	0.000000
335.415000	-0.000000
335.589000	-0.000000
335.762000	-0.000000
335.936000	-0.000000
336.110000	-0.000000
336.284000	-0.000000
336.458000	0.000000
336.631000	-0.000000
336.805000	-0.000000
336.979000	-0.000000
337.153000	-0.000000
337.326000	-0.000000
337.500000	-0.000000
337.674000	-0.000000
337.848000	-0.000000
338.022000	0.000000
338.195000	-0.000000
338.369000	-0.000000
338.543000	-0.000000
338.717000	-0.000000
338.891000	0.000000
339.064000	0.000000
339.238000	-0.000000
339.412000	-0.000000
339.586000	-0.000000
339.759000	-0.000000
339.933000	-0.000000
340.107000	0.000000
340.281000	0.000000
340.455000	-0.000000
340.628000	-0.000000
340.802000	-0.000000
340.976000	-0.000000
341.150000	-0.000000
341.324000	-0.000000
341.497000	-0.000000
341.671000	-0.000000
341.845000	-0.000000
342.019000	-0.000000
342.192000	-0.000000
342.366000	-0.000000
342.540000	-0.000000
342.714000	-0.000000
342.888000	-0.000000
343.061000	-0.000000
343.235000	-0.000000
343.409000	-0.000000
343.583000	-0.000000
343.757000	-0.000000
343.930000	-0.000000
344.104000	-0.000000
344.278000	0.000000
344.452000	0.000000
344.626000	-0.000000
344.799000	-0.000000
344.973000	-0.000000
345.147000	-0.000000
345.321000	-0.000000
345.494000	-0.000000
345.668000	0.000000
345.842000	0.000000
346.016000	-0.000000
346.190000	0.000000
346.363000	0.000000
346.537000	-0.000000
346.711000	-0.000000
346.885000	-0.000000
347.059000	-0.000000
347.232000	0.000000
347.406000	0.000000
347.580000	-0.000000
347.754000	-0.000000
347.927000	0.000000
348.101000	0.000000
348.275000	-0.000000
348.449000	-0.000000
348.623000	-0.000000
348.796000	-0.000000
348.970000	0.000000
349.144000	-0.000000
349.318000	-0.000000
349.492000	-0.000000
349.665000	-0.000000
349.839000	-0.000000
350.013000	-0.000000
350.187000	-0.000000
350.361000	-0.000000
350.534000	-0.000000
350.708000	-0.000000
350.882000	-0.000000
351.056000	0.000000
351.229000	0.000000
351.403000	-0.000000
351.577000	-0.000000
351.751000	-0.000000
351.925000	-0.000000
352.098000	-0.000000
352.272000	-0.000000
352.446000	-0.000000
352.620000	-0.000000
352.794000	-0.000000
352.967000	-0.000000
353.141000	0.000000
353.315000	0.000000
353.489000	-0.000000
353.662000	-0.000000
353.836000	-0.000000
354.010000	-0.000000
354.184000	0.000000
354.358000	-0.000000
354.531000	-0.000000
354.705000	-0.000000
354.879000	-0.000000
355.053000	-0.000000
355.227000	0.000000
355.400000	-0.000000
355.574000	0.000000
355.748000	0.000000
355.922000	-0.000000
356.095000	-0.000000
356.269000	-0.000000
356.443000	-0.000000
356.617000	-0.000000
356.791000	-0.000000
356.964000	-0.000000
357.138000	-0.000000
357.312000	-0.000000
357.486000	-0.000000
357.660000	0.000000
357.833000	-0.000000
358.007000	-0.000000
358.181000	-0.000000
358.355000	-0.000000
358.529000	-0.000000
358.702000	-0.000000
358.876000	-0.000000
359.050000	-0.000000
359.224000	-0.000000
359.397000	0.000000
359.571000	-0.000000
359.745000	-0.000000
359.919000	-0.000000
360.093000	-0.000951
360.266000	0.082564
360.440000	0.107173
360.614000	0.120762
360.788000	0.054572
360.962000	-0.142864
361.135000	-0.054536
361.309000	-0.155199
361.483000	-0.273217
361.657000	-0.210915
361.830000	-0.205217
362.004000	-0.035794
362.178000	-0.329536
362.352000	-0.179309
362.526000	-0.012121
362.699000	-0.022210
362.873000	-0.339342
363.047000	-0.300073
363.221000	-0.268836
363.395000	-0.151091
363.568000	-0.144713
363.742000	-0.133101
363.916000	-0.156274
364.090000	-0.272503
364.263000	-0.244710
364.437000	-0.311270
364.611000	-0.074020
364.785000	-0.098160
364.959000	-0.201373
365.132000	-0.173256
365.306000	-0.216736
365.480000	-0.083804
365.656000	-0.145857
365.831000	-0.128026
366.007000	-0.153974
366.183000	-0.135619
366.358000	-0.231453
366.534000	-0.135301
366.710000	-0.348011
366.886000	-0.303418
367.061000	-0.073542
367.237000	0.080751
367.413000	-0.065370
367.588000	-0.301177
367.764000	-0.302091
367.940000	-0.303811
368.115000	-0.277239
368.291000	-0.282144
368.467000	-0.133511
368.643000	0.179625
368.818000	-0.196289
368.994000	-0.308237
369.170000	-0.197981
369.345000	-0.170654
369.521000	-0.212767
369.697000	-0.144708
369.872000	-0.205106
370.048000	-0.307897
370.224000	-0.249497
370.399000	-0.428467
370.575000	-0.307145
370.751000	-0.382822
370.927000	-0.333451
371.102000	-0.327665
371.278000	-0.306163
371.454000	-0.193149
371.629000	0.013929
371.805000	-0.046386
371.981000	0.158411
372.156000	0.319266
372.332000	0.079839
372.508000	-0.039458
372.683000	-0.021919
372.859000	-0.089461
373.035000	-0.145615
373.211000	0.134329
373.386000	-0.019984
373.562000	-0.327936
373.738000	-0.444859
373.913000	-0.603592
374.089000	-0.415955
374.265000	0.048100
374.440000	0.029590
374.616000	0.007086
374.792000	-0.190725
374.968000	0.233574
375.143000	0.006950
375.319000	-0.282864
375.495000	-0.329964
375.670000	-0.120032
375.846000	-0.038412
376.022000	-0.227002
376.197000	-0.156310
376.373000	-0.339538
376.549000	-0.363522
376.724000	-0.418205
376.900000	-0.256732
377.076000	-0.112198
377.252000	0.050504
377.427000	0.146823
377.603000	-0.184070
377.779000	-0.189857
377.954000	-0.335646
378.130000	-0.202258
378.306000	-0.140685
378.481000	-0.115250
378.657000	-0.216960
378.833000	-0.269341
379.009000	-0.085353
379.184000	0.031721
379.360000	-0.085345
379.536000	-0.090582
379.711000	-0.148490
379.887000	-0.225699
380.063000	-0.272678
380.238000	-0.308497
380.414000	-0.001124
380.590000	-0.242778
380.765000	-0.304230
380.941000	-0.114070
381.117000	-0.050004
381.293000	-0.118621
381.468000	-0.271872
381.644000	-0.194706
381.820000	-0.077951
381.995000	0.049478
382.171000	0.214662
382.347000	0.081247
382.522000	-0.283892
382.698000	0.098248
382.874000	0.095871
383.050000	-0.296255
383.225000	0.096352
383.401000	0.302370
383.577000	-0.052074
383.752000	-0.202056
383.928000	-0.120740
384.104000	-0.051096
384.279000	-0.187501
384.455000	-0.104905
384.631000	-0.117223
384.806000	-0.304984
384.982000	-0.159433
385.158000	-0.224464
385.334000	-0.046185
385.509000	-0.113736
385.685000	-0.389202
385.861000	-0.231077
386.036000	-0.370602
386.212000	-0.473454
386.388000	-0.307146
386.563000	-0.246345
386.739000	-0.283250
386.915000	-0.499612
387.090000	-0.246093
387.266000	-0.058813
387.442000	0.055431
387.618000	-0.046194
387.793000	-0.317266
387.969000	-0.456806
388.145000	-0.363734
388.320000	-0.302432
388.496000	-0.276893
388.672000	-0.493629
388.847000	-0.079904
389.023000	-0.045166
389.199000	-0.352143
389.375000	-0.206309
389.550000	-0.282742
389.726000	-0.093400
389.902000	-0.328219
390.077000	-0.206175
390.253000	-0.119069
390.429000	-0.183498
390.604000	-0.111301
390.780000	-0.109662
390.956000	-0.237021
391.131000	-0.249472
391.307000	0.030130
391.483000	-0.174256
391.659000	-0.308646
391.834000	-0.065547
392.010000	-0.209253
392.186000	-0.296483
392.361000	-0.228225
392.537000	-0.331581
392.713000	0.122769
392.888000	0.210925
393.064000	-0.053186
393.240000	-0.179315
393.416000	-0.286827
393.591000	-0.360061
393.767000	-0.419807
393.943000	-0.312482
394.118000	-0.075332
394.294000	0.106650
394.470000	-0.003129
394.645000	0.101880
394.821000	0.205987
394.997000	-0.115341
395.172000	-0.057883
395.348000	-0.167777
395.524000	-0.464319
395.700000	-0.332607
395.875000	-0.077979
396.051000	-0.114766
396.227000	-0.177562
396.402000	-0.222093
396.578000	-0.139748
396.754000	-0.291363
396.929000	-0.264438
397.105000	-0.022515
397.281000	-0.071617
397.457000	-0.164239
397.632000	-0.172602
397.808000	-0.434761
397.984000	-0.556241
398.159000	-0.443938
398.335000	-0.260683
398.511000	0.171775
398.686000	-0.068029
398.862000	-0.275319
399.038000	-0.395317
399.213000	-0.186216
399.389000	-0.448771
399.565000	-0.143807
399.741000	0.061276
399.916000	-0.025356
400.092000	0.238186
400.268000	-0.104100
400.443000	-0.260314
400.619000	0.046506
400.795000	-0.047692
400.970000	-0.197255
401.146000	-0.261355
401.322000	0.024288
401.497000	0.437877
401.673000	0.150438
401.849000	-0.187425
402.025000	-0.032282
402.200000	-0.163990
402.376000	-0.232301
402.552000	0.137331
402.727000	-0.042213
402.903000	-0.331976
403.079000	-0.233844
403.254000	-0.010045
403.430000	-0.009978
403.606000	-0.061965
403.782000	-0.098820
403.957000	-0.319323
404.133000	-0.449613
404.309000	-0.240790
404.484000	-0.033990
404.660000	-0.056140
404.841000	-0.168523
405.023000	0.030927
405.204000	-0.023013
405.385000	-0.332709
405.566000	-0.351226
405.748000	-0.202216
405.929000	0.041661
406.110000	-0.038167
406.292000	-0.167052
406.473000	-0.058812
406.654000	-0.241136
406.835000	-0.137178
407.017000	-0.177558
407.198000	-0.124285
407.379000	-0.117057
407.560000	-0.166761
407.742000	-0.196892
407.923000	-0.126990
408.104000	-0.269692
408.286000	-0.148974
408.467000	-0.109968
408.648000	-0.312041
408.829000	-0.356495
409.011000	-0.233003
409.192000	-0.391179
409.373000	-0.175943
409.555000	-0.043745
409.736000	-0.059252
409.917000	-0.194276
410.098000	-0.161482
410.280000	-0.044966
410.461000	-0.072208
410.642000	-0.097758
410.823000	0.139743
411.005000	0.098825
411.186000	-0.135119
411.367000	-0.220493
411.549000	-0.216416
411.730000	0.033285
411.911000	0.102620
412.092000	-0.103288
412.274000	-0.135391
412.455000	-0.036825
412.636000	-0.024249
412.818000	-0.226070
412.999000	-0.300347
413.180000	-0.201762
413.361000	-0.210265
413.543000	-0.248657
413.724000	-0.313390
413.905000	-0.325898
414.087000	-0.340067
414.268000	-0.300133
414.449000	-0.307376
414.630000	-0.393859
414.812000	-0.482001
414.993000	-0.137480
415.174000	0.011383
415.355000	-0.153666
415.537000	-0.393393
415.718000	-0.122705
415.899000	-0.213383
416.081000	-0.323008
416.262000	-0.116873
416.443000	-0.241622
416.624000	-0.195102
416.806000	-0.073304
416.987000	0.050992
417.168000	-0.061012
417.350000	-0.252436
417.531000	-0.298491
417.712000	-0.248101
417.893000	-0.027971
418.075000	0.046444
418.256000	-0.180724
418.437000	-0.089791
418.618000	-0.008388
418.800000	0.055829
418.981000	-0.151842
419.162000	-0.128787
419.344000	0.049075
419.525000	-0.027928
419.706000	-0.078286
419.887000	0.017672
420.069000	0.142157
420.250000	0.078026
420.431000	0.025019
420.613000	-0.039103
420.794000	-0.257447
420.975000	0.121854
421.156000	-0.065669
421.338000	-0.115521
421.519000	-0.109029
421.700000	-0.202951
421.882000	-0.194576
422.063000	0.011091
422.244000	0.367844
422.425000	0.181855
422.607000	-0.077421
422.788000	-0.117914
422.969000	-0.210224
423.150000	-0.215083
423.332000	-0.268769
423.513000	-0.064636
423.694000	-0.040842
423.876000	0.009254
424.057000	0.094407
424.238000	0.138426
424.419000	0.166781
424.601000	0.014906
424.782000	0.036297
424.963000	0.148596
425.145000	0.072187
425.326000	0.148363
425.507000	0.204273
425.688000	0.068437
425.870000	-0.082638
426.051000	-0.164144
426.232000	-0.093130
426.413000	-0.096461
426.595000	-0.096878
426.776000	-0.094989
426.957000	-0.012967
427.139000	0.039658
427.320000	0.066698
427.501000	0.185995
427.682000	0.171205
427.864000	0.173883
428.045000	0.319096
428.226000	0.300689
428.408000	-0.006510
428.589000	0.112056
428.770000	0.131206
428.951000	0.039664
429.133000	-0.076332
429.314000	0.083572
429.495000	0.075057
429.677000	0.121251
429.858000	0.113106
430.039000	0.152827
430.220000	0.253221
430.402000	0.357073
430.583000	0.128810
430.764000	0.147542
430.945000	0.260767
431.127000	0.373773
431.308000	0.237754
431.489000	0.337620
431.671000	0.426960
431.852000	0.364949
432.033000	0.301275
432.214000	0.373358
432.396000	0.410425
432.577000	0.276036
432.758000	0.143847
432.940000	0.200079
433.121000	0.310703
433.302000	0.383018
433.483000	0.553055
433.665000	0.640153
433.846000	0.544203
434.027000	0.423114
434.208000	0.373216
434.390000	0.369190
434.571000	0.787338
434.752000	1.216107
434.934000	1.045817
435.115000	0.978891
435.296000	1.051658
435.477000	0.906392
435.659000	0.671763
435.840000	0.728499
436.026000	0.730739
436.211000	0.613991
436.397000	0.380650
436.582000	0.489179
436.768000	0.713491
436.953000	0.625204
437.139000	0.683962
437.325000	0.956811
437.510000	0.894226
437.696000	1.096006
437.881000	1.097730
438.067000	0.750528
438.252000	0.800074
438.438000	0.807237
438.624000	0.865673
438.809000	0.945104
438.995000	1.020033
439.180000	0.957270
439.366000	0.968183
439.551000	0.983033
439.737000	1.036155
439.923000	1.090998
440.108000	1.064125
440.294000	1.158926
440.479000	1.280321
440.665000	1.379120
440.850000	1.304886
441.036000	1.313701
441.222000	1.311723
441.407000	1.213753
441.593000	1.357307
441.778000	1.493493
441.964000	1.608970
442.149000	1.333215
442.335000	1.340547
442.521000	1.461101
442.706000	1.639130
442.892000	1.577416
443.077000	1.578589
443.263000	1.682560
443.448000	1.665207
443.634000	1.663122
443.820000	2.050473
444.005000	1.919550
444.191000	1.689795
444.376000	1.753741
444.562000	2.181372
444.747000	2.185501
444.933000	2.101200
445.119000	2.021501
445.304000	2.000114
445.490000	2.197318
445.675000	2.221938
445.861000	2.113771
446.046000	2.155651
446.232000	2.299184
446.418000	2.436567
446.603000	2.453088
446.789000	2.487181
446.974000	2.510716
447.160000	2.322878
447.345000	2.477441
447.531000	2.491934
447.717000	2.726695
447.902000	2.880745
448.088000	2.949929
448.273000	2.865005
448.459000	2.864060
448.644000	2.873511
448.830000	2.877898
449.016000	2.839012
449.201000	2.928464
449.387000	3.135110
449.572000	3.295109
449.758000	3.236795
449.943000	3.195475
450.129000	3.221394
450.315000	3.288573
450.500000	3.309561
450.686000	3.442761
450.871000	3.378093
451.057000	3.631900
451.243000	3.678936
451.428000	3.713087
451.614000	3.775941
451.799000	3.770543
451.985000	4.040232
452.170000	4.121244
452.356000	3.932986
452.542000	3.985648
452.727000	4.190183
452.913000	4.135870
453.098000	4.323037
453.284000	4.527728
453.469000	4.478098
453.655000	4.568356
453.841000	4.522033
454.026000	4.422735
454.212000	4.518876
454.397000	4.542871
454.583000	4.467066
454.768000	4.423202
454.954000	4.637138
455.140000	4.686596
455.325000	4.584677
455.511000	4.544026
455.696000	4.569315
455.882000	4.734252
456.067000	4.921852
456.253000	4.787238
456.439000	4.696581
456.624000	4.684221
456.810000	4.685210
456.995000	4.718547
457.181000	4.619112
457.366000	4.798547
457.552000	4.788004
457.738000	4.896933
457.923000	4.907843
458.109000	4.973263
458.294000	4.888746
458.480000	4.849603
458.665000	4.786324
458.851000	4.601103
459.037000	4.413050
459.222000	4.583699
459.408000	4.517949
459.593000	4.524770
459.779000	4.586130
459.964000	4.733378
460.150000	4.866121
460.336000	4.652632
460.521000	4.426077
460.707000	4.258396
460.892000	4.110171
461.078000	4.275751
461.263000	4.306396
461.449000	4.090660
461.635000	4.049783
461.820000	4.003775
462.006000	4.018547
462.191000	3.940368
462.377000	3.667793
462.562000	3.857985
462.748000	3.959279
462.934000	3.583181
463.119000	3.370913
463.305000	3.515683
463.490000	3.360611
463.676000	3.370621
463.861000	3.323186
464.047000	3.216423
464.233000	3.230784
464.418000	3.148415
464.604000	2.987009
464.789000	3.088920
464.975000	3.060381
465.160000	2.907531
465.346000	2.883531
465.532000	2.742584
465.717000	2.646576
465.903000	2.875569
466.088000	2.774246
466.274000	2.516212
466.459000	2.462555
466.645000	2.799395
466.831000	2.704158
467.016000	2.639967
467.202000	2.511031
467.387000	2.379971
467.573000	2.183013
467.758000	2.403474
467.944000	2.256865
468.130000	2.143558
468.315000	2.249145
468.501000	2.348728
468.686000	2.206024
468.872000	2.186292
469.057000	2.233025
469.243000	2.074916
469.429000	2.004823
469.614000	1.908375
469.800000	1.822423
469.985000	1.936928
470.171000	1.990612
470.356000	1.869396
470.542000	1.937942
470.728000	1.900328
470.913000	1.803428
471.099000	1.905662
471.284000	1.789680
471.470000	1.678764
471.655000	1.711457
471.841000	1.699705
472.027000	1.605317
472.212000	1.766932
472.398000	1.786073
472.583000	1.661471
472.769000	1.658237
472.954000	1.615583
473.140000	1.426662
473.326000	1.379430
473.511000	1.657834
473.697000	1.659084
473.882000	1.501370
474.068000	1.420388
474.253000	1.338534
474.439000	1.394063
474.625000	1.413257
474.810000	1.419881
474.996000	1.436021
475.181000	1.241911
475.367000	1.389493
475.552000	1.598047
475.738000	1.279643
475.924000	1.231304
476.109000	1.333902
476.295000	1.229357
476.480000	1.274173
476.666000	1.227353
476.851000	1.216185
477.037000	1.240869
477.223000	1.151067
477.408000	1.053095
477.594000	0.943385
477.779000	1.104161
477.965000	1.101736
478.151000	0.937724
478.336000	1.082824
478.522000	1.003029
478.707000	0.962921
478.893000	1.053527
479.078000	0.893976
479.264000	0.894910
479.450000	0.972168
479.635000	1.070190
479.821000	0.974671
480.006000	1.038108
480.192000	1.035715
480.377000	1.037263
480.563000	1.008030
480.749000	0.815276
480.934000	0.853185
481.120000	0.962460
481.305000	1.036198
481.491000	1.039714
481.676000	1.080886
481.862000	1.049416
482.048000	0.874838
482.233000	0.933554
482.419000	0.949052
482.604000	0.874559
482.790000	0.876694
482.975000	0.917746
483.161000	1.055065
483.347000	1.030184
483.532000	0.988219
483.718000	0.792624
483.903000	0.834696
484.089000	0.876360
484.274000	0.780026
484.460000	0.937346
484.646000	1.000859
484.831000	0.868271
485.017000	0.921095
485.202000	0.946716
485.388000	1.184542
485.573000	1.162611
485.759000	0.966967
485.945000	1.141932
486.130000	0.986072
486.316000	0.990663
486.501000	1.081109
486.687000	0.923760
486.872000	0.894524
487.058000	1.072883
487.244000	1.076348
487.429000	0.921005
487.615000	1.100659
487.800000	1.163320
487.986000	1.086549
488.171000	1.209681
488.357000	1.155561
488.543000	1.145814
488.728000	1.180814
488.914000	1.144851
489.099000	1.073517
489.285000	1.090053
489.470000	1.287535
489.656000	1.311986
489.842000	1.280799
490.027000	1.374354
490.213000	1.242625
490.398000	0.977006
490.584000	1.250300
490.769000	1.275014
490.955000	1.331762
491.141000	1.369857
491.326000	1.381421
491.512000	1.506119
491.697000	1.420783
491.883000	1.343154
492.068000	1.296388
492.254000	1.335492
492.440000	1.406200
492.625000	1.380294
492.811000	1.403251
492.996000	1.526503
493.182000	1.550641
493.367000	1.404219
493.553000	1.374836
493.739000	1.453165
493.924000	1.585363
494.110000	1.636302
494.295000	1.545293
494.481000	1.662278
494.666000	1.699825
494.852000	1.893446
495.038000	1.772135
495.223000	1.660541
495.409000	1.723685
495.594000	1.725866
495.780000	1.809118
495.965000	1.776751
496.151000	1.993591
496.337000	2.094094
496.522000	1.896717
496.708000	2.003934
496.893000	2.175711
497.079000	2.071483
497.264000	2.044887
497.450000	2.132277
497.636000	2.252895
497.821000	2.131992
498.007000	2.398061
498.192000	2.467720
498.378000	2.336123
498.563000	2.328206
498.749000	2.403975
498.935000	2.401010
499.120000	2.517467
499.306000	2.410591
499.491000	2.448544
499.677000	2.604386
499.862000	2.729490
500.048000	2.854390
500.234000	2.777297
500.419000	2.767028
500.605000	2.961018
500.790000	2.899072
500.976000	2.840971
501.161000	2.818848
501.347000	3.010297
501.533000	3.156489
501.718000	3.143281
501.904000	3.129196
502.089000	3.277925
502.275000	3.395721
502.460000	3.319084
502.646000	3.390290
502.832000	3.482888
503.017000	3.526707
503.203000	3.385642
503.388000	3.428682
503.574000	3.675494
503.759000	3.785630
503.945000	3.884627
504.131000	3.816883
504.316000	3.791105
504.502000	3.891098
504.687000	3.937114
504.873000	3.878784
505.058000	3.902507
505.244000	3.975522
505.430000	4.116389
505.615000	4.225478
505.801000	4.317575
505.986000	4.238247
506.172000	4.384133
506.358000	4.468979
506.543000	4.501606
506.729000	4.770023
506.914000	4.767666
507.100000	4.857210
507.285000	4.724778
507.471000	4.705944
507.657000	4.984918
507.842000	4.908264
508.028000	4.818009
508.213000	4.917043
508.399000	5.053240
508.584000	5.238933
508.770000	5.166398
508.956000	5.175221
509.141000	5.274736
509.327000	5.389952
509.512000	5.333306
509.698000	5.412830
509.883000	5.576637
510.069000	5.522586
510.255000	5.566781
510.440000	5.655874
510.626000	5.640621
510.811000	5.638460
510.997000	5.773422
511.182000	6.076215
511.368000	5.967599
511.554000	5.640329
511.739000	5.776582
511.925000	6.015593
512.110000	6.018846
512.296000	6.117077
512.481000	6.176913
512.667000	6.158852
512.853000	5.943398
513.038000	6.080452
513.224000	6.056460
513.409000	5.991124
513.595000	6.175907
513.780000	5.998413
513.966000	6.071936
514.152000	6.067877
514.337000	6.040061
514.523000	6.106648
514.708000	6.170049
514.894000	6.185000
515.079000	6.076939
515.265000	6.138551
515.451000	6.168721
515.636000	6.112440
515.822000	6.258919
516.007000	6.089240
516.193000	6.237183
516.378000	6.339137
516.564000	6.220824
516.750000	6.149767
516.935000	6.225436
517.121000	6.227009
517.306000	6.341260
517.492000	6.260072
517.677000	5.985964
517.863000	5.947639
518.049000	6.071990
518.234000	5.939474
518.420000	6.020261
518.605000	6.225159
518.791000	6.188156
518.976000	6.002237
519.162000	5.861576
519.348000	5.927997
519.533000	5.864683
519.719000	5.935077
519.904000	5.859207
520.090000	5.837638
520.275000	5.975988
520.461000	5.829505
520.647000	5.590269
520.832000	5.428583
521.018000	5.457542
521.203000	5.470134
521.389000	5.222040
521.574000	5.284165
521.760000	5.402753
521.946000	5.355201
522.131000	5.225522
522.317000	5.188279
522.502000	5.108268
522.688000	5.173062
522.873000	5.110492
523.059000	5.041723
523.245000	5.032143
523.430000	4.902074
523.616000	4.858243
523.801000	4.724588
523.987000	4.782641
524.172000	4.839375
524.358000	4.798140
524.544000	4.722657
524.729000	4.790797
524.915000	4.749991
525.100000	4.567647
525.286000	4.589057
525.471000	4.571923
525.657000	4.512893
525.843000	4.262200
526.028000	4.402069
526.214000	4.304298
526.399000	4.147164
526.585000	4.033993
526.770000	3.995519
526.956000	4.089447
527.142000	3.946237
527.327000	4.050354
527.513000	3.891342
527.698000	3.858890
527.884000	3.849502
528.069000	3.756684
528.255000	3.858159
528.441000	3.734838
528.626000	3.718504
528.812000	3.900011
528.997000	3.703759
529.183000	3.558047
529.368000	3.586753
529.554000	3.535881
529.740000	3.534315
529.925000	3.462988
530.111000	3.392488
530.296000	3.448815
530.482000	3.542055
530.667000	3.387660
530.853000	3.392681
531.039000	3.282776
531.224000	3.293821
531.410000	3.345540
531.595000	3.191785
531.781000	3.188607
531.967000	3.033893
532.152000	3.170575
532.338000	3.037564
532.523000	2.831731
532.709000	2.785562
532.894000	2.898872
533.080000	2.915479
533.266000	2.721107
533.451000	2.675499
533.637000	2.740100
533.822000	2.843543
534.008000	2.655393
534.193000	2.661440
534.379000	2.725199
534.565000	2.621991
534.750000	2.558622
534.936000	2.797688
535.121000	2.598977
535.307000	2.571681
535.492000	2.533878
535.678000	2.303653
535.864000	2.419495
536.049000	2.595367
536.235000	2.407692
536.420000	2.409180
536.606000	2.338014
536.791000	2.198837
536.977000	2.174616
537.163000	2.404030
537.348000	2.384841
537.534000	2.337123
537.719000	2.141572
537.905000	2.013489
538.090000	2.234328
538.276000	2.245526
538.462000	2.208805
538.647000	2.239437
538.833000	2.095707
539.018000	2.141735
539.204000	2.096003
539.389000	1.915113
539.575000	2.208980
539.761000	2.109005
539.946000	1.813549
540.132000	1.957542
540.317000	1.799934
540.503000	1.896427
540.688000	1.917950
540.874000	2.143078
541.060000	2.282979
541.245000	2.087488
541.431000	1.917489
541.616000	1.926273
541.802000	1.900521
541.987000	1.960916
542.173000	1.962176
542.359000	1.876288
542.544000	1.938502
542.730000	1.764908
542.915000	1.774542
543.101000	1.874115
543.286000	1.696675
543.472000	1.635904
543.658000	1.699464
543.843000	1.657435
544.029000	1.846397
544.214000	1.698573
544.400000	1.350543
544.585000	1.549870
544.771000	1.630998
544.957000	1.764915
545.142000	1.813240
545.328000	1.863160
545.513000	1.916486
545.699000	1.844092
545.884000	1.642166
546.070000	1.548241
546.261000	1.525937
546.451000	1.322282
546.642000	1.054037
546.833000	1.161816
547.023000	1.034053
547.214000	1.051414
547.405000	1.217796
547.595000	1.500180
547.786000	1.410416
547.977000	1.144877
548.167000	0.974013
548.358000	1.012638
548.549000	1.412572
548.740000	1.212553
548.930000	0.845350
549.121000	0.935150
549.312000	0.887647
549.502000	0.776756
549.693000	0.930582
549.884000	1.005216
550.074000	1.069805
550.265000	0.836314
550.456000	0.947401
550.646000	1.009182
550.837000	0.960716
551.028000	0.806558
551.218000	0.895290
551.409000	0.788274
551.600000	0.831194
551.790000	0.912396
551.981000	0.656893
552.172000	0.685787
552.362000	1.025271
552.553000	1.035445
552.744000	0.831377
552.934000	0.791384
553.125000	0.722170
553.316000	0.661913
553.506000	0.925599
553.697000	0.769864
553.888000	0.840466
554.079000	0.924138
554.269000	0.846976
554.460000	0.558047
554.651000	0.531494
554.841000	0.385237
555.032000	0.464403
555.223000	0.584092
555.413000	0.714078
555.604000	0.610197
555.795000	0.545057
555.985000	0.667775
556.176000	0.551251
556.367000	0.285173
556.557000	0.400776
556.748000	0.465603
556.939000	0.438495
557.129000	0.336707
557.320000	0.468842
557.511000	0.461889
557.701000	0.460148
557.892000	0.499564
558.083000	0.670432
558.273000	0.545779
558.464000	0.383488
558.655000	0.380117
558.845000	0.457831
559.036000	0.549181
559.227000	0.494931
559.418000	0.512066
559.608000	0.540244
559.799000	0.268267
559.990000	0.251737
560.180000	0.326678
560.371000	0.135313
560.562000	0.208710
560.752000	0.395599
560.943000	0.178707
561.134000	0.011076
561.324000	0.273555
561.515000	0.536057
561.706000	0.360785
561.896000	0.131365
562.087000	0.251417
562.278000	0.213271
562.468000	0.032072
562.659000	0.143932
562.850000	0.496083
563.040000	0.544091
563.231000	0.088084
563.422000	0.229462
563.612000	0.125844
563.803000	0.213346
563.994000	0.150808
564.185000	0.058439
564.375000	0.260802
564.566000	0.224830
564.757000	0.166857
564.947000	0.096226
565.138000	0.283744
565.329000	0.207200
565.519000	0.006903
565.710000	0.066139
565.901000	0.284496
566.091000	0.436301
566.282000	0.217649
566.473000	0.198322
566.663000	0.197111
566.854000	0.018558
567.045000	0.148082
567.235000	0.240590
567.426000	0.236607
567.617000	0.240605
567.807000	0.182473
567.998000	0.180164
568.189000	0.067787
568.379000	0.171936
568.570000	0.256580
568.761000	0.184811
568.951000	0.136466
569.142000	0.068325
569.333000	0.047153
569.524000	-0.052728
569.714000	-0.121743
569.905000	-0.207662
570.096000	0.155956
570.286000	0.244607
570.477000	0.391643
570.668000	0.211346
570.858000	0.168497
571.049000	0.037945
571.240000	-0.045557
571.430000	0.167771
571.621000	0.092560
571.812000	0.179663
572.002000	0.195059
572.193000	0.015993
572.384000	0.092157
572.574000	0.142111
572.765000	0.121185
572.956000	0.034650
573.146000	0.189453
573.337000	0.070201
573.528000	0.081292
573.718000	0.219939
573.909000	0.234516
574.100000	0.147440
574.290000	0.003697
574.481000	0.047958
574.672000	0.032316
574.863000	0.137946
575.053000	0.018358
575.244000	0.108971
575.435000	-0.021956
575.625000	-0.024592
575.816000	-0.007277
576.007000	0.096427
576.197000	0.093845
576.388000	0.069883
576.579000	0.223190
576.769000	0.212962
576.960000	-0.076065
577.155000	-0.217630
577.350000	0.030665
577.545000	0.176448
577.740000	0.015259
577.935000	0.218556
578.130000	0.179283
578.326000	-0.064345
578.521000	0.156321
578.716000	0.184943
578.911000	-0.069277
579.106000	0.082290
579.301000	0.202008
579.496000	0.022863
579.691000	-0.237224
579.886000	-0.063095
580.081000	0.062123
580.276000	0.084664
580.471000	-0.020944
580.666000	-0.113251
580.861000	-0.136724
581.057000	-0.116770
581.252000	0.003486
581.447000	-0.084358
581.642000	-0.088856
581.837000	-0.086996
582.032000	-0.023422
582.227000	0.209574
582.422000	0.154090
582.617000	-0.037705
582.812000	-0.139321
583.007000	-0.085427
583.202000	-0.170539
583.397000	0.055231
583.592000	0.272280
583.788000	0.010146
583.983000	-0.012671
584.178000	0.083495
584.373000	-0.067268
584.568000	-0.072161
584.763000	-0.141943
584.958000	-0.198202
585.153000	-0.095749
585.348000	-0.073871
585.543000	0.067224
585.738000	0.022678
585.933000	-0.179789
586.128000	0.042832
586.324000	0.045470
586.519000	0.050485
586.714000	0.143155
586.909000	0.210053
587.104000	0.181976
587.299000	0.055702
587.494000	0.056470
587.689000	0.003378
587.884000	0.022870
588.079000	-0.049978
588.274000	-0.013578
588.469000	-0.017786
588.664000	0.050884
588.859000	0.050957
589.055000	0.053567
589.250000	0.017014
589.445000	-0.120942
589.640000	-0.111663
589.835000	0.129018
590.030000	0.202440
590.225000	0.205894
590.420000	0.010266
590.615000	-0.111317
590.810000	-0.085533
591.005000	-0.048953
591.200000	-0.125441
591.395000	-0.170092
591.591000	-0.038591
591.786000	0.047984
591.981000	-0.061876
592.176000	0.032723
592.371000	0.048243
592.566000	-0.048208
592.761000	0.125666
592.956000	0.118981
593.151000	0.195814
593.346000	0.070065
593.541000	0.068265
593.736000	0.027737
593.931000	-0.117932
594.126000	-0.052974
594.322000	-0.045157
594.517000	-0.107659
594.712000	-0.214545
594.907000	-0.228393
595.102000	-0.095143
595.297000	0.028786
595.492000	0.090039
595.687000	-0.099854
595.882000	-0.163879
596.077000	-0.061464
596.272000	0.128171
596.467000	0.146654
596.662000	-0.014064
596.857000	0.015886
597.053000	0.014144
597.248000	0.022975
597.443000	0.027429
597.638000	-0.031043
597.833000	-0.210405
598.028000	-0.023940
598.223000	0.077290
598.418000	-0.025809
598.613000	-0.102334
598.808000	-0.000891
599.003000	-0.045467
599.198000	-0.191024
599.393000	-0.124039
599.589000	-0.023265
599.784000	-0.195201
599.979000	-0.084294
600.174000	0.131912
600.369000	-0.100609
600.564000	-0.054867
600.759000	0.158490
600.954000	0.260710
601.149000	0.100094
601.344000	-0.228375
601.539000	-0.037053
601.734000	-0.106500
601.929000	-0.320305
602.124000	-0.263522
602.320000	-0.039914
602.515000	0.218656
602.710000	0.129101
602.905000	-0.214532
603.100000	-0.242322
603.295000	-0.144569
603.490000	-0.076595
603.685000	-0.028272
603.880000	0.012784
604.075000	-0.159283
604.270000	-0.166042
604.465000	-0.105416
604.660000	-0.290817
604.856000	-0.139343
605.051000	0.024799
605.246000	-0.015602
605.441000	-0.245215
605.636000	-0.285707
605.831000	-0.143576
606.026000	-0.220794
606.221000	-0.251497
606.416000	-0.087629
606.611000	0.080330
606.806000	0.071032
607.001000	0.241081
607.196000	0.006472
607.391000	-0.197202
607.587000	0.006494
607.782000	-0.000929
607.977000	-0.185348
608.172000	0.165475
608.367000	0.151528
608.562000	-0.043779
608.757000	-0.069838
608.952000	-0.111068
609.147000	0.265673
609.342000	0.202597
609.537000	-0.028060
609.732000	0.021547
609.927000	-0.019634
610.122000	0.066496
610.318000	0.392806
610.513000	0.504629
610.708000	0.346488
610.903000	0.469082
611.098000	0.530375
611.293000	0.431577
611.488000	0.428809
611.683000	0.427672
611.878000	0.355086
612.073000	0.341017
612.268000	0.318692
612.463000	0.368691
612.658000	0.311829
612.854000	0.241249
613.049000	0.133982
613.244000	0.274772
613.439000	0.339556
613.634000	0.023838
613.829000	0.144975
614.024000	0.030593
614.219000	0.003824
614.414000	0.227655
614.609000	0.024907
614.804000	-0.111152
614.999000	-0.104349
615.194000	-0.058549
615.389000	-0.014414
615.585000	-0.176177
615.780000	-0.007708
615.975000	-0.066616
616.170000	-0.010628
616.365000	0.196326
616.560000	0.303969
616.755000	0.182547
616.950000	0.090342
617.145000	0.168210
617.340000	0.011679
617.535000	-0.250118
617.730000	-0.036058
617.925000	-0.172775
618.120000	-0.226534
618.316000	0.096878
618.511000	0.015672
618.706000	-0.171031
618.901000	-0.106102
619.096000	0.047336
619.291000	-0.020691
619.486000	0.031630
619.681000	-0.289837
619.876000	-0.322342
620.071000	-0.167251
620.266000	0.094245
620.461000	0.196779
620.656000	0.097577
620.852000	0.033811
621.047000	-0.074765
621.242000	-0.177675
621.437000	0.131073
621.632000	0.224604
621.827000	0.028101
622.022000	-0.211922
622.217000	-0.033234
622.412000	0.122997
622.607000	0.121098
622.802000	-0.125200
622.997000	-0.180349
623.192000	-0.051669
623.387000	0.000000
623.583000	-0.240633
623.778000	0.043780
623.973000	0.091693
624.168000	0.106207
624.363000	0.119299
624.558000	0.152187
624.753000	-0.143454
624.948000	0.096500
625.143000	0.117117
625.338000	-0.005145
625.533000	-0.121468
625.728000	0.003091
625.923000	0.232012
626.119000	0.077517
626.314000	-0.186219
626.509000	-0.202357
626.704000	-0.122775
626.899000	-0.105178
627.094000	-0.171022
627.289000	-0.202771
627.484000	-0.114196
627.679000	-0.122687
627.874000	-0.113396
628.069000	0.225020
628.264000	0.095600
628.459000	-0.031590
628.654000	-0.053752
628.850000	-0.215763
629.045000	-0.076236
629.240000	-0.104930
629.435000	-0.130537
629.630000	-0.009570
629.825000	-0.065921
630.020000	-0.028821
630.215000	-0.189900
630.410000	-0.147809
630.605000	-0.139355
630.800000	-0.040728
630.995000	0.079491
631.190000	0.330488
631.385000	0.177731
631.581000	-0.034528
631.776000	0.029152
631.971000	-0.127815
632.166000	-0.055285
632.361000	-0.167095
632.556000	-0.070626
632.751000	0.117727
632.946000	-0.017447
633.141000	-0.149842
633.336000	-0.119404
633.531000	-0.037360
633.726000	-0.047191
633.921000	-0.198081
634.117000	-0.363954
634.312000	-0.463680
634.507000	-0.348136
634.702000	-0.202613
634.897000	-0.181835
635.092000	-0.098939
635.287000	-0.006684
635.482000	-0.128437
635.677000	-0.065915
635.872000	0.063688
636.067000	0.150068
636.262000	-0.058462
636.457000	-0.350472
636.652000	-0.336417
636.848000	-0.342772
637.043000	-0.306953
637.238000	-0.246657
637.433000	-0.317048
637.628000	-0.236644
637.823000	-0.051027
638.018000	-0.006817
638.213000	-0.145748
638.408000	-0.208568
638.603000	-0.296751
638.798000	-0.338331
638.993000	-0.239348
639.188000	-0.222247
639.383000	-0.276324
639.579000	0.064140
639.774000	-0.110262
639.969000	-0.245895
640.164000	-0.302889
640.359000	-0.327427
640.554000	-0.090044
640.749000	-0.056722
640.944000	-0.042924
641.139000	-0.079884
641.334000	-0.241241
641.529000	-0.613600
641.724000	-0.461930
641.919000	-0.264683
642.115000	0.046752
642.310000	0.053688
642.505000	-0.127173
642.700000	-0.149612
642.895000	-0.247377
643.090000	-0.062118
643.285000	0.109013
643.480000	0.027022
643.675000	0.027045
643.870000	0.353438
644.065000	0.201852
644.260000	-0.191178
644.455000	-0.121778
644.650000	-0.225197
644.846000	-0.188458
645.041000	-0.382681
645.236000	-0.484563
645.431000	-0.388921
645.626000	-0.564606
645.821000	-0.375465
646.016000	-0.238331
646.211000	0.186249
646.406000	0.015550
646.601000	-0.034654
646.796000	-0.178013
646.991000	-0.406269
647.186000	-0.264659
647.381000	-0.064710
647.577000	-0.055176
647.772000	0.068374
647.967000	-0.027643
648.162000	-0.103445
648.357000	-0.108402
648.552000	0.069831
648.747000	-0.007228
648.942000	0.000000
649.137000	-0.029019
649.332000	-0.202191
649.527000	-0.200896
649.722000	-0.006049
649.917000	0.116482
650.113000	-0.134520
650.308000	-0.299761
650.503000	-0.235314
650.698000	-0.025546
650.893000	-0.142427
651.088000	-0.059688
651.283000	0.006104
651.478000	-0.301536
651.673000	-0.034148
651.868000	-0.184522
652.063000	-0.014693
652.258000	0.160523
652.453000	0.344636
652.648000	-0.014686
652.844000	-0.117569
653.039000	-0.050297
653.234000	-0.423362
653.429000	-0.563032
653.624000	-0.361155
653.819000	-0.059093
654.014000	-0.089889
654.209000	-0.262968
654.404000	-0.124564
654.599000	-0.252236
654.794000	-0.232052
654.989000	0.017332
655.184000	-0.065689
655.380000	-0.331897
655.575000	-0.333173
655.770000	-0.337448
655.965000	-0.217162
656.160000	-0.234659
656.355000	-0.054619
656.550000	-0.103347
656.745000	-0.064791
656.940000	-0.142159
657.135000	-0.074802
657.330000	-0.107260
657.525000	-0.328251
657.720000	-0.078768
657.915000	0.049965
658.111000	-0.088722
658.306000	0.082540
658.501000	-0.062674
658.696000	-0.259366
658.891000	-0.072706
659.086000	-0.184198
659.281000	-0.099153
659.476000	-0.276513
659.671000	-0.667340
659.866000	-0.407370
660.061000	-0.052843
660.256000	0.049091
660.451000	-0.062993
660.646000	-0.272487
660.842000	-0.121245
661.037000	-0.275432
661.232000	-0.299866
661.427000	-0.179524
661.622000	-0.267249
661.817000	-0.355814
662.012000	-0.172641
662.207000	-0.316302
662.402000	-0.393507
662.597000	-0.149100
662.792000	-0.457075
662.987000	-0.487231
663.182000	-0.211622
663.378000	-0.190102
663.573000	-0.529501
663.768000	-0.504152
663.963000	-0.306655
664.158000	-0.301269
664.353000	0.021790
664.548000	0.201170
664.743000	-0.034635
664.938000	-0.312968
665.133000	-0.332728
665.328000	0.064329
665.523000	0.005156
665.718000	-0.198543
665.913000	-0.215627
666.109000	-0.179875
666.304000	0.006468
666.499000	-0.127990
666.694000	-0.067418
666.889000	0.224271
667.084000	-0.052029
667.279000	-0.159893
667.474000	-0.165185
667.669000	-0.085823
667.864000	-0.136699
668.059000	-0.127780
668.254000	-0.130553
668.449000	-0.283621
668.644000	-0.163526
668.840000	0.120197
669.035000	-0.215878
669.230000	-0.479172
669.425000	-0.107722
669.620000	-0.260091
669.815000	-0.336178
670.010000	-0.371430
670.205000	-0.177960
670.400000	-0.127640
670.595000	-0.118789
670.790000	-0.243184
670.985000	-0.181256
671.180000	0.055629
671.376000	-0.307560
671.571000	-0.443761
671.766000	-0.358228
671.961000	-0.371686
672.156000	-0.405496
672.351000	-0.270838
672.546000	-0.283442
672.741000	-0.118732
672.936000	-0.086828
673.131000	0.358970
673.326000	0.067158
673.521000	-0.337427
673.716000	-0.438243
673.911000	-0.560974
674.107000	0.002696
674.302000	0.263001
674.497000	-0.099920
674.692000	-0.414827
674.887000	-0.404039
675.082000	-0.234914
675.277000	-0.024476
675.472000	-0.115734
675.667000	-0.259095
675.862000	-0.316530
676.057000	-0.222539
676.252000	-0.147761
676.447000	-0.231785
676.643000	-0.035630
676.838000	0.178488
677.033000	-0.130618
677.228000	0.177809
677.423000	0.159987
677.618000	-0.323606
677.813000	-0.476833
678.008000	-0.187187
678.203000	-0.069402
678.398000	-0.322611
678.593000	-0.197527
678.788000	-0.080942
678.983000	-0.301071
679.178000	-0.221733
679.374000	-0.324005
679.569000	-0.205739
679.764000	-0.272324
679.959000	-0.420722
680.154000	-0.432067
680.349000	-0.588912
680.544000	-0.465421
680.739000	-0.357011
680.934000	-0.446361
681.129000	-0.390950
681.324000	-0.455253
681.519000	-0.295923
681.714000	-0.308836
681.909000	-0.371005
682.105000	-0.514598
682.300000	-0.140239
682.495000	0.005721
682.690000	0.020069
682.885000	-0.081777
683.080000	-0.315067
683.275000	-0.306589
683.470000	0.038911
683.665000	0.252753
683.860000	0.357357
684.055000	0.075276
684.250000	-0.285459
684.445000	-0.295132
684.641000	0.065299
684.836000	-0.200582
685.031000	-0.166297
685.226000	-0.184050
685.421000	0.039550
685.616000	-0.208005
685.811000	-0.280452
686.006000	0.052855
686.201000	-0.058806
686.396000	-0.448642
686.591000	-0.417010
686.786000	0.044433
686.981000	-0.114056
687.176000	-0.117303
687.372000	-0.187302
687.567000	0.150206
687.762000	-0.011930
687.957000	-0.204298
688.152000	-0.285432
688.347000	-0.127254
688.542000	-0.405222
688.737000	-0.786083
688.932000	-0.803948
689.127000	-0.328047
689.322000	-0.055836
689.517000	-0.285157
689.712000	-0.454232
689.908000	-0.356175
690.103000	-0.364459
690.298000	-0.256683
690.493000	-0.290856
690.688000	-0.480277
690.883000	-0.318227
691.078000	0.047444
691.273000	0.108674
691.468000	-0.161028
691.663000	-0.190889
691.858000	-0.033873
692.053000	-0.069284
692.248000	0.043154
692.443000	0.021576
692.639000	-0.128181
692.834000	0.066572
693.029000	0.580784
693.224000	0.424818
693.419000	-0.213385
693.614000	-0.285572
693.809000	-0.421644
694.004000	-0.499105
694.199000	-0.464563
694.394000	-0.202464
694.589000	-0.480773
694.784000	-0.506426
694.979000	-0.199746
695.174000	-0.204982
695.370000	0.302231
695.565000	0.023669
695.760000	-0.308404
695.955000	0.050732
696.150000	0.152245
696.345000	-0.308855
696.540000	-0.079741
696.740000	-0.196026
696.940000	-0.038278
697.140000	0.083363
697.340000	-0.178257
697.539000	-0.032136
697.739000	-0.122164
697.939000	-0.114206
698.139000	-0.468569
698.339000	-0.775797
698.539000	-0.512056
698.739000	-0.545825
698.939000	-0.463620
699.138000	-0.511640
699.338000	0.241956
699.538000	0.316231
699.738000	-0.196180
699.938000	-0.266703
700.138000	-0.367132
700.338000	-0.479965
700.538000	-0.250466
700.737000	-0.202613
700.937000	-0.647097
701.137000	-0.653026
701.337000	-0.120701
701.537000	-0.013257
701.737000	-0.223425
701.937000	-0.313503
702.137000	-0.222283
702.337000	-0.325676
702.536000	-0.466201
702.736000	-0.493434
702.936000	-0.606016
703.136000	-0.066976
703.336000	-0.077005
703.536000	-0.334055
703.736000	-0.666556
703.936000	-0.532477
704.135000	-0.530531
704.335000	-0.198664
704.535000	-0.422048
704.735000	-0.593163
704.935000	-0.053963
705.135000	-0.111840
705.335000	-0.363845
705.535000	-0.066352
705.735000	-0.074845
705.934000	-0.159815
706.134000	-0.387768
706.334000	-0.340954
706.534000	-0.409733
706.734000	-0.410059
706.934000	-0.486917
707.134000	-0.490462
707.334000	-0.236334
707.533000	-0.255643
707.733000	-0.322323
707.933000	-0.411887
708.133000	-0.070279
708.333000	0.012061
708.533000	-0.260660
708.733000	0.081120
708.933000	-0.171021
709.132000	-0.325399
709.332000	-0.299943
709.532000	-0.396173
709.732000	-0.234234
709.932000	-0.667861
710.132000	-0.648323
710.332000	-0.847819
710.532000	-0.238235
710.732000	-0.055799
710.931000	-0.390880
711.131000	-0.401167
711.331000	-0.199861
711.531000	-0.365278
711.731000	-0.355635
711.931000	-0.236307
712.131000	-0.280058
712.331000	-0.197337
712.530000	-0.286847
712.730000	-0.492276
712.930000	-0.315727
713.130000	-0.329223
713.330000	-0.428874
713.530000	-0.236571
713.730000	0.400397
713.930000	-0.008895
714.129000	-0.462051
714.329000	-0.541979
714.529000	-0.276128
714.729000	0.003570
714.929000	-0.089260
715.129000	-0.386241
715.329000	-0.304268
715.529000	-0.248006
715.729000	0.346197
715.928000	0.055746
716.128000	-0.280704
716.328000	-0.164230
716.528000	-0.247530
716.728000	-0.135542
716.928000	-0.365095
717.128000	-0.242733
717.328000	-0.255371
717.527000	-0.368108
717.727000	-0.310384
717.927000	-0.249470
718.127000	-0.333424
718.327000	-0.753844
718.527000	-0.675018
718.727000	-0.275735
718.927000	-0.380509
719.127000	-0.633671
719.326000	-0.378660
719.526000	-0.009163
719.726000	-0.190995
719.926000	-0.656231
720.126000	-0.556780
720.326000	-0.344710
720.526000	-0.468302
720.726000	-0.325473
720.925000	-0.072168
721.125000	-0.540479
721.325000	-0.333911
721.525000	-0.297529
721.725000	-0.418447
721.925000	-0.440140
722.125000	-0.408469
722.325000	0.128682
722.524000	-0.237569
722.724000	-0.698608
722.924000	-0.737894
723.124000	-0.485665
723.324000	-0.052558
723.524000	-0.024424
723.724000	-0.603636
723.924000	-0.415190
724.124000	-0.179349
724.323000	-0.103968
724.523000	-0.237974
724.723000	0.211987
724.923000	0.030293
725.123000	-0.058754
725.323000	0.015189
725.523000	-0.182621
725.723000	-0.410467
725.922000	-0.414735
726.122000	-0.316162
726.322000	-0.429689
726.522000	-0.382320
726.722000	0.135567
726.922000	-0.171729
727.122000	-0.195303
727.322000	0.180215
727.521000	-0.067266
727.721000	-0.356073
727.921000	-0.294496
728.121000	-0.332908
728.321000	-0.688250
728.521000	-0.434881
728.721000	-0.224587
728.921000	0.094835
729.121000	0.688203
729.320000	0.093156
729.520000	-0.306666
729.720000	-0.472422
729.920000	-0.425837
730.120000	-0.266934
730.320000	-0.203133
730.520000	-0.470914
730.720000	-0.468477
730.919000	-0.464470
731.119000	-0.088352
731.319000	-0.562443
731.519000	-0.674446
731.719000	-0.303042
731.919000	-0.468588
732.119000	-0.930843
732.319000	-0.892220
732.519000	-0.362225
732.718000	-0.612428
732.918000	-0.462195
733.118000	-0.332099
733.318000	-0.033904
733.518000	-0.293192
733.718000	-0.846845
733.918000	-0.783389
734.118000	-0.537393
734.317000	-0.310912
734.517000	-0.522810
734.717000	-0.404563
734.917000	0.022190
735.117000	-0.046447
735.317000	-0.100947
735.517000	0.115393
735.717000	0.296442
735.916000	-0.465037
736.116000	-0.507241
736.316000	-0.296015
736.516000	-0.283677
736.716000	-0.300156
736.916000	-0.719622
737.116000	-0.548011
737.316000	0.039137
737.516000	-0.006192
737.715000	-0.014457
737.915000	-0.615722
738.115000	-0.663278
738.315000	-0.365072
738.515000	-0.669861
738.715000	-0.511083
738.915000	0.012533
739.115000	-0.380800
739.314000	-0.436897
739.514000	0.016783
739.714000	0.084129
739.914000	-0.113906
740.114000	-0.289525
740.314000	-0.042298
740.514000	0.300775
740.714000	-0.412310
740.913000	-0.808794
741.113000	-0.714132
741.313000	-0.353869
741.513000	-0.342039
741.713000	-0.222922
741.913000	-0.191672
742.113000	-0.397813
742.313000	-0.883521
742.513000	-0.452957
742.712000	-0.311605
742.912000	-0.673158
743.112000	-0.510376
743.312000	-0.817958
743.512000	-0.588690
743.712000	-0.371845
743.912000	-0.917970
744.112000	-1.001863
744.311000	-0.995779
744.511000	-0.625414
744.711000	-0.220765
744.911000	-0.526173
745.111000	-0.548962
745.311000	-0.108673
745.511000	-0.461943
745.711000	-0.611318
745.911000	-0.349460
746.110000	-0.757153
746.310000	-0.889305
746.510000	-0.576689
746.710000	-0.188620
746.910000	-0.096642
747.110000	-0.612299
747.310000	-0.924564
747.510000	-0.701723
747.709000	-0.382862
747.909000	-0.322520
748.109000	0.022789
748.309000	-0.260330
748.509000	-0.587806
748.709000	-0.668036
748.909000	-0.429155
749.109000	-0.481738
749.308000	-0.163818
749.508000	-0.372840
749.708000	-0.398447
749.908000	-0.090366
750.108000	-0.090634
750.308000	-0.806894
750.508000	-0.007014
750.708000	-0.568331
750.908000	-0.993799
751.107000	-0.260971
751.307000	0.373381
751.507000	-0.186302
751.707000	-0.223750
751.907000	-0.344713
752.107000	-0.208475
752.307000	-0.667939
752.507000	-0.431365
752.706000	-0.526336
752.906000	0.451081
753.106000	-0.390377
753.306000	-0.953713
753.506000	-0.002409
753.706000	-0.410322
753.906000	-0.181052
754.106000	-0.016921
754.305000	-0.183948
754.505000	-0.060668
754.705000	-0.278156
754.905000	-0.349431
755.105000	-0.048944
755.305000	-0.850362
755.505000	-0.707808
755.705000	-0.282985
755.905000	-0.313453
756.104000	-0.758373
756.304000	-1.201299
756.504000	-1.461905
756.704000	-0.276934
756.904000	-0.029922
757.104000	-0.371005
757.304000	-0.431176
757.504000	0.012538
757.703000	-0.363533
757.903000	-0.030158
758.103000	0.246795
758.303000	-0.184354
758.503000	-0.379809
758.703000	-0.550739
758.903000	-0.703331
759.103000	-0.318266
759.303000	-0.217460
759.502000	-0.366999
759.702000	-0.141099
759.902000	-0.482187
760.102000	-0.410970
760.302000	-0.453849
760.502000	-0.056885
760.702000	-0.020715
760.902000	-0.381448
761.101000	-0.739066
761.301000	-0.972376
761.501000	-0.641505
761.701000	-0.749927
761.901000	-0.522692
762.101000	-0.194784
762.301000	-0.273754
762.501000	-0.616452
762.700000	-0.775437
762.900000	-0.741297
763.100000	-0.429382
763.300000	-0.143712
763.500000	-0.396931
763.703000	-0.496497
763.905000	-0.767566
764.108000	-0.029421
764.311000	-0.361125
764.513000	-0.575820
764.716000	-0.279664
764.919000	-0.239648
765.121000	-0.754242
765.324000	-0.953742
765.527000	-0.804005
765.729000	-0.616566
765.932000	0.108824
766.135000	-0.024478
766.337000	-0.315658
766.540000	-0.431361
766.743000	-0.170526
766.945000	-0.730165
767.148000	-1.100478
767.351000	-0.990291
767.553000	-0.303721
767.756000	-0.599797
767.958000	-0.820836
768.161000	-0.395561
768.364000	-0.732955
768.566000	-1.048973
768.769000	-0.494132
768.972000	-0.150731
769.174000	-0.515167
769.377000	-1.139981
769.580000	-1.187432
769.782000	-0.404838
769.985000	-0.848926
770.188000	-1.764084
770.390000	-0.838108
770.593000	0.740588
770.796000	0.283961
770.998000	-0.312540
771.201000	-0.719598
771.404000	-0.333248
771.606000	-0.634827
771.809000	-0.597458
772.012000	-0.529869
772.214000	-1.315683
772.417000	-1.333025
772.620000	-0.262923
772.822000	-0.590401
773.025000	-0.783504
773.228000	-0.836913
773.430000	-0.803619
773.633000	-0.431534
773.836000	-0.339318
774.038000	-0.250356
774.241000	-0.436549
774.444000	-0.630562
774.646000	0.297525
774.849000	-0.116940
775.052000	-0.374144
775.254000	-0.210874
775.457000	-0.570596
775.659000	-0.510367
775.862000	-0.736394
776.065000	-0.511329
776.267000	0.158961
776.470000	0.387351
776.673000	-0.375783
776.875000	0.145412
777.078000	0.085924
777.281000	-0.779224
777.483000	-0.116361
777.686000	0.020924
777.889000	-0.110719
778.091000	-0.015014
778.294000	-1.049453
778.497000	-0.924706
778.699000	-0.712112
778.902000	-0.584901
779.105000	-0.410062
779.307000	0.477076
779.510000	-0.520509
779.713000	-0.394938
779.915000	-0.688853
780.118000	0.527824
780.321000	0.549856
780.523000	-0.376608
780.726000	-0.845423
780.929000	-0.964537
781.131000	-0.874027
781.334000	-1.397480
781.537000	-1.352002
781.739000	-0.318227
781.942000	-0.884335
782.145000	-1.386199
782.347000	-1.212912
782.550000	-0.837135
782.753000	-0.899210
782.955000	-0.785816
783.158000	-0.769708
783.361000	-0.489313
783.563000	-0.514490
783.766000	-0.726557
783.968000	1.045833
784.171000	0.882910
784.374000	-0.284835
784.576000	-0.408143
784.779000	-0.161105
784.982000	0.250993
785.184000	-0.370545
785.387000	-0.201552
785.590000	0.316555
785.792000	0.430093
785.995000	0.250736
786.198000	-0.067616
786.400000	-0.394474
786.603000	-0.324160
786.806000	-0.465349
787.008000	-0.368364
787.211000	-0.304835
787.414000	-0.992477
787.616000	-0.649998
787.819000	-0.553309
788.022000	-1.249086
788.224000	-0.637600
788.427000	-1.216729
788.630000	-0.650099
788.832000	-0.402163
789.035000	-0.954440
789.238000	-1.514159
789.440000	-1.153883
789.643000	0.019911
789.846000	-0.632296
790.048000	-0.250195
790.251000	-0.026694
790.454000	-0.362977
790.656000	0.260703
790.859000	-0.479062
791.062000	-0.875912
791.264000	-0.177721
791.467000	-0.993385
791.669000	-1.504057
791.872000	-0.610051
792.075000	-0.981725
792.277000	-0.765193
792.480000	-0.527653
792.683000	-0.950576
792.885000	-1.175776
793.088000	-0.954985
793.291000	-1.087303
793.493000	-1.243429
793.696000	-0.493454
793.899000	-0.171811
794.101000	-0.489074
794.304000	-0.724913
794.507000	-0.401022
794.709000	-0.090134
794.912000	-0.567343
795.115000	-0.990401
795.317000	-0.662410
795.520000	-0.455210
795.723000	-0.682052
795.925000	-1.102032
796.128000	-1.388958
796.331000	-0.832586
796.533000	-1.174052
796.736000	-0.604191
796.939000	-0.445322
797.141000	-0.696535
797.344000	0.017877
797.547000	-0.075116
797.749000	-0.193432
797.952000	-0.666047
798.155000	-1.056162
798.357000	-1.315504
798.560000	-1.133940
798.763000	-0.315869
798.965000	-0.504187
799.168000	-0.534760
799.371000	-0.353281
799.573000	-0.624872
799.776000	-1.262595
799.978000	-1.377151
800.181000	-0.610786
800.384000	0.991298
800.586000	0.280727
800.789000	-1.222114
800.992000	-1.165941
801.194000	-1.253566
801.397000	-1.253099
801.600000	-1.082543
801.802000	0.018628
802.005000	-0.216774
802.208000	-1.521756
802.410000	-0.670346
802.613000	-0.481470
802.816000	-0.576178
803.018000	-1.234718
803.221000	-1.032744
803.424000	0.246403
803.626000	-0.053154
803.829000	-0.540849
804.032000	0.171849
804.234000	0.916245
804.437000	-0.467766
804.640000	-0.540161
804.842000	-0.564435
805.045000	-1.057309
805.248000	-0.831193
805.450000	-0.679755
805.653000	-0.668517
805.856000	-0.865794
806.058000	0.276502
806.261000	-0.823657
806.464000	-0.969058
806.666000	-0.477469
806.869000	-0.815324
807.072000	-1.996737
807.274000	-2.120217
807.477000	-0.995824
807.679000	-0.577426
807.882000	-1.220931
808.085000	-0.989715
808.287000	-0.259658
808.490000	-1.240743
808.693000	-1.037352
808.895000	-0.681653
809.098000	-0.629831
809.301000	-0.543386
809.503000	-0.650849
809.706000	0.134132
809.909000	0.333242
810.111000	0.231969
810.314000	-0.289603
810.517000	-0.918839
810.719000	-1.042585
810.922000	-0.722636
811.125000	0.229435
811.327000	0.230747
811.530000	-0.343356
811.735000	-0.755896
811.940000	-1.010116
812.146000	-0.873020
812.351000	-0.261926
812.556000	-0.563073
812.761000	-1.125535
812.967000	-0.281547
813.172000	-0.209889
813.377000	-0.442131
813.582000	0.232575
813.788000	-0.221408
813.993000	-1.240170
814.198000	-0.399624
814.403000	-1.138720
814.609000	-0.410467
814.814000	-0.519692
815.019000	0.647355
815.224000	0.475625
815.429000	-0.810916
815.635000	-0.462982
815.840000	-0.528458
816.045000	-0.313298
816.250000	-0.082809
816.456000	-1.397067
816.661000	-2.201702
816.866000	-1.652709
817.071000	-1.489137
817.277000	-2.166321
817.482000	-1.222322
817.687000	-0.495699
817.892000	-0.596426
818.097000	-0.191984
818.303000	0.352710
818.508000	0.886739
818.713000	7.914221
818.918000	4.214998
819.124000	0.569726
819.329000	-0.626206
819.534000	-0.763627
819.739000	-1.030304
819.945000	-0.994303
820.150000	-0.538788
820.355000	-0.516961
820.560000	-0.232691
820.766000	-0.324772
820.971000	-0.340447
821.176000	-1.886230
821.381000	-2.441805
821.586000	-1.387820
821.792000	0.185690
821.997000	-0.408899
822.202000	-0.748835
822.407000	-1.245623
822.613000	-1.397840
822.818000	-0.787459
823.023000	-0.408289
823.228000	-0.680152
823.434000	0.056634
823.639000	0.245942
823.844000	-0.668639
824.049000	0.237281
824.255000	0.209483
824.460000	-0.602684
824.665000	-0.986712
824.870000	0.115346
825.075000	-0.043310
825.281000	0.043440
825.486000	0.878809
825.691000	-1.487967
825.896000	-2.450694
826.102000	-0.843407
826.307000	-0.742832
826.512000	-0.971255
826.717000	-0.802035
826.923000	-0.952360
827.128000	-0.633002
827.333000	-1.343869
827.538000	-0.269780
827.744000	0.200323
827.949000	-0.974723
828.154000	-0.652448
828.359000	0.115375
828.564000	-0.509190
828.770000	-0.779599
828.975000	0.365315
829.180000	-0.198882
829.385000	-1.656716
829.591000	-1.208091
829.796000	-0.560762
830.001000	-0.680385
830.206000	-1.220287
830.412000	-1.048582
830.617000	-1.190919
830.822000	0.104075
831.027000	-0.586714
831.232000	-1.285019
831.438000	-1.136279
831.643000	-0.557571
831.848000	-0.870044
832.053000	-0.608710
832.259000	-0.731356
832.464000	-2.614763
832.669000	-2.026831
832.874000	-1.480377
833.080000	-1.636684
833.285000	0.139290
833.490000	-0.117945
833.695000	-1.521794
833.901000	-1.176536
834.106000	-1.438975
834.311000	-1.244569
834.516000	-0.738046
834.721000	-1.154548
834.927000	0.082809
835.132000	-0.459105
835.337000	0.919579
835.542000	-0.139314
835.748000	-1.707462
835.953000	-0.033486
836.158000	-0.117488
836.363000	-0.387583
836.569000	-0.271713
836.774000	-1.179492
836.979000	-1.618096
837.184000	-2.077329
837.390000	-1.619283
837.595000	-0.989036
837.800000	-0.647501
838.005000	-0.478511
838.210000	-0.870922
838.416000	-1.349080
838.621000	-1.045012
838.826000	-0.986352
839.031000	-0.857284
839.237000	-1.451235
839.442000	-2.171507
839.647000	-2.391554
839.852000	-1.516658
840.058000	-1.498448
840.263000	-1.333206
840.468000	-2.031610
840.673000	-1.001011
840.878000	-0.864783
841.084000	-1.643881
841.289000	-0.836038
841.494000	1.919940
841.699000	1.677151
841.905000	0.475224
842.110000	0.575801
842.315000	-1.344349
842.520000	-0.834009
842.726000	-1.229415
842.931000	-1.707501
843.136000	-0.637211
843.341000	-2.168963
843.547000	-1.299958
843.752000	-1.033684
843.957000	-1.782955
844.162000	-1.658953
844.367000	-1.112594
844.573000	-0.298392
844.778000	-0.183628
844.983000	-0.488760
845.188000	-0.299864
845.394000	-1.731745
845.599000	-1.387133
845.804000	-1.179219
846.009000	-0.687766
846.215000	-1.877307
846.420000	-1.431388
846.625000	-0.327865
846.830000	0.189478
847.036000	-1.004503
847.241000	-1.496662
847.446000	-0.375768
847.651000	-0.655397
847.856000	-1.710114
848.062000	-1.849186
848.267000	-0.140740
848.472000	-1.210531
848.677000	-2.427824
848.883000	-0.565301
849.088000	1.135253
849.293000	-0.552803
849.498000	-1.329125
849.704000	-0.143538
849.909000	-0.753812
850.114000	-1.672145
850.319000	-0.336551
850.524000	-0.676803
850.730000	-0.902894
850.935000	-1.101770
851.140000	0.125849
851.345000	0.230691
851.551000	-0.077128
851.756000	0.028198
851.961000	-1.123834
852.166000	-1.209279
852.372000	-0.964260
852.577000	-0.892744
852.782000	-1.108202
852.987000	0.430538
853.193000	-0.100821
853.398000	-0.403404
853.603000	-1.718299
853.808000	-2.383765
854.013000	-1.323045
854.219000	0.072827
854.424000	1.820425
854.629000	1.655921
854.834000	-0.944128
855.040000	-0.534474
855.245000	-0.125774
855.450000	-2.559358
855.655000	-3.542397
855.861000	-3.370992
856.066000	-2.045035
856.271000	-2.131165
856.476000	-0.241810
856.682000	-1.016476
856.887000	-3.630324
857.092000	-1.967063
857.297000	0.320267
857.502000	-0.427863
857.708000	-0.681322
857.913000	0.529132
858.118000	-0.371485
858.323000	-0.628723
858.529000	-0.604501
858.734000	-1.243375
858.939000	-1.013220
859.144000	-1.681381
859.350000	-2.714054
859.555000	-2.361627
859.760000	-0.362881
859.965000	0.307571
860.171000	-1.441535
860.376000	-0.278376
860.581000	-2.009668
860.786000	-4.388586
860.991000	-3.522962
861.197000	-2.331132
861.402000	-1.023803
861.607000	-1.597184
861.812000	-2.689631
862.018000	-2.659287
862.223000	-1.344369
862.428000	-0.778594
862.633000	0.114792
862.839000	-0.354787
863.044000	-1.364453
863.249000	-2.165586
863.454000	-0.199332
863.659000	-1.141308
863.865000	-1.875358
864.070000	-1.997794
864.275000	-2.371095
864.480000	-1.892040
864.686000	-3.687849
864.891000	-3.113949
865.096000	-0.630763
865.301000	0.017080
865.507000	-0.214750
865.712000	-0.154610
865.917000	-1.141094
866.122000	-0.130022
866.328000	-3.094645
866.533000	-3.083774
866.738000	0.209336
866.943000	0.279703
867.148000	0.597710
867.354000	-1.506004
867.559000	-2.906542
867.764000	-1.148709
867.969000	-0.483294
868.175000	-1.828533
868.380000	-2.291445
868.585000	-3.047290
868.790000	-1.025265
868.996000	-1.122571
869.201000	-2.659476
869.406000	-3.728386
869.611000	-2.802529
869.817000	-2.142874
870.022000	2.178447
870.227000	0.045878
870.432000	-2.148443
870.637000	-0.683118
870.843000	-1.411315
871.048000	-1.458444
871.253000	0.102243
871.458000	-1.027621
871.664000	-2.999045
871.869000	-3.035678
872.074000	-2.371357
872.279000	-1.327320
872.485000	-1.793888
872.690000	-2.002915
872.895000	-2.232521
873.100000	-2.880659
873.306000	-2.651025
873.511000	-0.964526
873.716000	0.429618
873.921000	-1.606862
874.126000	-2.058106
874.332000	-1.132769
874.537000	-0.296967
874.742000	-0.562416
874.947000	-0.891791
875.153000	0.980171
875.358000	-0.581461
875.563000	-1.412242
875.768000	-3.791842
875.974000	-3.979111
876.179000	-0.860112
876.384000	-0.599920
876.589000	-2.164917
876.794000	-1.581880
877.000000	-2.570105
877.205000	-3.840004
877.410000	-0.969887
877.615000	-2.533922
877.821000	-4.489279
878.026000	-3.171073
878.231000	-3.596532
878.436000	-3.842048
878.642000	-2.935529
878.847000	-1.292407
879.052000	0.041970
879.257000	-1.947385
879.463000	-3.062887
879.668000	-2.247506
879.873000	-0.255447
880.078000	-2.571400
880.283000	-4.209524
880.489000	-4.412942
880.694000	-3.636057
880.899000	-1.680001
881.104000	-0.663846
881.310000	1.110010
881.515000	0.065220
881.720000	1.481869
881.925000	2.410658
882.131000	2.936804
882.336000	0.198766
882.541000	-2.927026
882.746000	-2.851989
882.952000	-3.150298
883.157000	-2.788499
883.362000	-2.826431
883.567000	-3.514039
883.772000	-3.523931
883.978000	-2.901891
884.183000	-0.912466
884.388000	-1.672737
884.593000	-4.007083
884.799000	0.891905
885.004000	0.521829
885.209000	-1.519754
885.414000	-0.924913
885.620000	-3.516803
885.825000	-0.656808
886.030000	-1.158873
886.235000	-2.520425
886.440000	-1.436967
886.646000	-4.015427
886.851000	-4.107473
887.056000	0.096108
887.261000	-0.529018
887.467000	-3.440538
887.672000	-0.875111
887.877000	-2.357749
888.082000	-4.553888
888.288000	-4.879707
888.493000	-7.289647
888.698000	-5.281346
888.903000	-1.599633
889.109000	-3.019396
889.314000	-0.371448
889.519000	-1.924187
889.724000	0.802897
889.929000	-0.643068
890.135000	-1.835195
890.340000	-1.886368
890.545000	-3.109216
890.750000	-4.755465
890.956000	-3.239459
891.161000	-0.626895
891.366000	-2.502095
891.571000	-1.184668
891.777000	-1.488524
891.982000	0.253525
892.187000	-0.063653
892.392000	0.660414
892.598000	-0.063864
892.803000	-0.489656
893.008000	-2.857789
893.213000	-2.760368
893.418000	-2.766895
893.624000	-3.196594
893.829000	-5.498961
894.034000	-2.410110
894.239000	-0.602219
894.445000	-3.422083
894.650000	-3.465586
894.855000	-3.062457
895.060000	-3.306657
895.266000	-3.063676
895.471000	-4.439667
895.676000	-1.047495
895.881000	-0.708799
896.087000	-2.768862
896.292000	-3.406179
896.497000	1.014695
896.702000	-1.185804
896.907000	-3.306479
897.113000	1.273295
897.318000	1.394501
897.523000	0.325789
897.728000	-1.757855
897.934000	-1.969516
898.139000	-1.879605
898.344000	-0.082490
898.549000	-1.133783
898.755000	-2.658470
898.960000	-2.967452
899.165000	-4.906163
899.370000	-1.455670
899.575000	2.146980
899.781000	-2.547103
899.986000	-3.293111
900.191000	-1.727888
900.396000	-2.438867
900.602000	-1.683221
900.807000	-2.470848
901.012000	-1.894124
901.217000	-0.014495
901.423000	-2.643465
901.628000	-4.188628
901.833000	0.611760
902.038000	0.161468
902.244000	-3.440081
902.449000	-2.591572
902.654000	-2.604006
902.859000	-1.291532
903.064000	0.581738
903.270000	0.494010
903.475000	-3.580574
903.680000	-5.717086
903.885000	-4.812273
904.091000	-3.821106
904.296000	-5.312965
904.501000	-4.141911
904.706000	-3.465255
904.912000	0.170484
905.117000	-1.883178
905.322000	-4.706940
905.527000	-3.748089
905.733000	-3.000441
905.938000	-3.522422
906.143000	-3.787547
906.348000	-5.303635
906.553000	-1.170999
906.759000	0.048093
906.964000	-0.805531
907.169000	-2.543616
907.374000	-5.318344
907.580000	-4.030314
907.785000	-3.620358
907.990000	13.561701
908.195000	9.637957
908.401000	-0.384318
908.606000	-7.795796
908.811000	-9.130815
909.016000	-2.179107
909.221000	-1.614282
909.427000	-2.502854
909.632000	-4.077259
909.837000	-3.968244
910.042000	-5.754255
910.248000	-7.150618
910.453000	-2.105063
910.658000	-3.120310
910.863000	-3.712451
911.069000	-5.167160
911.274000	-0.973744
911.479000	0.605655
911.684000	-6.211369
911.890000	-3.226806
912.095000	-3.535914
912.300000	-6.200341
912.506000	-4.955649
912.711000	-4.779351
912.917000	-2.181036
913.123000	-1.724374
913.328000	-2.048811
913.534000	-2.104859
913.740000	7.202968
913.946000	3.204766
914.151000	-3.841212
914.357000	-6.073930
914.563000	-1.132088
914.768000	-4.449815
914.974000	-6.245706
915.180000	-5.375043
915.385000	-4.227646
915.591000	-7.292090
915.797000	-2.307194
916.002000	1.191007
916.208000	-2.312013
916.414000	-5.194232
916.620000	-6.186347
916.825000	-2.249324
917.031000	-2.673107
917.237000	-8.797486
917.442000	-4.874548
917.648000	-6.022811
917.854000	-6.819976
918.059000	-0.620501
918.265000	0.165260
918.471000	-2.657545
918.676000	-5.602684
918.882000	-7.730770
919.088000	-6.390620
919.294000	-11.323072
919.499000	-6.634685
919.705000	-0.820358
919.911000	-3.022241
920.116000	-1.569853
920.322000	-7.225736
920.528000	-5.085078
920.733000	-7.321159
920.939000	-7.485827
921.145000	-6.596761
921.350000	-6.047188
921.556000	-3.699258
921.762000	-4.122746
921.968000	-4.796946
922.173000	-5.863892
922.379000	-8.608255
922.585000	-3.645099
922.790000	-4.517633
922.996000	-6.227690
923.202000	-7.425073
923.407000	-7.207284
923.613000	-4.835374
923.819000	-2.753278
924.024000	-3.432360
924.230000	-1.135236
924.436000	-3.402947
924.642000	5.414000
924.847000	1.491866
925.053000	-4.694461
925.259000	-9.401708
925.464000	-4.255880
925.670000	-5.253005
925.876000	-6.779494
926.081000	-7.502517
926.287000	-2.956509
926.493000	-2.074937
926.698000	-4.156795
926.904000	-1.497597
927.110000	-4.389858
927.316000	-4.043184
927.521000	3.030356
927.727000	-2.968934
927.933000	-5.587539
928.138000	-4.343897
928.344000	-10.098752
928.550000	-5.576191
928.755000	-1.327112
928.961000	-5.849783
929.167000	-5.385737
929.372000	1.755916
929.578000	-0.393796
929.784000	-6.403526
929.990000	-8.197791
930.195000	-5.222798
930.401000	-5.060405
930.607000	-3.285663
930.812000	-2.706607
931.018000	-6.166262
931.224000	-12.349662
931.429000	-8.448704
931.635000	-11.398887
931.841000	-11.450460
932.046000	-7.216081
932.252000	-2.811486
932.458000	4.636650
932.664000	0.709496
932.869000	-5.249582
933.075000	-9.047246
933.281000	-8.009299
933.486000	-0.223641
933.692000	-4.107877
933.898000	-8.315441
934.103000	-1.682977
934.309000	-5.881998
934.515000	-3.325230
934.720000	-0.876293
934.926000	2.854845
935.132000	2.074831
935.338000	-1.100229
935.543000	-9.695361
935.749000	-11.687235
935.955000	-12.660486
936.160000	-10.946906
936.366000	-2.844378
936.572000	-2.790290
936.777000	-0.974111
936.983000	1.089059
937.189000	-3.179252
937.394000	-8.630948
937.600000	0.423916
937.806000	3.571307
938.012000	-4.652919
938.217000	5.323178
938.423000	1.880403
938.629000	-6.282257
938.834000	-12.735089
939.040000	-12.475487
939.246000	-6.118777
939.451000	-10.187912
939.657000	-5.753237
939.863000	-10.050811
940.068000	0.043001
940.274000	-5.152152
940.480000	-3.597452
940.686000	-1.742237
940.891000	-4.518296
941.097000	12.474807
941.303000	1.807966
941.508000	-6.410360
941.714000	-2.376963
941.920000	-14.448671
942.125000	-4.747623
942.331000	-1.917243
942.537000	4.859571
942.742000	1.888055
942.948000	-8.450269
943.154000	-10.043088
943.360000	-22.292230
943.565000	-8.811295
943.771000	3.888578
943.977000	8.061939
944.182000	-11.517983
944.388000	-13.407243
944.594000	-0.245244
944.799000	7.431962
945.005000	0.243584
945.211000	3.811187
945.416000	0.396922
945.622000	-13.828043
945.828000	-9.150566
946.034000	0.919798
946.239000	0.513851
946.445000	-5.818113
946.651000	-16.163810
946.856000	-14.084760
947.062000	-2.026498
947.268000	1.683583
947.473000	-13.472160
947.679000	-16.440248
947.885000	-2.016176
948.090000	1.820502
948.296000	15.339307
948.502000	2.241697
948.708000	-7.888149
948.913000	-10.855305
949.119000	2.553253
949.325000	-3.885535
949.530000	-18.694749
949.736000	-24.628199
949.942000	-14.327821
950.147000	-14.485355
950.353000	-10.824587
950.559000	-5.230886
950.764000	14.345848
950.970000	7.356066
951.176000	-7.061205
951.382000	-12.715676
951.587000	-2.177868
951.793000	2.079840
951.999000	2.271921
952.204000	-10.407523
952.410000	-23.014166
952.616000	-11.500037
952.821000	-7.144175
953.027000	-13.813886
953.233000	-15.135177
953.438000	-15.699272
953.644000	-0.170572
953.850000	-4.494739
954.056000	-8.337129
954.261000	-9.951020
954.467000	-0.521913
954.673000	6.423460
954.878000	-3.658275
955.084000	-3.313957
955.290000	-16.461472
955.495000	-18.265925
955.701000	-15.648083
955.907000	2.497231
956.112000	1.129816
956.318000	7.661577
956.524000	6.378716
956.730000	-7.266220
956.935000	-9.413927
957.141000	-13.331240
957.347000	-1.652684
957.552000	-7.337583
957.758000	-21.110042
957.964000	-30.410604
958.169000	3.850808
958.375000	2.242879
958.581000	-11.707420
958.786000	-22.852536
958.992000	-27.404804
959.198000	-9.088607
959.404000	-2.869968
959.609000	-11.616227
959.815000	-13.777142
960.021000	5.260483
960.226000	-4.193229
960.432000	-26.291705
960.638000	-15.500199
960.843000	-10.094668
961.049000	-11.660390
961.255000	0.000000
961.460000	-12.181604
961.666000	-31.922547
961.872000	-20.266380
962.078000	-16.582112
962.283000	-24.841027
962.489000	-26.520788
962.695000	-17.598384
962.900000	-11.964527
963.106000	-8.929858
963.312000	-13.390764
963.517000	-18.718880
963.723000	-23.004642
963.929000	1.877886
964.134000	9.659391
964.340000	-16.400553
964.546000	-17.171885
964.752000	-22.031388
964.957000	-27.142782
965.163000	-1.202575
965.369000	-4.568851
965.574000	-0.923211
965.780000	-5.158895
966.000000	-18.340557
966.220000	-12.326018
966.440000	-9.040150
966.661000	0.392018
966.881000	-19.661155
967.101000	-34.999353
967.321000	-36.079814
967.541000	-8.924000
967.761000	-15.314187
967.981000	-10.954233
968.202000	-7.997287
968.422000	0.910551
968.642000	1.320363
968.862000	0.336990
969.082000	-8.826041
969.302000	-1.577318
969.522000	-8.182172
969.743000	6.793489
969.963000	-12.515050
970.183000	-24.044717
970.403000	-21.742314
970.623000	-20.747507
970.843000	3.453700
971.063000	0.449616
971.284000	-20.446094
971.504000	-29.970091
971.724000	-9.282066
971.944000	-25.008012
972.164000	-35.202868
972.384000	-25.155480
972.604000	-40.243103
972.825000	-44.669006
973.045000	-29.566968
973.265000	22.332193
973.485000	9.720348
973.705000	-8.308620
973.925000	-14.983307
974.145000	-49.285853
974.365000	-15.040890
974.586000	-11.142331
974.806000	-28.589488
975.026000	0.718423
975.246000	-12.327099
975.466000	-26.871614
975.686000	-11.440465
975.906000	-20.654129
976.127000	-43.065623
976.347000	-36.563463
976.567000	-9.390399
976.787000	-9.205305
977.007000	-19.711761
977.227000	-24.242916
977.447000	-26.558982
977.668000	-45.796466
977.888000	-29.353793
978.108000	-28.833076
978.328000	-17.632981
978.548000	12.940569
978.768000	19.194530
978.988000	4.107123
979.209000	-12.265421
979.429000	-15.480472
979.649000	-1.064066
979.869000	-24.456884
980.089000	-38.721824
980.309000	-44.025768
980.529000	-52.856980
980.750000	-31.702653
980.970000	-45.489723
981.190000	-29.917366
981.410000	-28.895758
981.630000	-35.289495
981.850000	-23.800956
982.070000	-15.649009
982.291000	-41.946106
982.511000	-41.469386
982.731000	-8.165427
982.951000	-24.485925
983.171000	-24.116068
983.391000	-20.508433
983.611000	5.054860
983.832000	-22.954636
984.052000	-47.705096
984.272000	-23.480654
984.492000	-13.689631
984.712000	-25.626562
984.932000	-48.789130
985.152000	-55.046776
985.373000	-37.586050
985.593000	-12.589727
985.813000	-22.656512
986.033000	-35.990245
986.253000	2.719152
986.473000	10.798850
986.693000	-20.515501
986.914000	-32.125754
987.134000	5.736392
987.354000	-27.845476
987.574000	121.599405
987.794000	70.135955
988.014000	-39.637848
988.234000	-19.282684
988.455000	-7.436269
988.675000	-9.786722
988.895000	-20.440328
989.115000	-36.909853
989.335000	-13.957694
989.555000	1.990368
989.775000	-40.295307
989.995000	-27.831191
990.216000	-15.300623
990.436000	-16.680445
990.656000	9.605056
990.876000	-28.473254
991.096000	-14.475980
991.316000	13.566022
991.536000	-17.333223
991.757000	-26.508528
991.977000	-68.205248
992.197000	-17.393386
992.417000	-36.548290
992.637000	-80.183276
992.857000	-81.574234
993.077000	-74.331543
993.298000	-35.483648
993.518000	-29.134067
993.738000	-78.716510
993.958000	-39.972068
994.178000	-45.790579
994.398000	-31.741532
994.618000	-67.596222
994.839000	-119.397311
995.059000	-25.223002
995.279000	42.540984
995.499000	-8.418608
995.719000	-9.303969
995.939000	-25.580765
996.159000	-28.595620
996.380000	-19.795957
996.600000	-67.950334
996.820000	-27.372240
997.040000	19.776434
997.260000	-51.058722
997.480000	-32.504983
997.700000	-94.816524
997.921000	-59.505086
998.141000	30.722868
998.361000	-2.651935
998.581000	-45.787419
998.801000	-81.949193
999.021000	-49.707601
999.241000	-25.144190
999.462000	-49.715744
999.682000	-99.644898
999.902000	-58.599907
1000.122000	-77.225506
1000.342000	-127.459008
1000.562000	-45.012238
1000.782000	-38.072020
1001.003000	-993.196406
