Wavelength	Irradiance
(nm)	(mW/cm2/nm)

294.396000	0.000000
294.577000	0.000000
294.757000	0.000000
294.938000	-0.000000
295.118000	-0.000000
295.299000	0.000000
295.479000	-0.000000
295.660000	-0.000000
295.840000	-0.000000
296.021000	-0.000000
296.202000	-0.000000
296.382000	-0.000000
296.563000	-0.000000
296.743000	-0.000000
296.924000	0.000000
297.104000	-0.000000
297.285000	-0.000000
297.465000	-0.000000
297.646000	-0.000000
297.826000	-0.000000
298.007000	0.000000
298.187000	0.000000
298.368000	-0.000000
298.548000	0.000000
298.729000	0.000000
298.909000	-0.000000
299.090000	-0.000000
299.270000	-0.000000
299.451000	-0.000000
299.631000	-0.000000
299.812000	-0.000000
299.992000	0.000000
300.173000	0.000000
300.353000	-0.000000
300.534000	0.000000
300.714000	0.000000
300.895000	0.000000
301.075000	-0.000000
301.256000	0.000000
301.436000	-0.000000
301.617000	-0.000000
301.797000	-0.000000
301.978000	-0.000000
302.159000	0.000000
302.339000	0.000000
302.520000	-0.000000
302.700000	-0.000000
302.881000	0.000000
303.061000	0.000000
303.242000	0.000000
303.422000	0.000000
303.603000	-0.000000
303.783000	-0.000000
303.964000	0.000000
304.144000	-0.000000
304.325000	-0.000000
304.505000	0.000000
304.686000	-0.000000
304.866000	0.000000
305.047000	-0.000000
305.227000	-0.000000
305.408000	-0.000000
305.588000	-0.000000
305.769000	-0.000000
305.949000	-0.000000
306.130000	-0.000000
306.310000	-0.000000
306.491000	-0.000000
306.671000	0.000000
306.852000	-0.000000
307.032000	-0.000000
307.213000	-0.000000
307.393000	-0.000000
307.574000	0.000000
307.755000	0.000000
307.935000	0.000000
308.116000	-0.000000
308.296000	-0.000000
308.477000	0.000000
308.657000	0.000000
308.838000	0.000000
309.018000	0.000000
309.199000	-0.000000
309.379000	-0.000000
309.560000	0.000000
309.740000	-0.000000
309.921000	-0.000000
310.101000	0.000000
310.282000	-0.000000
310.462000	-0.000000
310.643000	-0.000000
310.823000	-0.000000
311.004000	-0.000000
311.184000	-0.000000
311.365000	0.000000
311.545000	0.000000
311.726000	0.000000
311.906000	-0.000000
312.087000	0.000000
312.267000	-0.000000
312.448000	-0.000000
312.628000	-0.000000
312.809000	-0.000000
312.989000	-0.000000
313.170000	-0.000000
313.344000	-0.000000
313.518000	-0.000000
313.691000	-0.000000
313.865000	-0.000000
314.039000	-0.000000
314.213000	-0.000000
314.387000	-0.000000
314.560000	-0.000000
314.734000	-0.000000
314.908000	-0.000000
315.082000	-0.000000
315.255000	0.000000
315.429000	0.000000
315.603000	0.000000
315.777000	-0.000000
315.951000	0.000000
316.124000	-0.000000
316.298000	-0.000000
316.472000	-0.000000
316.646000	-0.000000
316.820000	-0.000000
316.993000	-0.000000
317.167000	-0.000000
317.341000	-0.000000
317.515000	-0.000000
317.688000	-0.000000
317.862000	-0.000000
318.036000	-0.000000
318.210000	-0.000000
318.384000	-0.000000
318.557000	-0.000000
318.731000	-0.000000
318.905000	-0.000000
319.079000	0.000000
319.253000	-0.000000
319.426000	0.000000
319.600000	0.000000
319.774000	-0.000000
319.948000	-0.000000
320.122000	0.000000
320.295000	0.000000
320.469000	-0.000000
320.643000	-0.000000
320.817000	-0.000000
320.990000	-0.000000
321.164000	-0.000000
321.338000	-0.000000
321.512000	-0.000000
321.686000	-0.000000
321.859000	-0.000000
322.033000	0.000000
322.207000	-0.000000
322.381000	-0.000000
322.555000	0.000000
322.728000	-0.000000
322.902000	-0.000000
323.076000	-0.000000
323.250000	-0.000000
323.423000	-0.000000
323.597000	-0.000000
323.771000	-0.000000
323.945000	-0.000000
324.119000	-0.000000
324.292000	0.000000
324.466000	-0.000000
324.640000	0.000000
324.814000	0.000000
324.988000	-0.000000
325.161000	-0.000000
325.335000	-0.000000
325.509000	-0.000000
325.683000	0.000000
325.856000	-0.000000
326.030000	-0.000000
326.204000	-0.000000
326.378000	-0.000000
326.552000	-0.000000
326.725000	-0.000000
326.899000	-0.000000
327.073000	-0.000000
327.247000	-0.000000
327.421000	0.000000
327.594000	-0.000000
327.768000	-0.000000
327.942000	-0.000000
328.116000	0.000000
328.289000	0.000000
328.463000	-0.000000
328.637000	0.000000
328.811000	-0.000000
328.985000	-0.000000
329.158000	-0.000000
329.332000	-0.000000
329.506000	-0.000000
329.680000	-0.000000
329.854000	-0.000000
330.027000	-0.000000
330.201000	0.000000
330.375000	0.000000
330.549000	0.000000
330.723000	-0.000000
330.896000	-0.000000
331.070000	-0.000000
331.244000	-0.000000
331.418000	-0.000000
331.591000	-0.000000
331.765000	-0.000000
331.939000	-0.000000
332.113000	-0.000000
332.287000	-0.000000
332.460000	0.000000
332.634000	0.000000
332.808000	-0.000000
332.982000	-0.000000
333.156000	-0.000000
333.329000	-0.000000
333.503000	-0.000000
333.677000	-0.000000
333.851000	-0.000000
334.024000	-0.000000
334.198000	-0.000000
334.372000	-0.000000
334.546000	-0.000000
334.720000	-0.000000
334.893000	-0.000000
335.067000	-0.000000
335.241000	0.000000
335.415000	-0.000000
335.589000	-0.000000
335.762000	-0.000000
335.936000	-0.000000
336.110000	-0.000000
336.284000	-0.000000
336.458000	-0.000000
336.631000	-0.000000
336.805000	-0.000000
336.979000	-0.000000
337.153000	-0.000000
337.326000	-0.000000
337.500000	-0.000000
337.674000	-0.000000
337.848000	-0.000000
338.022000	-0.000000
338.195000	-0.000000
338.369000	-0.000000
338.543000	-0.000000
338.717000	-0.000000
338.891000	0.000000
339.064000	0.000000
339.238000	-0.000000
339.412000	-0.000000
339.586000	-0.000000
339.759000	-0.000000
339.933000	-0.000000
340.107000	0.000000
340.281000	-0.000000
340.455000	-0.000000
340.628000	-0.000000
340.802000	-0.000000
340.976000	-0.000000
341.150000	-0.000000
341.324000	-0.000000
341.497000	-0.000000
341.671000	-0.000000
341.845000	-0.000000
342.019000	-0.000000
342.192000	-0.000000
342.366000	-0.000000
342.540000	-0.000000
342.714000	-0.000000
342.888000	-0.000000
343.061000	-0.000000
343.235000	-0.000000
343.409000	-0.000000
343.583000	-0.000000
343.757000	-0.000000
343.930000	-0.000000
344.104000	-0.000000
344.278000	0.000000
344.452000	0.000000
344.626000	-0.000000
344.799000	-0.000000
344.973000	-0.000000
345.147000	-0.000000
345.321000	-0.000000
345.494000	-0.000000
345.668000	0.000000
345.842000	0.000000
346.016000	-0.000000
346.190000	0.000000
346.363000	0.000000
346.537000	-0.000000
346.711000	-0.000000
346.885000	-0.000000
347.059000	-0.000000
347.232000	0.000000
347.406000	0.000000
347.580000	-0.000000
347.754000	-0.000000
347.927000	-0.000000
348.101000	0.000000
348.275000	-0.000000
348.449000	-0.000000
348.623000	-0.000000
348.796000	0.000000
348.970000	0.000000
349.144000	-0.000000
349.318000	-0.000000
349.492000	-0.000000
349.665000	-0.000000
349.839000	-0.000000
350.013000	-0.000000
350.187000	-0.000000
350.361000	-0.000000
350.534000	-0.000000
350.708000	-0.000000
350.882000	-0.000000
351.056000	0.000000
351.229000	-0.000000
351.403000	-0.000000
351.577000	-0.000000
351.751000	-0.000000
351.925000	-0.000000
352.098000	-0.000000
352.272000	-0.000000
352.446000	-0.000000
352.620000	-0.000000
352.794000	-0.000000
352.967000	-0.000000
353.141000	0.000000
353.315000	0.000000
353.489000	-0.000000
353.662000	-0.000000
353.836000	-0.000000
354.010000	-0.000000
354.184000	0.000000
354.358000	-0.000000
354.531000	-0.000000
354.705000	-0.000000
354.879000	-0.000000
355.053000	-0.000000
355.227000	0.000000
355.400000	-0.000000
355.574000	0.000000
355.748000	0.000000
355.922000	-0.000000
356.095000	-0.000000
356.269000	-0.000000
356.443000	-0.000000
356.617000	-0.000000
356.791000	-0.000000
356.964000	-0.000000
357.138000	-0.000000
357.312000	-0.000000
357.486000	-0.000000
357.660000	-0.000000
357.833000	-0.000000
358.007000	-0.000000
358.181000	-0.000000
358.355000	-0.000000
358.529000	-0.000000
358.702000	-0.000000
358.876000	-0.000000
359.050000	-0.000000
359.224000	-0.000000
359.397000	-0.000000
359.571000	-0.000000
359.745000	-0.000000
359.919000	-0.000000
360.093000	-0.058568
360.266000	0.009957
360.440000	0.107234
360.614000	0.172535
360.788000	0.016978
360.962000	-0.200898
361.135000	-0.032147
361.309000	-0.155135
361.483000	-0.346985
361.657000	-0.350816
361.830000	-0.268695
362.004000	-0.047327
362.178000	-0.379639
362.352000	-0.271374
362.526000	-0.031581
362.699000	-0.010365
362.873000	-0.375752
363.047000	-0.419147
363.221000	-0.353209
363.395000	-0.236778
363.568000	-0.247620
363.742000	-0.244122
363.916000	-0.198088
364.090000	-0.306495
364.263000	-0.315752
364.437000	-0.415311
364.611000	-0.088609
364.785000	-0.036646
364.959000	-0.199881
365.132000	-0.222839
365.306000	-0.263985
365.480000	-0.126351
365.656000	-0.243739
365.831000	-0.240020
366.007000	-0.209752
366.183000	-0.213729
366.358000	-0.340895
366.534000	-0.231342
366.710000	-0.372243
366.886000	-0.283190
367.061000	-0.125838
367.237000	-0.013938
367.413000	-0.215609
367.588000	-0.429045
367.764000	-0.362659
367.940000	-0.339852
368.115000	-0.268185
368.291000	-0.273826
368.467000	-0.169781
368.643000	0.119451
368.818000	-0.276394
368.994000	-0.413215
369.170000	-0.276105
369.345000	-0.239439
369.521000	-0.296788
369.697000	-0.142685
369.872000	-0.197347
370.048000	-0.306276
370.224000	-0.282763
370.399000	-0.487313
370.575000	-0.396503
370.751000	-0.492791
370.927000	-0.451271
371.102000	-0.392963
371.278000	-0.361008
371.454000	-0.272019
371.629000	-0.011917
371.805000	-0.038964
371.981000	0.053664
372.156000	0.202823
372.332000	0.009581
372.508000	-0.028162
372.683000	-0.081830
372.859000	-0.112233
373.035000	-0.088778
373.211000	0.251847
373.386000	-0.050470
373.562000	-0.380953
373.738000	-0.471673
373.913000	-0.669933
374.089000	-0.568160
374.265000	-0.135228
374.440000	-0.103287
374.616000	-0.039682
374.792000	-0.285245
374.968000	0.082154
375.143000	-0.076755
375.319000	-0.302348
375.495000	-0.400896
375.670000	-0.256916
375.846000	-0.120591
376.022000	-0.292006
376.197000	-0.243331
376.373000	-0.458759
376.549000	-0.425176
376.724000	-0.483709
376.900000	-0.349840
377.076000	-0.241492
377.252000	0.025140
377.427000	0.125439
377.603000	-0.233156
377.779000	-0.243916
377.954000	-0.400522
378.130000	-0.226528
378.306000	-0.183723
378.481000	-0.219879
378.657000	-0.255481
378.833000	-0.304805
379.009000	-0.197563
379.184000	-0.053925
379.360000	-0.126820
379.536000	-0.175427
379.711000	-0.218630
379.887000	-0.286869
380.063000	-0.304770
380.238000	-0.372833
380.414000	-0.113782
380.590000	-0.334595
380.765000	-0.378421
380.941000	-0.157611
381.117000	-0.078821
381.293000	-0.151066
381.468000	-0.348902
381.644000	-0.263243
381.820000	-0.112768
381.995000	-0.011545
382.171000	0.175571
382.347000	0.133231
382.522000	-0.289054
382.698000	0.025009
382.874000	0.069191
383.050000	-0.359770
383.225000	0.025096
383.401000	0.263852
383.577000	-0.122562
383.752000	-0.285987
383.928000	-0.241406
384.104000	-0.130881
384.279000	-0.226441
384.455000	-0.147898
384.631000	-0.166177
384.806000	-0.383817
384.982000	-0.197372
385.158000	-0.193865
385.334000	-0.067739
385.509000	-0.181389
385.685000	-0.456424
385.861000	-0.260167
386.036000	-0.383066
386.212000	-0.541854
386.388000	-0.346563
386.563000	-0.292256
386.739000	-0.336654
386.915000	-0.494661
387.090000	-0.232285
387.266000	-0.094248
387.442000	0.027420
387.618000	-0.054920
387.793000	-0.358237
387.969000	-0.505517
388.145000	-0.426678
388.320000	-0.364007
388.496000	-0.336777
388.672000	-0.585861
388.847000	-0.184910
389.023000	-0.108987
389.199000	-0.448041
389.375000	-0.212421
389.550000	-0.291697
389.726000	-0.193606
389.902000	-0.361257
390.077000	-0.163866
390.253000	-0.146306
390.429000	-0.285612
390.604000	-0.181791
390.780000	-0.196089
390.956000	-0.327808
391.131000	-0.304600
391.307000	0.049212
391.483000	-0.216853
391.659000	-0.398865
391.834000	-0.141410
392.010000	-0.326506
392.186000	-0.387003
392.361000	-0.287362
392.537000	-0.389083
392.713000	0.105200
392.888000	0.248800
393.064000	-0.070489
393.240000	-0.241138
393.416000	-0.357761
393.591000	-0.419824
393.767000	-0.503200
393.943000	-0.381501
394.118000	-0.013183
394.294000	0.152726
394.470000	-0.064243
394.645000	0.006307
394.821000	0.311316
394.997000	-0.076132
395.172000	-0.167378
395.348000	-0.281285
395.524000	-0.507223
395.700000	-0.382932
395.875000	-0.111086
396.051000	-0.122896
396.227000	-0.184031
396.402000	-0.269764
396.578000	-0.167628
396.754000	-0.363706
396.929000	-0.350123
397.105000	-0.051103
397.281000	-0.110767
397.457000	-0.229458
397.632000	-0.208199
397.808000	-0.491578
397.984000	-0.616619
398.159000	-0.503402
398.335000	-0.286073
398.511000	0.167438
398.686000	-0.072022
398.862000	-0.375092
399.038000	-0.414027
399.213000	-0.199498
399.389000	-0.528038
399.565000	-0.214470
399.741000	0.017813
399.916000	-0.041177
400.092000	0.229843
400.268000	-0.136397
400.443000	-0.291646
400.619000	0.060391
400.795000	-0.069610
400.970000	-0.246252
401.146000	-0.254252
401.322000	0.010862
401.497000	0.338840
401.673000	0.074948
401.849000	-0.223154
402.025000	-0.048020
402.200000	-0.219257
402.376000	-0.277822
402.552000	0.194620
402.727000	0.006097
402.903000	-0.387071
403.079000	-0.260875
403.254000	0.041251
403.430000	0.020022
403.606000	-0.115201
403.782000	-0.243156
403.957000	-0.381653
404.133000	-0.450549
404.309000	-0.300587
404.484000	-0.054584
404.660000	-0.068772
404.841000	-0.206909
405.023000	0.047953
405.204000	-0.031285
405.385000	-0.369163
405.566000	-0.362833
405.748000	-0.243940
405.929000	-0.024658
406.110000	-0.059527
406.292000	-0.156379
406.473000	-0.077685
406.654000	-0.293985
406.835000	-0.127098
407.017000	-0.184807
407.198000	-0.196555
407.379000	-0.152403
407.560000	-0.122949
407.742000	-0.163347
407.923000	-0.136256
408.104000	-0.323697
408.286000	-0.183999
408.467000	-0.104948
408.648000	-0.339469
408.829000	-0.389108
409.011000	-0.243843
409.192000	-0.456143
409.373000	-0.181841
409.555000	0.015311
409.736000	-0.065441
409.917000	-0.213704
410.098000	-0.203099
410.280000	-0.110394
410.461000	-0.110198
410.642000	-0.073905
410.823000	0.179223
411.005000	0.113241
411.186000	-0.119714
411.367000	-0.167836
411.549000	-0.199704
411.730000	0.019645
411.911000	0.165560
412.092000	-0.035014
412.274000	-0.147576
412.455000	-0.104919
412.636000	-0.025801
412.818000	-0.149683
412.999000	-0.256143
413.180000	-0.219397
413.361000	-0.168212
413.543000	-0.203295
413.724000	-0.296984
413.905000	-0.339613
414.087000	-0.340324
414.268000	-0.327701
414.449000	-0.312722
414.630000	-0.414558
414.812000	-0.469505
414.993000	-0.091590
415.174000	-0.003099
415.355000	-0.214687
415.537000	-0.437674
415.718000	-0.114081
415.899000	-0.127018
416.081000	-0.249906
416.262000	-0.062458
416.443000	-0.189537
416.624000	-0.191287
416.806000	-0.033770
416.987000	0.100473
417.168000	0.031976
417.350000	-0.136635
417.531000	-0.222873
417.712000	-0.188034
417.893000	0.055693
418.075000	0.179025
418.256000	-0.074774
418.437000	-0.003055
418.618000	0.114381
418.800000	0.164138
418.981000	-0.048392
419.162000	-0.005151
419.344000	0.180620
419.525000	0.083847
419.706000	0.003479
419.887000	0.125006
420.069000	0.311320
420.250000	0.222375
420.431000	0.152646
420.613000	0.079509
420.794000	-0.124930
420.975000	0.246847
421.156000	0.078988
421.338000	0.016389
421.519000	0.037945
421.700000	-0.070060
421.882000	-0.070047
422.063000	0.163043
422.244000	0.687929
422.425000	0.475161
422.607000	0.114483
422.788000	0.133450
422.969000	0.057228
423.150000	-0.003015
423.332000	-0.052404
423.513000	0.128411
423.694000	0.187564
423.876000	0.305757
424.057000	0.374913
424.238000	0.437018
424.419000	0.481770
424.601000	0.309982
424.782000	0.322699
424.963000	0.535377
425.145000	0.418070
425.326000	0.424876
425.507000	0.510130
425.688000	0.402669
425.870000	0.269949
426.051000	0.188489
426.232000	0.315414
426.413000	0.351896
426.595000	0.319914
426.776000	0.317615
426.957000	0.392464
427.139000	0.496252
427.320000	0.578422
427.501000	0.700024
427.682000	0.690125
427.864000	0.668153
428.045000	0.860571
428.226000	0.822379
428.408000	0.478722
428.589000	0.647395
428.770000	0.721385
428.951000	0.646983
429.133000	0.516301
429.314000	0.751292
429.495000	0.761612
429.677000	0.742877
429.858000	0.724370
430.039000	0.871297
430.220000	1.054075
430.402000	1.121459
430.583000	0.896518
430.764000	0.914332
430.945000	1.098221
431.127000	1.222268
431.308000	1.057855
431.489000	1.331985
431.671000	1.429371
431.852000	1.303015
432.033000	1.264931
432.214000	1.374792
432.396000	1.468409
432.577000	1.340289
432.758000	1.227007
432.940000	1.333922
433.121000	1.480895
433.302000	1.556277
433.483000	1.721881
433.665000	1.895806
433.846000	1.846914
434.027000	1.747313
434.208000	1.688503
434.390000	1.749360
434.571000	2.210432
434.752000	2.690696
434.934000	2.551462
435.115000	2.564077
435.296000	2.685946
435.477000	2.572318
435.659000	2.346247
435.840000	2.489243
436.026000	2.520860
436.211000	2.378726
436.397000	2.149202
436.582000	2.331025
436.768000	2.584133
436.953000	2.531729
437.139000	2.629899
437.325000	2.982682
437.510000	2.962018
437.696000	3.218583
437.881000	3.290082
438.067000	2.998735
438.252000	3.125301
438.438000	3.167175
438.624000	3.235452
438.809000	3.403856
438.995000	3.541410
439.180000	3.558306
439.366000	3.530777
439.551000	3.639061
439.737000	3.817664
439.923000	4.004910
440.108000	3.975900
440.294000	4.052495
440.479000	4.366345
440.665000	4.472713
440.850000	4.407099
441.036000	4.516406
441.222000	4.652792
441.407000	4.619385
441.593000	4.795374
441.778000	4.987489
441.964000	5.241977
442.149000	5.028442
442.335000	5.057098
442.521000	5.243911
442.706000	5.506249
442.892000	5.630132
443.077000	5.660501
443.263000	5.858585
443.448000	5.851236
443.634000	5.872503
443.820000	6.287091
444.005000	6.330250
444.191000	6.299856
444.376000	6.441747
444.562000	6.930614
444.747000	7.106160
444.933000	7.100890
445.119000	7.067011
445.304000	7.091271
445.490000	7.440152
445.675000	7.599355
445.861000	7.537109
446.046000	7.659069
446.232000	7.975414
446.418000	8.149398
446.603000	8.301478
446.789000	8.354022
446.974000	8.553096
447.160000	8.509291
447.345000	8.711062
447.531000	8.857090
447.717000	9.356439
447.902000	9.597462
448.088000	9.710435
448.273000	9.686421
448.459000	9.782758
448.644000	9.867382
448.830000	10.054305
449.016000	10.173641
449.201000	10.418003
449.387000	10.756335
449.572000	11.049182
449.758000	11.062265
449.943000	11.224086
450.129000	11.335815
450.315000	11.546022
450.500000	11.646175
450.686000	11.960488
450.871000	12.088156
451.057000	12.387808
451.243000	12.522464
451.428000	12.754764
451.614000	12.939500
451.799000	13.108041
451.985000	13.557414
452.170000	13.705841
452.356000	13.637386
452.542000	13.827971
452.727000	14.142865
452.913000	14.153379
453.098000	14.514562
453.284000	14.930074
453.469000	14.956896
453.655000	15.115776
453.841000	15.112120
454.026000	15.166014
454.212000	15.225934
454.397000	15.366323
454.583000	15.476461
454.768000	15.410337
454.954000	15.831772
455.140000	15.893466
455.325000	15.839127
455.511000	15.912429
455.696000	16.064383
455.882000	16.288835
456.067000	16.589750
456.253000	16.478656
456.439000	16.411077
456.624000	16.283148
456.810000	16.189806
456.995000	16.274691
457.181000	16.330511
457.366000	16.554756
457.552000	16.552654
457.738000	16.535961
457.923000	16.536581
458.109000	16.861838
458.294000	16.654008
458.480000	16.479818
458.665000	16.446838
458.851000	16.202721
459.037000	15.807047
459.222000	15.910646
459.408000	15.797985
459.593000	15.695361
459.779000	15.787041
459.964000	15.799039
460.150000	15.855200
460.336000	15.598414
460.521000	15.204473
460.707000	14.918484
460.892000	14.540372
461.078000	14.741565
461.263000	14.582020
461.449000	14.270517
461.635000	14.117940
461.820000	13.999511
462.006000	13.872548
462.191000	13.630595
462.377000	13.153082
462.562000	13.387821
462.748000	13.429377
462.934000	12.785339
463.119000	12.421889
463.305000	12.418332
463.490000	12.097084
463.676000	12.008919
463.861000	11.813953
464.047000	11.483939
464.233000	11.327351
464.418000	11.092225
464.604000	10.732680
464.789000	10.865338
464.975000	10.772005
465.160000	10.372646
465.346000	10.099256
465.532000	9.839317
465.717000	9.702239
465.903000	9.824490
466.088000	9.584221
466.274000	9.194927
466.459000	9.038485
466.645000	9.213289
466.831000	8.985881
467.016000	8.866569
467.202000	8.614538
467.387000	8.335886
467.573000	8.075399
467.758000	8.257320
467.944000	7.920619
468.130000	7.666634
468.315000	7.702267
468.501000	7.684733
468.686000	7.432080
468.872000	7.365390
469.057000	7.272799
469.243000	7.071783
469.429000	6.970877
469.614000	6.712375
469.800000	6.526693
469.985000	6.606406
470.171000	6.550698
470.356000	6.365129
470.542000	6.488308
470.728000	6.255967
470.913000	6.123632
471.099000	6.227119
471.284000	6.011879
471.470000	5.913678
471.655000	5.832307
471.841000	5.728526
472.027000	5.557595
472.212000	5.732137
472.398000	5.655943
472.583000	5.355317
472.769000	5.316029
472.954000	5.242137
473.140000	5.015531
473.326000	4.900949
473.511000	5.166845
473.697000	5.042196
473.882000	4.890692
474.068000	4.796441
474.253000	4.571266
474.439000	4.594927
474.625000	4.630714
474.810000	4.537396
474.996000	4.445677
475.181000	4.251402
475.367000	4.332558
475.552000	4.490300
475.738000	4.089352
475.924000	4.023241
476.109000	4.083806
476.295000	3.928798
476.480000	3.850897
476.666000	3.750135
476.851000	3.733420
477.037000	3.705272
477.223000	3.523669
477.408000	3.409970
477.594000	3.261096
477.779000	3.357981
477.965000	3.300099
478.151000	3.097675
478.336000	3.197392
478.522000	3.075114
478.707000	2.978177
478.893000	3.084438
479.078000	2.876562
479.264000	2.799963
479.450000	2.792856
479.635000	2.869622
479.821000	2.695156
480.006000	2.691464
480.192000	2.623154
480.377000	2.632158
480.563000	2.622994
480.749000	2.347995
480.934000	2.332320
481.120000	2.428679
481.305000	2.453155
481.491000	2.389181
481.676000	2.386326
481.862000	2.373675
482.048000	2.139165
482.233000	2.157953
482.419000	2.146393
482.604000	2.048207
482.790000	2.021922
482.975000	2.041913
483.161000	2.111351
483.347000	2.035820
483.532000	1.918148
483.718000	1.689192
483.903000	1.737703
484.089000	1.768030
484.274000	1.624104
484.460000	1.755633
484.646000	1.755779
484.831000	1.600694
485.017000	1.631768
485.202000	1.661420
485.388000	1.871423
485.573000	1.836706
485.759000	1.630138
485.945000	1.764766
486.130000	1.563783
486.316000	1.562749
486.501000	1.636987
486.687000	1.481417
486.872000	1.378317
487.058000	1.544168
487.244000	1.540221
487.429000	1.364680
487.615000	1.469222
487.800000	1.516226
487.986000	1.411447
488.171000	1.502561
488.357000	1.409928
488.543000	1.412870
488.728000	1.439185
488.914000	1.344715
489.099000	1.227549
489.285000	1.204064
489.470000	1.394358
489.656000	1.459881
489.842000	1.373986
490.027000	1.437067
490.213000	1.277494
490.398000	1.023445
490.584000	1.332280
490.769000	1.327471
490.955000	1.342774
491.141000	1.317470
491.326000	1.273106
491.512000	1.401261
491.697000	1.314326
491.883000	1.167285
492.068000	1.119818
492.254000	1.139302
492.440000	1.167225
492.625000	1.089298
492.811000	1.085515
492.996000	1.235592
493.182000	1.200179
493.367000	1.014204
493.553000	0.941862
493.739000	1.082318
493.924000	1.200340
494.110000	1.199685
494.295000	1.064296
494.481000	1.156685
494.666000	1.179506
494.852000	1.336081
495.038000	1.186165
495.223000	1.078176
495.409000	1.135089
495.594000	1.074290
495.780000	1.118380
495.965000	1.044417
496.151000	1.266603
496.337000	1.321621
496.522000	1.077028
496.708000	1.185505
496.893000	1.316529
497.079000	1.140416
497.264000	1.111826
497.450000	1.179092
497.636000	1.309288
497.821000	1.144510
498.007000	1.346266
498.192000	1.363732
498.378000	1.272718
498.563000	1.179811
498.749000	1.210595
498.935000	1.274055
499.120000	1.374860
499.306000	1.233958
499.491000	1.171770
499.677000	1.268950
499.862000	1.348360
500.048000	1.465939
500.234000	1.325578
500.419000	1.284434
500.605000	1.492677
500.790000	1.431915
500.976000	1.339185
501.161000	1.265622
501.347000	1.399510
501.533000	1.495470
501.718000	1.469668
501.904000	1.454359
502.089000	1.540955
502.275000	1.605566
502.460000	1.505993
502.646000	1.566880
502.832000	1.654939
503.017000	1.628630
503.203000	1.441817
503.388000	1.434313
503.574000	1.664920
503.759000	1.719142
503.945000	1.795615
504.131000	1.712680
504.316000	1.658471
504.502000	1.720110
504.687000	1.701176
504.873000	1.615812
505.058000	1.607764
505.244000	1.648164
505.430000	1.729858
505.615000	1.801297
505.801000	1.864463
505.986000	1.751916
506.172000	1.839326
506.358000	1.868695
506.543000	1.853529
506.729000	2.030885
506.914000	2.002230
507.100000	2.170485
507.285000	2.004538
507.471000	1.870887
507.657000	2.123967
507.842000	2.072032
508.028000	1.929464
508.213000	1.988205
508.399000	2.032058
508.584000	2.186798
508.770000	2.067013
508.956000	2.068635
509.141000	2.128722
509.327000	2.241312
509.512000	2.200747
509.698000	2.210437
509.883000	2.323246
510.069000	2.236942
510.255000	2.252305
510.440000	2.298251
510.626000	2.244333
510.811000	2.242766
510.997000	2.324871
511.182000	2.569882
511.368000	2.463855
511.554000	2.141847
511.739000	2.258877
511.925000	2.446039
512.110000	2.410144
512.296000	2.597398
512.481000	2.635885
512.667000	2.558560
512.853000	2.337677
513.038000	2.369866
513.224000	2.351167
513.409000	2.272217
513.595000	2.404584
513.780000	2.226479
513.966000	2.309334
514.152000	2.359356
514.337000	2.292898
514.523000	2.397440
514.708000	2.417566
514.894000	2.383956
515.079000	2.299218
515.265000	2.334499
515.451000	2.370914
515.636000	2.251646
515.822000	2.336663
516.007000	2.282216
516.193000	2.429759
516.378000	2.488775
516.564000	2.378827
516.750000	2.394155
516.935000	2.442125
517.121000	2.473900
517.306000	2.526177
517.492000	2.466954
517.677000	2.239796
517.863000	2.190165
518.049000	2.315196
518.234000	2.282792
518.420000	2.377728
518.605000	2.538427
518.791000	2.480659
518.976000	2.287903
519.162000	2.165608
519.348000	2.253443
519.533000	2.217855
519.719000	2.436834
519.904000	2.329480
520.090000	2.226184
520.275000	2.350569
520.461000	2.279074
520.647000	2.076147
520.832000	1.873852
521.018000	1.956476
521.203000	2.029200
521.389000	1.834088
521.574000	1.897352
521.760000	2.064840
521.946000	2.079225
522.131000	1.939755
522.317000	1.905959
522.502000	1.806287
522.688000	1.876801
522.873000	1.859103
523.059000	1.849049
523.245000	1.874903
523.430000	1.742449
523.616000	1.727344
523.801000	1.604413
523.987000	1.662684
524.172000	1.804224
524.358000	1.850625
524.544000	1.782519
524.729000	1.806998
524.915000	1.860123
525.100000	1.701678
525.286000	1.722106
525.471000	1.707374
525.657000	1.684617
525.843000	1.462395
526.028000	1.640295
526.214000	1.561100
526.399000	1.424418
526.585000	1.393506
526.770000	1.352293
526.956000	1.464309
527.142000	1.381759
527.327000	1.497040
527.513000	1.376817
527.698000	1.325509
527.884000	1.358514
528.069000	1.301192
528.255000	1.395657
528.441000	1.296165
528.626000	1.281848
528.812000	1.523486
528.997000	1.383336
529.183000	1.231249
529.368000	1.302193
529.554000	1.280487
529.740000	1.274006
529.925000	1.163268
530.111000	1.152768
530.296000	1.213494
530.482000	1.299309
530.667000	1.191600
530.853000	1.280241
531.039000	1.179322
531.224000	1.187368
531.410000	1.275865
531.595000	1.191531
531.781000	1.208821
531.967000	1.081388
532.152000	1.207289
532.338000	1.067902
532.523000	0.971183
532.709000	0.938258
532.894000	1.016265
533.080000	1.078580
533.266000	0.895582
533.451000	0.837414
533.637000	0.885968
533.822000	1.085942
534.008000	0.947070
534.193000	0.938159
534.379000	1.037713
534.565000	0.911348
534.750000	0.839335
534.936000	1.069551
535.121000	0.922378
535.307000	0.929404
535.492000	0.889213
535.678000	0.710371
535.864000	0.869636
536.049000	1.138192
536.235000	0.906990
536.420000	0.874072
536.606000	0.781781
536.791000	0.687323
536.977000	0.702165
537.163000	0.915644
537.348000	0.905861
537.534000	0.925268
537.719000	0.673525
537.905000	0.547669
538.090000	0.794336
538.276000	0.862827
538.462000	0.805548
538.647000	0.836057
538.833000	0.733008
539.018000	0.858323
539.204000	0.811702
539.389000	0.583532
539.575000	0.924996
539.761000	0.861874
539.946000	0.553673
540.132000	0.694484
540.317000	0.579595
540.503000	0.697982
540.688000	0.704410
540.874000	0.955255
541.060000	1.130194
541.245000	0.926661
541.431000	0.681500
541.616000	0.776103
541.802000	0.795331
541.987000	0.911371
542.173000	0.865019
542.359000	0.730915
542.544000	0.827414
542.730000	0.699413
542.915000	0.705280
543.101000	0.866644
543.286000	0.625466
543.472000	0.517660
543.658000	0.642482
543.843000	0.677896
544.029000	0.862500
544.214000	0.736170
544.400000	0.398905
544.585000	0.580920
544.771000	0.653376
544.957000	0.896905
545.142000	1.002720
545.328000	1.003207
545.513000	0.968459
545.699000	0.894757
545.884000	0.774138
546.070000	0.718181
546.261000	0.653414
546.451000	0.446118
546.642000	0.217547
546.833000	0.377645
547.023000	0.303185
547.214000	0.324178
547.405000	0.473441
547.595000	0.735704
547.786000	0.623762
547.977000	0.435123
548.167000	0.258281
548.358000	0.312818
548.549000	0.653395
548.740000	0.441253
548.930000	0.117500
549.121000	0.216409
549.312000	0.183505
549.502000	0.041929
549.693000	0.136498
549.884000	0.251449
550.074000	0.347299
550.265000	0.184941
550.456000	0.283084
550.646000	0.340688
550.837000	0.327138
551.028000	0.222643
551.218000	0.304685
551.409000	0.180037
551.600000	0.214578
551.790000	0.365024
551.981000	0.095739
552.172000	0.095918
552.362000	0.483069
552.553000	0.534169
552.744000	0.306955
552.934000	0.189058
553.125000	0.115123
553.316000	0.052489
553.506000	0.473837
553.697000	0.307412
553.888000	0.246244
554.079000	0.440132
554.269000	0.393854
554.460000	0.066979
554.651000	0.013128
554.841000	-0.155838
555.032000	-0.022095
555.223000	0.126167
555.413000	0.233406
555.604000	0.206156
555.795000	0.164225
555.985000	0.237859
556.176000	0.121781
556.367000	-0.147238
556.557000	-0.034091
556.748000	0.039376
556.939000	0.029842
557.129000	-0.053008
557.320000	0.100872
557.511000	0.060505
557.701000	0.055690
557.892000	0.093821
558.083000	0.280682
558.273000	0.197887
558.464000	-0.008049
558.655000	-0.012772
558.845000	0.088669
559.036000	0.166609
559.227000	0.119499
559.418000	0.207260
559.608000	0.261574
559.799000	-0.055273
559.990000	-0.106669
560.180000	-0.047993
560.371000	-0.194151
560.562000	-0.144450
560.752000	0.036734
560.943000	-0.081041
561.134000	-0.287581
561.324000	-0.078379
561.515000	0.155998
561.706000	0.024856
561.896000	-0.167065
562.087000	-0.078063
562.278000	-0.120086
562.468000	-0.269877
562.659000	-0.140867
562.850000	0.209102
563.040000	0.251109
563.231000	-0.220476
563.422000	-0.096374
563.612000	-0.196689
563.803000	-0.093978
563.994000	-0.167609
564.185000	-0.287508
564.375000	-0.031005
564.566000	-0.019413
564.757000	-0.033371
564.947000	-0.179158
565.138000	-0.040139
565.329000	-0.113730
565.519000	-0.265539
565.710000	-0.129909
565.901000	0.068226
566.091000	0.187945
566.282000	0.001379
566.473000	-0.028406
566.663000	-0.046679
566.854000	-0.274405
567.045000	-0.125935
567.235000	-0.010000
567.426000	0.010451
567.617000	0.005886
567.807000	-0.043936
567.998000	-0.041586
568.189000	-0.147776
568.379000	-0.048232
568.570000	0.050866
568.761000	-0.045818
568.951000	-0.104047
569.142000	-0.173794
569.333000	-0.180528
569.524000	-0.276040
569.714000	-0.340882
569.905000	-0.418449
570.096000	0.003572
570.286000	0.079370
570.477000	0.179209
570.668000	0.021325
570.858000	-0.011995
571.049000	-0.146973
571.240000	-0.244487
571.430000	-0.014155
571.621000	-0.075811
571.812000	0.012291
572.002000	-0.042655
572.193000	-0.169904
572.384000	-0.084257
572.574000	-0.016250
572.765000	-0.081980
572.956000	-0.151647
573.146000	0.058211
573.337000	-0.068579
573.528000	-0.053198
573.718000	0.092635
573.909000	0.131589
574.100000	0.014280
574.290000	-0.104389
574.481000	-0.084787
574.672000	-0.108583
574.863000	0.016308
575.053000	-0.099378
575.244000	-0.007265
575.435000	-0.139605
575.625000	-0.155991
575.816000	-0.181268
576.007000	-0.117592
576.197000	-0.098644
576.388000	-0.058024
576.579000	0.094417
576.769000	0.052017
576.960000	-0.212136
577.155000	-0.335867
577.350000	-0.063976
577.545000	0.047473
577.740000	-0.151630
577.935000	0.222795
578.130000	0.120478
578.326000	-0.230213
578.521000	0.099212
578.716000	0.094606
578.911000	-0.189417
579.106000	-0.037989
579.301000	0.038285
579.496000	-0.142397
579.691000	-0.378036
579.886000	-0.182800
580.081000	-0.047773
580.276000	0.009368
580.471000	-0.108735
580.666000	-0.269131
580.861000	-0.275132
581.057000	-0.257011
581.252000	-0.120807
581.447000	-0.142858
581.642000	-0.149196
581.837000	-0.179444
582.032000	-0.150596
582.227000	0.093777
582.422000	0.051421
582.617000	-0.164760
582.812000	-0.278015
583.007000	-0.245972
583.202000	-0.295260
583.397000	0.001190
583.592000	0.250566
583.788000	-0.067867
583.983000	-0.054006
584.178000	0.054314
584.373000	-0.167552
584.568000	-0.180907
584.763000	-0.235956
584.958000	-0.292769
585.153000	-0.186962
585.348000	-0.184901
585.543000	-0.036077
585.738000	-0.122293
585.933000	-0.316394
586.128000	-0.047815
586.324000	-0.040081
586.519000	-0.018455
586.714000	0.077809
586.909000	0.072042
587.104000	0.123631
587.299000	-0.053958
587.494000	-0.081417
587.689000	-0.109164
587.884000	-0.079847
588.079000	-0.147055
588.274000	-0.085940
588.469000	-0.091697
588.664000	-0.008707
588.859000	-0.012683
589.055000	-0.030553
589.250000	-0.094085
589.445000	-0.227348
589.640000	-0.177808
589.835000	0.090911
590.030000	0.134732
590.225000	0.132763
590.420000	-0.056692
590.615000	-0.198601
590.810000	-0.152476
591.005000	-0.111018
591.200000	-0.207292
591.395000	-0.229310
591.591000	-0.038820
591.786000	0.039187
591.981000	-0.087028
592.176000	-0.079168
592.371000	-0.032966
592.566000	-0.079141
592.761000	0.087565
592.956000	0.023336
593.151000	0.089769
593.346000	-0.000807
593.541000	0.017340
593.736000	-0.014966
593.931000	-0.201120
594.126000	-0.146707
594.322000	-0.069703
594.517000	-0.158826
594.712000	-0.278474
594.907000	-0.248965
595.102000	-0.135237
595.297000	-0.047628
595.492000	-0.002856
595.687000	-0.160234
595.882000	-0.235974
596.077000	-0.154480
596.272000	0.050390
596.467000	0.101633
596.662000	-0.070556
596.857000	-0.089371
597.053000	-0.035891
597.248000	0.023917
597.443000	0.003303
597.638000	-0.091887
597.833000	-0.257695
598.028000	-0.083583
598.223000	0.036483
598.418000	-0.079742
598.613000	-0.208465
598.808000	-0.069403
599.003000	-0.127724
599.198000	-0.319504
599.393000	-0.227791
599.589000	-0.080174
599.784000	-0.247374
599.979000	-0.111734
600.174000	0.072447
600.369000	-0.185289
600.564000	-0.145653
600.759000	0.112624
600.954000	0.211025
601.149000	0.064385
601.344000	-0.276758
601.539000	-0.093626
601.734000	-0.150364
601.929000	-0.370311
602.124000	-0.332587
602.320000	-0.106680
602.515000	0.100769
602.710000	0.071278
602.905000	-0.232046
603.100000	-0.314262
603.295000	-0.240585
603.490000	-0.139147
603.685000	-0.100867
603.880000	-0.098859
604.075000	-0.235813
604.270000	-0.217048
604.465000	-0.184800
604.660000	-0.390447
604.856000	-0.210481
605.051000	-0.018002
605.246000	-0.073664
605.441000	-0.309442
605.636000	-0.335254
605.831000	-0.202724
606.026000	-0.309971
606.221000	-0.312545
606.416000	-0.123542
606.611000	0.007756
606.806000	0.037884
607.001000	0.195266
607.196000	-0.052637
607.391000	-0.281699
607.587000	-0.104769
607.782000	-0.094070
607.977000	-0.284138
608.172000	0.098913
608.367000	0.148801
608.562000	-0.105195
608.757000	-0.148616
608.952000	-0.205585
609.147000	0.229691
609.342000	0.123301
609.537000	-0.114361
609.732000	-0.040221
609.927000	-0.064139
610.122000	0.010053
610.318000	0.327245
610.513000	0.478428
610.708000	0.329962
610.903000	0.400521
611.098000	0.449735
611.293000	0.386095
611.488000	0.350963
611.683000	0.311927
611.878000	0.239306
612.073000	0.243782
612.268000	0.246254
612.463000	0.310939
612.658000	0.213636
612.854000	0.156463
613.049000	0.098887
613.244000	0.216522
613.439000	0.256553
613.634000	-0.085434
613.829000	0.028041
614.024000	-0.125815
614.219000	-0.103492
614.414000	0.235690
614.609000	-0.000894
614.804000	-0.193175
614.999000	-0.199700
615.194000	-0.097198
615.389000	-0.032288
615.585000	-0.230025
615.780000	-0.111062
615.975000	-0.136063
616.170000	-0.124890
616.365000	0.093876
616.560000	0.220458
616.755000	0.139565
616.950000	0.064826
617.145000	0.114798
617.340000	-0.073577
617.535000	-0.346078
617.730000	-0.069128
617.925000	-0.246896
618.120000	-0.303933
618.316000	0.051603
618.511000	-0.064907
618.706000	-0.253204
618.901000	-0.138457
619.096000	0.026692
619.291000	-0.115872
619.486000	-0.090870
619.681000	-0.402541
619.876000	-0.418518
620.071000	-0.236460
620.266000	0.031481
620.461000	0.087192
620.656000	0.019980
620.852000	-0.019491
621.047000	-0.121883
621.242000	-0.289737
621.437000	0.045759
621.632000	0.228347
621.827000	0.034189
622.022000	-0.324345
622.217000	-0.139582
622.412000	0.097860
622.607000	0.093246
622.802000	-0.196483
622.997000	-0.282277
623.192000	-0.133325
623.387000	-0.071879
623.583000	-0.323146
623.778000	0.120208
623.973000	0.125042
624.168000	-0.008102
624.363000	0.001428
624.558000	0.044328
624.753000	-0.237656
624.948000	0.025391
625.143000	0.025410
625.338000	-0.068193
625.533000	-0.159486
625.728000	-0.094737
625.923000	0.078437
626.119000	-0.027493
626.314000	-0.317193
626.509000	-0.296375
626.704000	-0.185481
626.899000	-0.173492
627.094000	-0.217531
627.289000	-0.218031
627.484000	-0.203877
627.679000	-0.196719
627.874000	-0.209223
628.069000	0.109426
628.264000	0.040691
628.459000	-0.089436
628.654000	-0.170673
628.850000	-0.339086
629.045000	-0.136873
629.240000	-0.124644
629.435000	-0.186714
629.630000	-0.085346
629.825000	-0.120076
630.020000	-0.098133
630.215000	-0.274822
630.410000	-0.195937
630.605000	-0.216107
630.800000	-0.163556
630.995000	0.021556
631.190000	0.290370
631.385000	0.064342
631.581000	-0.131925
631.776000	-0.006046
631.971000	-0.172875
632.166000	-0.099657
632.361000	-0.213679
632.556000	-0.170878
632.751000	-0.003561
632.946000	-0.191840
633.141000	-0.320027
633.336000	-0.259183
633.531000	-0.116402
633.726000	-0.162353
633.921000	-0.357940
634.117000	-0.479684
634.312000	-0.544566
634.507000	-0.480685
634.702000	-0.383377
634.897000	-0.288202
635.092000	-0.154079
635.287000	-0.079014
635.482000	-0.201702
635.677000	-0.110529
635.872000	-0.001043
636.067000	0.074735
636.262000	-0.098112
636.457000	-0.408622
636.652000	-0.432782
636.848000	-0.404883
637.043000	-0.303868
637.238000	-0.302023
637.433000	-0.429071
637.628000	-0.336586
637.823000	-0.069850
638.018000	-0.003711
638.213000	-0.197671
638.408000	-0.309547
638.603000	-0.400538
638.798000	-0.393119
638.993000	-0.254923
639.188000	-0.273722
639.383000	-0.324786
639.579000	0.063071
639.774000	-0.172591
639.969000	-0.408600
640.164000	-0.401472
640.359000	-0.375004
640.554000	-0.141145
640.749000	-0.125328
640.944000	-0.098531
641.139000	-0.079420
641.334000	-0.244643
641.529000	-0.670854
641.724000	-0.511497
641.919000	-0.335732
642.115000	-0.093816
642.310000	-0.058279
642.505000	-0.142652
642.700000	-0.200184
642.895000	-0.293804
643.090000	-0.118688
643.285000	0.080959
643.480000	0.009869
643.675000	-0.053227
643.870000	0.224315
644.065000	0.125597
644.260000	-0.268200
644.455000	-0.263183
644.650000	-0.299788
644.846000	-0.144919
645.041000	-0.366016
645.236000	-0.522093
645.431000	-0.447913
645.626000	-0.677845
645.821000	-0.514007
646.016000	-0.359801
646.211000	0.101959
646.406000	-0.034609
646.601000	-0.107070
646.796000	-0.240856
646.991000	-0.458367
647.186000	-0.339227
647.381000	-0.124147
647.577000	-0.146656
647.772000	-0.051500
647.967000	-0.118907
648.162000	-0.104969
648.357000	-0.124783
648.552000	-0.017980
648.747000	-0.026423
648.942000	-0.023627
649.137000	-0.111160
649.332000	-0.303408
649.527000	-0.314575
649.722000	-0.043472
649.917000	0.041335
650.113000	-0.303700
650.308000	-0.360765
650.503000	-0.261514
650.698000	-0.103318
650.893000	-0.259615
651.088000	-0.106302
651.283000	0.044437
651.478000	-0.274597
651.673000	-0.149111
651.868000	-0.337598
652.063000	-0.041141
652.258000	0.161830
652.453000	0.281168
652.648000	-0.146774
652.844000	-0.175456
653.039000	-0.089880
653.234000	-0.499363
653.429000	-0.600650
653.624000	-0.382365
653.819000	-0.136161
654.014000	-0.164920
654.209000	-0.326673
654.404000	-0.139282
654.599000	-0.298314
654.794000	-0.309321
654.989000	-0.053150
655.184000	-0.122620
655.380000	-0.397038
655.575000	-0.397083
655.770000	-0.380374
655.965000	-0.232798
656.160000	-0.267685
656.355000	-0.105431
656.550000	-0.117376
656.745000	-0.114548
656.940000	-0.257216
657.135000	-0.233882
657.330000	-0.210696
657.525000	-0.414703
657.720000	-0.187877
657.915000	-0.041971
658.111000	-0.144038
658.306000	0.112638
658.501000	-0.129860
658.696000	-0.390010
658.891000	-0.126943
659.086000	-0.191215
659.281000	-0.138814
659.476000	-0.429350
659.671000	-0.807595
659.866000	-0.529245
660.061000	-0.194931
660.256000	-0.062853
660.451000	-0.109943
660.646000	-0.289644
660.842000	-0.145578
661.037000	-0.349048
661.232000	-0.384976
661.427000	-0.219474
661.622000	-0.296718
661.817000	-0.385275
662.012000	-0.146322
662.207000	-0.383543
662.402000	-0.494452
662.597000	-0.316381
662.792000	-0.577518
662.987000	-0.568140
663.182000	-0.298651
663.378000	-0.263166
663.573000	-0.612976
663.768000	-0.555121
663.963000	-0.367901
664.158000	-0.394373
664.353000	0.199190
664.548000	0.324691
664.743000	-0.111945
664.938000	-0.459105
665.133000	-0.513781
665.328000	-0.001201
665.523000	-0.043314
665.718000	-0.293002
665.913000	-0.335620
666.109000	-0.257864
666.304000	-0.043466
666.499000	-0.176169
666.694000	0.007865
666.889000	0.286150
667.084000	-0.110474
667.279000	-0.283300
667.474000	-0.277390
667.669000	-0.177195
667.864000	-0.241198
668.059000	-0.214184
668.254000	-0.220548
668.449000	-0.351934
668.644000	-0.294259
668.840000	-0.053044
669.035000	-0.279028
669.230000	-0.583233
669.425000	-0.249513
669.620000	-0.421137
669.815000	-0.382672
670.010000	-0.370025
670.205000	-0.213464
670.400000	-0.173169
670.595000	-0.167537
670.790000	-0.368212
670.985000	-0.319205
671.180000	-0.069227
671.376000	-0.403363
671.571000	-0.441458
671.766000	-0.374120
671.961000	-0.501710
672.156000	-0.489885
672.351000	-0.340571
672.546000	-0.325690
672.741000	-0.156886
672.936000	-0.132157
673.131000	0.376918
673.326000	0.017551
673.521000	-0.393352
673.716000	-0.478034
673.911000	-0.713796
674.107000	-0.111328
674.302000	0.187563
674.497000	-0.095779
674.692000	-0.448968
674.887000	-0.554898
675.082000	-0.352959
675.277000	-0.026652
675.472000	-0.166475
675.667000	-0.376734
675.862000	-0.415128
676.057000	-0.323022
676.252000	-0.307744
676.447000	-0.337299
676.643000	-0.125984
676.838000	0.123660
677.033000	-0.126401
677.228000	0.117712
677.423000	0.030894
677.618000	-0.385285
677.813000	-0.607581
678.008000	-0.341003
678.203000	-0.218292
678.398000	-0.410123
678.593000	-0.231747
678.788000	-0.164117
678.983000	-0.485894
679.178000	-0.284394
679.374000	-0.363016
679.569000	-0.311547
679.764000	-0.368152
679.959000	-0.506931
680.154000	-0.470910
680.349000	-0.670258
680.544000	-0.567344
680.739000	-0.376673
680.934000	-0.492409
681.129000	-0.487177
681.324000	-0.570508
681.519000	-0.290138
681.714000	-0.323448
681.909000	-0.459042
682.105000	-0.623314
682.300000	-0.161609
682.495000	0.005340
682.690000	-0.054856
682.885000	-0.185456
683.080000	-0.357172
683.275000	-0.367427
683.470000	-0.028246
683.665000	0.153674
683.860000	0.417254
684.055000	0.143893
684.250000	-0.417225
684.445000	-0.409810
684.641000	0.110379
684.836000	-0.187888
685.031000	-0.324716
685.226000	-0.318338
685.421000	0.070409
685.616000	-0.162009
685.811000	-0.292591
686.006000	-0.018499
686.201000	-0.176321
686.396000	-0.576446
686.591000	-0.553450
686.786000	-0.077413
686.981000	-0.167282
687.176000	-0.146901
687.372000	-0.282340
687.567000	-0.008328
687.762000	-0.057066
687.957000	-0.206684
688.152000	-0.325681
688.347000	-0.263390
688.542000	-0.551202
688.737000	-0.943000
688.932000	-0.856944
689.127000	-0.415726
689.322000	-0.114087
689.517000	-0.356975
689.712000	-0.549015
689.908000	-0.429330
690.103000	-0.401816
690.298000	-0.373532
690.493000	-0.349637
690.688000	-0.652466
690.883000	-0.383402
691.078000	0.052137
691.273000	-0.001429
691.468000	-0.255497
691.663000	-0.184629
691.858000	-0.123586
692.053000	-0.199023
692.248000	-0.112919
692.443000	-0.102126
692.639000	-0.203236
692.834000	-0.037569
693.029000	0.457503
693.224000	0.408842
693.419000	-0.226780
693.614000	-0.380138
693.809000	-0.555321
694.004000	-0.680493
694.199000	-0.724113
694.394000	-0.353031
694.589000	-0.584365
694.784000	-0.588628
694.979000	-0.273039
695.174000	-0.306843
695.370000	0.171159
695.565000	-0.060383
695.760000	-0.396339
695.955000	-0.060668
696.150000	0.054026
696.345000	-0.447256
696.540000	-0.191273
696.740000	-0.276668
696.940000	-0.087083
697.140000	0.047132
697.340000	-0.222581
697.539000	-0.087730
697.739000	-0.177780
697.939000	-0.177903
698.139000	-0.565074
698.339000	-0.853808
698.539000	-0.627174
698.739000	-0.670431
698.939000	-0.479779
699.138000	-0.606038
699.338000	0.074265
699.538000	0.249508
699.738000	-0.283808
699.938000	-0.444395
700.138000	-0.525458
700.338000	-0.549987
700.538000	-0.305283
700.737000	-0.251372
700.937000	-0.752647
701.137000	-0.776832
701.337000	-0.055556
701.537000	-0.044078
701.737000	-0.306616
701.937000	-0.369236
702.137000	-0.303455
702.337000	-0.424154
702.536000	-0.584305
702.736000	-0.623905
702.936000	-0.768956
703.136000	-0.212537
703.336000	-0.118744
703.536000	-0.275749
703.736000	-0.747800
703.936000	-0.667863
704.135000	-0.597015
704.335000	-0.229418
704.535000	-0.423061
704.735000	-0.703458
704.935000	-0.190444
705.135000	-0.262542
705.335000	-0.430040
705.535000	-0.219925
705.735000	-0.223856
705.934000	-0.172170
706.134000	-0.430173
706.334000	-0.419260
706.534000	-0.623022
706.734000	-0.671357
706.934000	-0.603550
707.134000	-0.583769
707.334000	-0.321277
707.533000	-0.345890
707.733000	-0.393645
707.933000	-0.502159
708.133000	-0.229578
708.333000	-0.073976
708.533000	-0.352035
708.733000	-0.094237
708.933000	-0.235399
709.132000	-0.332784
709.332000	-0.410211
709.532000	-0.480042
709.732000	-0.337644
709.932000	-0.898481
710.132000	-0.772193
710.332000	-0.909668
710.532000	-0.346513
710.732000	-0.188786
710.931000	-0.416939
711.131000	-0.418569
711.331000	-0.435254
711.531000	-0.476969
711.731000	-0.354930
711.931000	-0.347290
712.131000	-0.412631
712.331000	-0.198981
712.530000	-0.338350
712.730000	-0.536857
712.930000	-0.372052
713.130000	-0.381616
713.330000	-0.535089
713.530000	-0.395945
713.730000	0.309759
713.930000	-0.063925
714.129000	-0.470226
714.329000	-0.613173
714.529000	-0.359144
714.729000	-0.034989
714.929000	-0.214104
715.129000	-0.531558
715.329000	-0.398412
715.529000	-0.404237
715.729000	0.262009
715.928000	-0.043638
716.128000	-0.446728
716.328000	-0.309089
716.528000	-0.385327
716.728000	-0.284216
716.928000	-0.533062
717.128000	-0.301786
717.328000	-0.289058
717.527000	-0.458654
717.727000	-0.425219
717.927000	-0.333112
718.127000	-0.380067
718.327000	-0.862023
718.527000	-0.806252
718.727000	-0.346830
718.927000	-0.420023
719.127000	-0.747426
719.326000	-0.582198
719.526000	-0.091510
719.726000	-0.288818
719.926000	-0.853346
720.126000	-0.763145
720.326000	-0.444743
720.526000	-0.483544
720.726000	-0.381445
720.925000	-0.247838
721.125000	-0.630125
721.325000	-0.339353
721.525000	-0.357531
721.725000	-0.591901
721.925000	-0.510886
722.125000	-0.580560
722.325000	-0.140990
722.524000	-0.433859
722.724000	-0.928231
722.924000	-0.950023
723.124000	-0.745562
723.324000	-0.255784
723.524000	-0.163955
723.724000	-0.743293
723.924000	-0.565414
724.124000	-0.323331
724.323000	-0.085569
724.523000	-0.235330
724.723000	0.157224
724.923000	-0.028273
725.123000	-0.196353
725.323000	-0.068226
725.523000	-0.268098
725.723000	-0.560465
725.922000	-0.516706
726.122000	-0.352858
726.322000	-0.509771
726.522000	-0.612859
726.722000	0.176428
726.922000	-0.144252
727.122000	-0.359204
727.322000	-0.024156
727.521000	-0.208076
727.721000	-0.504789
727.921000	-0.414989
728.121000	-0.446315
728.321000	-0.766521
728.521000	-0.511420
728.721000	-0.444527
728.921000	-0.101157
729.121000	0.663130
729.320000	0.043473
729.520000	-0.513568
729.720000	-0.695867
729.920000	-0.553328
730.120000	-0.370071
730.320000	-0.348190
730.520000	-0.685724
730.720000	-0.568968
730.919000	-0.555143
731.119000	-0.308774
731.319000	-0.708495
731.519000	-0.781807
731.719000	-0.424259
731.919000	-0.530148
732.119000	-1.064816
732.319000	-1.197408
732.519000	-0.519123
732.718000	-0.760283
732.918000	-0.659108
733.118000	-0.386985
733.318000	-0.039089
733.518000	-0.462591
733.718000	-1.083056
733.918000	-0.929808
734.118000	-0.607847
734.317000	-0.324819
734.517000	-0.628173
734.717000	-0.570146
734.917000	-0.081902
735.117000	-0.223352
735.317000	-0.369332
735.517000	0.229571
735.717000	0.604525
735.916000	-0.414133
736.116000	-0.631549
736.316000	-0.425853
736.516000	-0.368577
736.716000	-0.359235
736.916000	-0.906055
737.116000	-0.646076
737.316000	0.026915
737.516000	-0.083796
737.715000	-0.156132
737.915000	-0.715450
738.115000	-0.717722
738.315000	-0.447214
738.515000	-0.761665
738.715000	-0.517898
738.915000	0.032168
739.115000	-0.460865
739.314000	-0.523859
739.514000	0.046994
739.714000	0.086372
739.914000	-0.169312
740.114000	-0.391528
740.314000	-0.085865
740.514000	0.175946
740.714000	-0.636742
740.913000	-1.044905
741.113000	-0.758046
741.313000	-0.350174
741.513000	-0.485837
741.713000	-0.332097
741.913000	-0.228140
742.113000	-0.353229
742.313000	-0.972447
742.513000	-0.691514
742.712000	-0.451394
742.912000	-0.724240
743.112000	-0.625337
743.312000	-1.073063
743.512000	-0.663402
743.712000	-0.446069
743.912000	-1.055118
744.112000	-1.106946
744.311000	-1.186874
744.511000	-0.706013
744.711000	-0.290527
744.911000	-0.667518
745.111000	-0.694172
745.311000	-0.203891
745.511000	-0.592827
745.711000	-0.863106
745.911000	-0.516251
746.110000	-0.999739
746.310000	-1.183351
746.510000	-0.794847
746.710000	-0.232632
746.910000	-0.117468
747.110000	-0.726955
747.310000	-1.128118
747.510000	-0.889453
747.709000	-0.573010
747.909000	-0.505584
748.109000	-0.188241
748.309000	-0.550956
748.509000	-0.834669
748.709000	-0.800266
748.909000	-0.628663
749.109000	-0.706703
749.308000	-0.002153
749.508000	-0.320966
749.708000	-0.580528
749.908000	-0.213016
750.108000	-0.159423
750.308000	-0.910904
750.508000	-0.160389
750.708000	-0.766195
750.908000	-1.134275
751.107000	-0.210658
751.307000	0.293695
751.507000	-0.288336
751.707000	-0.260492
751.907000	-0.415387
752.107000	-0.333876
752.307000	-0.800893
752.507000	-0.636164
752.706000	-0.741317
752.906000	0.292924
753.106000	-0.432528
753.306000	-1.044841
753.506000	-0.170867
753.706000	-0.582335
753.906000	-0.266992
754.106000	-0.143261
754.305000	-0.278988
754.505000	-0.217433
754.705000	-0.423577
754.905000	-0.475520
755.105000	-0.133617
755.305000	-1.037261
755.505000	-0.770724
755.705000	-0.145840
755.905000	-0.411192
756.104000	-1.143570
756.304000	-1.464512
756.504000	-1.652855
756.704000	-0.508794
756.904000	-0.386324
757.104000	-0.606556
757.304000	-0.485011
757.504000	-0.160319
757.703000	-0.552235
757.903000	-0.107898
758.103000	0.109295
758.303000	-0.296986
758.503000	-0.545912
758.703000	-0.730766
758.903000	-0.825885
759.103000	-0.447948
759.303000	-0.354587
759.502000	-0.505414
759.702000	-0.134087
759.902000	-0.616100
760.102000	-0.750257
760.302000	-0.752784
760.502000	-0.279943
760.702000	-0.123255
760.902000	-0.577621
761.101000	-0.895033
761.301000	-1.085169
761.501000	-0.769111
761.701000	-0.959663
761.901000	-0.560164
762.101000	-0.198995
762.301000	-0.401681
762.501000	-0.887621
762.700000	-1.095492
762.900000	-0.984689
763.100000	-0.608556
763.300000	-0.263295
763.500000	-0.543272
763.703000	-0.646774
763.905000	-1.022355
764.108000	-0.302056
764.311000	-0.508072
764.513000	-0.658666
764.716000	-0.517020
764.919000	-0.404620
765.121000	-0.901319
765.324000	-1.143590
765.527000	-1.041947
765.729000	-0.927837
765.932000	0.060941
766.135000	-0.085039
766.337000	-0.542243
766.540000	-0.645949
766.743000	-0.297780
766.945000	-0.854421
767.148000	-1.434106
767.351000	-1.202837
767.553000	-0.202297
767.756000	-0.583029
767.958000	-1.060178
768.161000	-0.712562
768.364000	-0.993746
768.566000	-1.249122
768.769000	-0.738686
768.972000	-0.425955
769.174000	-0.753898
769.377000	-1.417770
769.580000	-1.447054
769.782000	-0.796368
769.985000	-1.048983
770.188000	-1.895825
770.390000	-1.089824
770.593000	0.493915
770.796000	0.143116
770.998000	-0.552912
771.201000	-0.872051
771.404000	-0.474523
771.606000	-0.763318
771.809000	-0.576304
772.012000	-0.530633
772.214000	-1.494165
772.417000	-1.567905
772.620000	-0.436109
772.822000	-0.755329
773.025000	-1.084807
773.228000	-1.100300
773.430000	-0.946999
773.633000	-0.644694
773.836000	-0.462864
774.038000	-0.165739
774.241000	-0.430535
774.444000	-0.704322
774.646000	0.221880
774.849000	-0.234659
775.052000	-0.473331
775.254000	-0.364929
775.457000	-0.822049
775.659000	-0.598166
775.862000	-0.831060
776.065000	-0.777573
776.267000	-0.085172
776.470000	0.135228
776.673000	-0.499860
776.875000	0.170340
777.078000	-0.196341
777.281000	-1.127000
777.483000	-0.441375
777.686000	-0.323630
777.889000	-0.414748
778.091000	-0.205986
778.294000	-1.213168
778.497000	-0.962535
778.699000	-0.844118
778.902000	-0.818862
779.105000	-0.643033
779.307000	0.166272
779.510000	-0.814859
779.713000	-0.562838
779.915000	-0.742498
780.118000	0.395818
780.321000	0.396303
780.523000	-0.567259
780.726000	-1.024922
780.929000	-1.067421
781.131000	-1.061917
781.334000	-1.633266
781.537000	-1.472180
781.739000	-0.406589
781.942000	-1.150047
782.145000	-1.692655
782.347000	-1.541331
782.550000	-1.164728
782.753000	-1.255979
782.955000	-1.084072
783.158000	-0.959320
783.361000	-0.646980
783.563000	-0.822766
783.766000	-0.993695
783.968000	0.915839
784.171000	0.661603
784.374000	-0.608493
784.576000	-0.623077
784.779000	-0.231443
784.982000	0.019275
785.184000	-0.703610
785.387000	-0.159748
785.590000	0.534199
785.792000	0.206701
785.995000	-0.130511
786.198000	-0.243417
786.400000	-0.531138
786.603000	-0.487104
786.806000	-0.530842
787.008000	-0.372457
787.211000	-0.260299
787.414000	-1.081204
787.616000	-0.887134
787.819000	-0.820470
788.022000	-1.532999
788.224000	-0.984664
788.427000	-1.468625
788.630000	-0.957879
788.832000	-0.618408
789.035000	-1.093547
789.238000	-1.692464
789.440000	-1.275589
789.643000	0.074333
789.846000	-0.608779
790.048000	-0.547983
790.251000	-0.260043
790.454000	-0.554788
790.656000	0.230845
790.859000	-0.534674
791.062000	-0.927147
791.264000	-0.190910
791.467000	-1.221021
791.669000	-1.726406
791.872000	-0.770246
792.075000	-1.369676
792.277000	-1.069690
792.480000	-0.726005
792.683000	-1.151781
792.885000	-1.509706
793.088000	-1.356078
793.291000	-1.415317
793.493000	-1.521801
793.696000	-0.634865
793.899000	-0.323920
794.101000	-0.622020
794.304000	-0.744244
794.507000	-0.495286
794.709000	-0.383415
794.912000	-0.969704
795.115000	-1.207545
795.317000	-0.816740
795.520000	-0.526176
795.723000	-0.930262
795.925000	-1.309528
796.128000	-1.512968
796.331000	-1.081657
796.533000	-1.447290
796.736000	-0.898942
796.939000	-0.568587
797.141000	-0.753448
797.344000	-0.186873
797.547000	-0.203647
797.749000	-0.362744
797.952000	-0.902223
798.155000	-1.227160
798.357000	-1.495964
798.560000	-1.385685
798.763000	-0.638758
798.965000	-0.883597
799.168000	-0.792803
799.371000	-0.751238
799.573000	-1.145964
799.776000	-1.583184
799.978000	-1.383026
800.181000	-0.621579
800.384000	0.942408
800.586000	0.108597
800.789000	-1.485244
800.992000	-1.312053
801.194000	-1.582427
801.397000	-1.577867
801.600000	-1.244738
801.802000	-0.020864
802.005000	-0.361041
802.208000	-1.743897
802.410000	-0.947223
802.613000	-0.723208
802.816000	-0.697690
803.018000	-1.377950
803.221000	-1.407003
803.424000	0.084914
803.626000	-0.304748
803.829000	-0.901162
804.032000	-0.012475
804.234000	0.807059
804.437000	-0.585091
804.640000	-0.790193
804.842000	-0.585937
805.045000	-1.327168
805.248000	-1.122175
805.450000	-1.076021
805.653000	-0.828909
805.856000	-1.054482
806.058000	-0.012722
806.261000	-1.078431
806.464000	-1.079510
806.666000	-0.295874
806.869000	-0.702150
807.072000	-2.108061
807.274000	-2.366918
807.477000	-1.174703
807.679000	-0.926518
807.882000	-1.576110
808.085000	-1.251510
808.287000	-0.572312
808.490000	-1.591353
808.693000	-1.321455
808.895000	-0.742868
809.098000	-0.761948
809.301000	-0.783281
809.503000	-0.909302
809.706000	-0.136571
809.909000	0.185857
810.111000	0.195614
810.314000	-0.346436
810.517000	-1.009368
810.719000	-1.282176
810.922000	-0.923550
811.125000	-0.022944
811.327000	0.063455
811.530000	-0.505795
811.735000	-0.977295
811.940000	-1.423822
812.146000	-1.284309
812.351000	-0.605341
812.556000	-0.724070
812.761000	-1.370726
812.967000	-0.229440
813.172000	-0.219404
813.377000	-0.652390
813.582000	0.084855
813.788000	-0.172868
813.993000	-1.361639
814.198000	-0.827306
814.403000	-1.719127
814.609000	-0.951769
814.814000	-0.715542
815.019000	0.596196
815.224000	0.405924
815.429000	-1.090998
815.635000	-0.690578
815.840000	-0.741863
816.045000	-0.674171
816.250000	-0.115933
816.456000	-1.644174
816.661000	-2.613681
816.866000	-1.768164
817.071000	-1.767050
817.277000	-2.418026
817.482000	-1.523178
817.687000	-0.830296
817.892000	-1.011550
818.097000	-0.389623
818.303000	-0.025002
818.508000	0.297362
818.713000	7.570228
818.918000	4.057197
819.124000	0.152824
819.329000	-1.065901
819.534000	-0.932017
819.739000	-0.942638
819.945000	-1.211929
820.150000	-1.037699
820.355000	-0.868921
820.560000	-0.568495
820.766000	-0.484565
820.971000	-0.551769
821.176000	-2.048873
821.381000	-2.557994
821.586000	-1.666618
821.792000	-0.134316
821.997000	-0.698226
822.202000	-0.796586
822.407000	-1.386824
822.613000	-1.749715
822.818000	-1.065257
823.023000	-0.573794
823.228000	-0.974255
823.434000	-0.499956
823.639000	-0.081665
823.844000	-1.110921
824.049000	-0.137307
824.255000	0.084428
824.460000	-0.897330
824.665000	-1.233869
824.870000	-0.004486
825.075000	-0.554683
825.281000	-0.623928
825.486000	0.607236
825.691000	-1.672423
825.896000	-2.994426
826.102000	-1.119342
826.307000	-0.928214
826.512000	-1.309396
826.717000	-1.187143
826.923000	-1.351727
827.128000	-0.870048
827.333000	-1.491197
827.538000	-0.564207
827.744000	0.030382
827.949000	-1.310961
828.154000	-1.070349
828.359000	-0.332414
828.564000	-0.886965
828.770000	-1.138687
828.975000	-0.040252
829.180000	-0.575907
829.385000	-2.074379
829.591000	-1.641160
829.796000	-0.917112
830.001000	-0.906837
830.206000	-1.488819
830.412000	-1.559616
830.617000	-1.490892
830.822000	-0.247698
831.027000	-1.058854
831.232000	-1.820966
831.438000	-1.686533
831.643000	-0.876333
831.848000	-1.001518
832.053000	-0.807731
832.259000	-1.080781
832.464000	-2.894308
832.669000	-2.170487
832.874000	-2.129683
833.080000	-2.288861
833.285000	-0.330011
833.490000	-0.405301
833.695000	-1.893788
833.901000	-1.573774
834.106000	-1.639526
834.311000	-1.316987
834.516000	-0.783240
834.721000	-1.377761
834.927000	-0.494643
835.132000	-0.882810
835.337000	0.938414
835.542000	-0.109222
835.748000	-1.847989
835.953000	-0.122410
836.158000	-0.305470
836.363000	-0.595043
836.569000	-0.441156
836.774000	-1.566608
836.979000	-1.992435
837.184000	-2.302705
837.390000	-2.107348
837.595000	-1.325957
837.800000	-0.914524
838.005000	-0.920125
838.210000	-1.418469
838.416000	-1.559066
838.621000	-1.373610
838.826000	-1.535228
839.031000	-1.352603
839.237000	-1.732865
839.442000	-2.902796
839.647000	-2.912172
839.852000	-1.740518
840.058000	-1.691528
840.263000	-1.658175
840.468000	-2.452230
840.673000	-1.576592
840.878000	-1.508499
841.084000	-1.825468
841.289000	-1.170453
841.494000	1.661929
841.699000	1.780859
841.905000	0.619823
842.110000	0.222970
842.315000	-1.882088
842.520000	-1.164750
842.726000	-1.669545
842.931000	-2.155464
843.136000	-1.030673
843.341000	-2.434474
843.547000	-1.500653
843.752000	-1.226307
843.957000	-2.217812
844.162000	-2.154747
844.367000	-1.289176
844.573000	-0.628105
844.778000	-0.493474
844.983000	-0.287332
845.188000	-0.452561
845.394000	-2.244188
845.599000	-1.968959
845.804000	-1.509572
846.009000	-0.747892
846.215000	-2.044178
846.420000	-1.790433
846.625000	-0.847641
846.830000	-0.067080
847.036000	-1.323581
847.241000	-1.883025
847.446000	-0.006153
847.651000	-0.732191
847.856000	-2.281934
848.062000	-2.288703
848.267000	-0.537941
848.472000	-1.340103
848.677000	-2.744340
848.883000	-0.932746
849.088000	0.675714
849.293000	-1.041453
849.498000	-1.485439
849.704000	-0.452941
849.909000	-1.669352
850.114000	-2.596851
850.319000	-1.352614
850.524000	-0.796049
850.730000	-0.606096
850.935000	-1.145469
851.140000	-0.267546
851.345000	-0.642672
851.551000	-0.415558
851.756000	-0.006579
851.961000	-1.540383
852.166000	-1.871200
852.372000	-1.379742
852.577000	-1.356495
852.782000	-1.484319
852.987000	0.077018
853.193000	-0.645254
853.398000	-0.779915
853.603000	-2.146189
853.808000	-2.821511
854.013000	-1.753883
854.219000	-0.669522
854.424000	1.596710
854.629000	1.189918
854.834000	-1.538633
855.040000	-0.942258
855.245000	-0.507533
855.450000	-3.070246
855.655000	-4.105129
855.861000	-3.330719
856.066000	-2.357805
856.271000	-3.029316
856.476000	-0.694699
856.682000	-1.476166
856.887000	-4.304347
857.092000	-2.877937
857.297000	-0.220628
857.502000	-0.666753
857.708000	-1.346822
857.913000	-0.221878
858.118000	-1.000430
858.323000	-1.347485
858.529000	-1.092235
858.734000	-1.312797
858.939000	-1.316667
859.144000	-2.415975
859.350000	-3.219321
859.555000	-3.247695
859.760000	-1.277447
859.965000	-0.099369
860.171000	-1.726146
860.376000	-0.749758
860.581000	-2.928905
860.786000	-5.127492
860.991000	-4.211468
861.197000	-2.970988
861.402000	-1.305415
861.607000	-1.927376
861.812000	-3.239980
862.018000	-3.423188
862.223000	-2.003789
862.428000	-1.002063
862.633000	-0.141577
862.839000	-0.951049
863.044000	-2.007299
863.249000	-2.853705
863.454000	-0.976727
863.659000	-2.204307
863.865000	-2.781780
864.070000	-2.299422
864.275000	-2.774125
864.480000	-2.372934
864.686000	-4.260949
864.891000	-3.927931
865.096000	-1.459847
865.301000	-0.765163
865.507000	-0.709534
865.712000	-0.629319
865.917000	-1.319174
866.122000	-0.351927
866.328000	-3.689747
866.533000	-3.565214
866.738000	-0.048845
866.943000	-0.069343
867.148000	0.237912
867.354000	-2.364722
867.559000	-3.523297
867.764000	-2.106856
867.969000	-0.593079
868.175000	-2.235270
868.380000	-2.974105
868.585000	-4.086356
868.790000	-1.477341
868.996000	-1.634971
869.201000	-2.931172
869.406000	-4.071143
869.611000	-3.033183
869.817000	-2.625553
870.022000	1.870902
870.227000	-0.522398
870.432000	-2.698002
870.637000	-1.042525
870.843000	-2.023504
871.048000	-2.501340
871.253000	-0.355682
871.458000	-1.011428
871.664000	-3.211516
871.869000	-3.605616
872.074000	-3.018896
872.279000	-1.734365
872.485000	-2.213098
872.690000	-2.334499
872.895000	-2.433961
873.100000	-3.605801
873.306000	-3.982342
873.511000	-2.009591
873.716000	0.173149
873.921000	-2.167802
874.126000	-3.149910
874.332000	-2.353532
874.537000	-0.817648
874.742000	-1.068261
874.947000	-1.465841
875.153000	0.224039
875.358000	-0.968434
875.563000	-2.229540
875.768000	-4.867371
875.974000	-4.910937
876.179000	-1.756652
876.384000	-1.266950
876.589000	-2.714867
876.794000	-2.789861
877.000000	-3.487804
877.205000	-4.513545
877.410000	-1.598593
877.615000	-3.037960
877.821000	-5.174448
878.026000	-3.721418
878.231000	-4.496705
878.436000	-4.795792
878.642000	-3.556883
878.847000	-1.652459
879.052000	-0.083240
879.257000	-2.504083
879.463000	-3.645083
879.668000	-2.681458
879.873000	-0.531472
880.078000	-3.395813
880.283000	-5.233520
880.489000	-5.283391
880.694000	-4.754126
880.899000	-2.893214
881.104000	-1.229022
881.310000	0.675437
881.515000	-0.441320
881.720000	0.727133
881.925000	1.881775
882.131000	3.518321
882.336000	0.195821
882.541000	-3.594046
882.746000	-2.959358
882.952000	-3.763973
883.157000	-3.407419
883.362000	-3.831385
883.567000	-4.425587
883.772000	-4.174911
883.978000	-3.143905
884.183000	-1.474393
884.388000	-1.789563
884.593000	-4.313686
884.799000	0.389542
885.004000	-0.146112
885.209000	-1.634992
885.414000	-1.710319
885.620000	-4.765928
885.825000	-1.269830
886.030000	-1.540482
886.235000	-3.006451
886.440000	-2.560414
886.646000	-5.432543
886.851000	-4.956910
887.056000	-0.067276
887.261000	-0.993111
887.467000	-4.349162
887.672000	-1.684590
887.877000	-3.032905
888.082000	-5.854181
888.288000	-6.089646
888.493000	-8.501720
888.698000	-6.100964
888.903000	-2.123750
889.109000	-3.505304
889.314000	-0.849378
889.519000	-3.551523
889.724000	-1.049119
889.929000	-1.627458
890.135000	-1.776502
890.340000	-1.731461
890.545000	-3.653641
890.750000	-5.326121
890.956000	-3.849683
891.161000	-1.708498
891.366000	-3.473595
891.571000	-2.452516
891.777000	-2.366501
891.982000	-0.485077
892.187000	-1.170363
892.392000	0.077048
892.598000	0.286110
892.803000	-0.944092
893.008000	-3.165881
893.213000	-3.816584
893.418000	-4.386519
893.624000	-4.711727
893.829000	-6.715752
894.034000	-3.994268
894.239000	-1.875605
894.445000	-4.065574
894.650000	-4.514889
894.855000	-4.551187
895.060000	-4.910998
895.266000	-4.942378
895.471000	-5.808564
895.676000	-2.209020
895.881000	-2.103216
896.087000	-3.757805
896.292000	-4.284875
896.497000	-0.138901
896.702000	-1.710432
896.907000	-4.011862
897.113000	0.493063
897.318000	0.492814
897.523000	-0.139365
897.728000	-2.429202
897.934000	-3.245400
898.139000	-3.159007
898.344000	-0.333626
898.549000	-1.626011
898.755000	-3.599089
898.960000	-4.173938
899.165000	-6.192173
899.370000	-2.364531
899.575000	1.820489
899.781000	-2.869830
899.986000	-4.413331
900.191000	-2.756123
900.396000	-3.487202
900.602000	-2.975592
900.807000	-3.868123
901.012000	-2.948664
901.217000	-1.332560
901.423000	-4.226655
901.628000	-5.221533
901.833000	-0.319475
902.038000	-0.287707
902.244000	-4.249109
902.449000	-3.690045
902.654000	-3.694217
902.859000	-2.126822
903.064000	-0.327165
903.270000	-0.502992
903.475000	-5.012803
903.680000	-7.626772
903.885000	-5.962794
904.091000	-5.392006
904.296000	-7.153982
904.501000	-6.041179
904.706000	-4.522208
904.912000	-0.448424
905.117000	-2.847075
905.322000	-5.139979
905.527000	-4.460226
905.733000	-4.244374
905.938000	-4.381013
906.143000	-5.584776
906.348000	-7.856176
906.553000	-1.923860
906.759000	0.321690
906.964000	-2.195342
907.169000	-3.568623
907.374000	-5.899213
907.580000	-4.679281
907.785000	-4.142747
907.990000	27.290502
908.195000	17.441219
908.401000	-1.341213
908.606000	-8.248310
908.811000	-9.454198
909.016000	-2.284151
909.221000	-2.016731
909.427000	-3.527672
909.632000	-5.827580
909.837000	-5.547525
910.042000	-6.568580
910.248000	-8.621141
910.453000	-4.887457
910.658000	-4.883812
910.863000	-5.614206
911.069000	-6.987969
911.274000	-2.288594
911.479000	-0.764788
911.684000	-7.408556
911.890000	-4.534260
912.095000	-4.162926
912.300000	-6.892080
912.506000	-5.714069
912.711000	-5.913455
912.917000	-3.438340
913.123000	-2.371321
913.328000	-3.462675
913.534000	-2.625175
913.740000	6.416394
913.946000	2.753586
914.151000	-4.789093
914.357000	-5.964076
914.563000	-2.394996
914.768000	-6.096626
914.974000	-7.551219
915.180000	-6.447465
915.385000	-5.609586
915.591000	-9.007337
915.797000	-4.527623
916.002000	-0.620647
916.208000	-4.537078
916.414000	-7.243956
916.620000	-8.240455
916.825000	-3.627036
917.031000	-4.614627
917.237000	-9.670509
917.442000	-6.491240
917.648000	-8.124970
917.854000	-8.790647
918.059000	-1.611923
918.265000	-0.212083
918.471000	-3.313626
918.676000	-7.951475
918.882000	-9.975369
919.088000	-8.018605
919.294000	-12.210153
919.499000	-8.386758
919.705000	-2.286929
919.911000	-4.855734
920.116000	-2.309719
920.322000	-8.297189
920.528000	-6.492463
920.733000	-8.770511
920.939000	-9.015865
921.145000	-8.734559
921.350000	-6.944074
921.556000	-4.976492
921.762000	-5.973805
921.968000	-6.737044
922.173000	-7.855316
922.379000	-10.416530
922.585000	-6.346210
922.790000	-7.832124
922.996000	-8.883894
923.202000	-9.381218
923.407000	-9.047544
923.613000	-6.982825
923.819000	-4.925309
924.024000	-4.726895
924.230000	-2.333272
924.436000	-5.580833
924.642000	5.259783
924.847000	0.440929
925.053000	-7.789328
925.259000	-11.746332
925.464000	-5.689527
925.670000	-6.443686
925.876000	-9.290605
926.081000	-8.687660
926.287000	-3.651459
926.493000	-2.626524
926.698000	-5.176942
926.904000	-2.313530
927.110000	-5.782144
927.316000	-6.719511
927.521000	0.098377
927.727000	-5.454635
927.933000	-6.794590
928.138000	-5.754089
928.344000	-11.679980
928.550000	-6.849969
928.755000	-1.832152
928.961000	-7.429961
929.167000	-6.114940
929.372000	1.599835
929.578000	-2.389030
929.784000	-8.224470
929.990000	-11.848845
930.195000	-9.682630
930.401000	-6.198996
930.607000	-3.658423
930.812000	-3.558364
931.018000	-8.209993
931.224000	-14.262823
931.429000	-9.398687
931.635000	-13.672727
931.841000	-14.016322
932.046000	-7.043697
932.252000	-2.356005
932.458000	3.886245
932.664000	-1.828237
932.869000	-7.306183
933.075000	-12.071285
933.281000	-10.403680
933.486000	-2.564422
933.692000	-7.218738
933.898000	-9.768253
934.103000	-3.050936
934.309000	-8.203955
934.515000	-2.931129
934.720000	-1.997500
934.926000	0.126882
935.132000	-1.380953
935.338000	-4.524690
935.543000	-12.727195
935.749000	-13.914381
935.955000	-13.070714
936.160000	-11.970048
936.366000	-2.721962
936.572000	-5.859608
936.777000	-3.007254
936.983000	-0.035050
937.189000	-6.128892
937.394000	-10.776538
937.600000	-4.352209
937.806000	2.047032
938.012000	-4.545139
938.217000	3.485225
938.423000	-1.250935
938.629000	-8.907200
938.834000	-17.716281
939.040000	-16.658687
939.246000	-10.195224
939.451000	-11.973222
939.657000	-6.408351
939.863000	-12.660047
940.068000	-5.859653
940.274000	-10.546758
940.480000	-8.025536
940.686000	-5.357752
940.891000	-7.069804
941.097000	21.184654
941.303000	5.758370
941.508000	-8.422880
941.714000	-5.162275
941.920000	-17.872512
942.125000	-7.211422
942.331000	-3.535210
942.537000	2.027936
942.742000	1.607994
942.948000	-10.398394
943.154000	-13.466225
943.360000	-26.327865
943.565000	-12.852614
943.771000	2.676638
943.977000	1.982497
944.182000	-17.924360
944.388000	-17.550420
944.594000	-3.479199
944.799000	4.809305
945.005000	-3.228302
945.211000	0.524445
945.416000	-0.972458
945.622000	-15.366703
945.828000	-15.767129
946.034000	-5.174714
946.239000	-2.206135
946.445000	-10.671599
946.651000	-21.078414
946.856000	-16.891615
947.062000	-3.002594
947.268000	-2.309399
947.473000	-17.498440
947.679000	-19.529022
947.885000	-3.184525
948.090000	-0.776748
948.296000	11.305246
948.502000	-4.062858
948.708000	-15.019036
948.913000	-17.556504
949.119000	-4.766072
949.325000	-10.854660
949.530000	-24.780751
949.736000	-28.287043
949.942000	-16.333364
950.147000	-17.446332
950.353000	-15.080498
950.559000	-11.761568
950.764000	8.411964
950.970000	3.708459
951.176000	-11.710738
951.382000	-18.339074
951.587000	-6.436809
951.793000	0.865663
951.999000	-0.439608
952.204000	-15.458342
952.410000	-28.001493
952.616000	-15.714882
952.821000	-10.260291
953.027000	-16.750493
953.233000	-20.082347
953.438000	-19.430693
953.644000	0.212268
953.850000	-4.168538
954.056000	-10.920681
954.261000	-13.823433
954.467000	-5.060623
954.673000	1.701349
954.878000	-8.725663
955.084000	-6.837217
955.290000	-23.481920
955.495000	-24.506783
955.701000	-18.991791
955.907000	-2.275255
956.112000	-2.414238
956.318000	8.195923
956.524000	4.117352
956.730000	-11.359524
956.935000	-13.661329
957.141000	-18.494834
957.347000	-9.769200
957.552000	-11.756439
957.758000	-25.470745
957.964000	-35.825175
958.169000	1.826028
958.375000	1.686313
958.581000	-13.644048
958.786000	-25.380358
958.992000	-29.721543
959.198000	-11.260486
959.404000	-3.333414
959.609000	-12.138116
959.815000	-18.687127
960.021000	3.273190
960.226000	-4.188861
960.432000	-30.430696
960.638000	-19.056127
960.843000	-13.078793
961.049000	-12.401593
961.255000	-3.825454
961.460000	-15.696222
961.666000	-37.624951
961.872000	-22.904226
962.078000	-18.435406
962.283000	-28.322900
962.489000	-29.517968
962.695000	-18.551922
962.900000	-14.185848
963.106000	-11.878352
963.312000	-15.689037
963.517000	-17.303609
963.723000	-23.943212
963.929000	-3.269447
964.134000	6.660655
964.340000	-17.246092
964.546000	-21.671417
964.752000	-25.254773
964.957000	-31.736176
965.163000	-6.383670
965.369000	-9.132625
965.574000	-7.431846
965.780000	-11.929623
966.000000	-20.390384
966.220000	-12.010761
966.440000	-12.619842
966.661000	-2.268479
966.881000	-21.359879
967.101000	-40.352196
967.321000	-40.696139
967.541000	-14.575867
967.761000	-21.891228
967.981000	-18.681263
968.202000	-12.581299
968.422000	-1.429289
968.642000	-3.157868
968.862000	-2.634135
969.082000	-16.316861
969.302000	-9.691741
969.522000	-14.750877
969.743000	-1.643857
969.963000	-17.881092
970.183000	-27.419721
970.403000	-28.015602
970.623000	-28.403711
970.843000	-3.388759
971.063000	-2.811597
971.284000	-27.949026
971.504000	-41.005517
971.724000	-16.811874
971.944000	-29.474163
972.164000	-41.156024
972.384000	-31.592323
972.604000	-42.988515
972.825000	-47.066336
973.045000	-35.018767
973.265000	22.624866
973.485000	11.249683
973.705000	-10.810981
973.925000	-22.087975
974.145000	-57.827398
974.365000	-19.776738
974.586000	-15.837785
974.806000	-31.334348
975.026000	-1.772109
975.246000	-21.060535
975.466000	-32.778528
975.686000	-13.680890
975.906000	-30.156392
976.127000	-54.841760
976.347000	-42.881232
976.567000	-4.830364
976.787000	-11.588694
977.007000	-30.591430
977.227000	-32.857464
977.447000	-30.032080
977.668000	-48.320857
977.888000	-34.878328
978.108000	-40.257795
978.328000	-24.309696
978.548000	5.456228
978.768000	4.748526
978.988000	-5.468111
979.209000	-22.278173
979.429000	-27.485900
979.649000	-12.248576
979.869000	-37.691439
980.089000	-55.669637
980.309000	-56.702868
980.529000	-59.293562
980.750000	-34.304544
980.970000	-49.928571
981.190000	-37.074069
981.410000	-33.059232
981.630000	-45.871836
981.850000	-28.214620
982.070000	-17.907910
982.291000	-50.758758
982.511000	-49.790727
982.731000	-11.754525
982.951000	-37.136987
983.171000	-43.085472
983.391000	-32.139116
983.611000	0.851838
983.832000	-33.609412
984.052000	-61.900270
984.272000	-34.251235
984.492000	-23.583059
984.712000	-41.822550
984.932000	-65.344203
985.152000	-69.808850
985.373000	-57.540270
985.593000	-29.871528
985.813000	-38.694385
986.033000	-47.176546
986.253000	-4.254674
986.473000	-1.206632
986.693000	-39.976516
986.914000	-39.927723
987.134000	4.436143
987.354000	-33.225600
987.574000	195.373056
987.794000	111.251650
988.014000	-54.702489
988.234000	-29.613527
988.455000	-10.493402
988.675000	-7.224380
988.895000	-15.210551
989.115000	-48.020092
989.335000	-37.389701
989.555000	-11.568261
989.775000	-50.736606
989.995000	-43.777360
990.216000	-32.896339
990.436000	-23.958062
990.656000	11.709020
990.876000	-27.216504
991.096000	-22.092171
991.316000	16.098346
991.536000	-13.988930
991.757000	-32.317115
991.977000	-79.765694
992.197000	-20.485543
992.417000	-35.722569
992.637000	-86.683897
992.857000	-95.368210
993.077000	-82.145332
993.298000	-40.317652
993.518000	-42.092900
993.738000	-96.364127
993.958000	-42.321681
994.178000	-43.563726
994.398000	-38.283566
994.618000	-92.546372
994.839000	-144.730019
995.059000	-37.575806
995.279000	17.557377
995.499000	-36.051453
995.719000	-31.951580
995.939000	-43.176506
996.159000	-30.025401
996.380000	-33.141731
996.600000	-92.815858
996.820000	-37.246712
997.040000	19.186610
997.260000	-57.593510
997.480000	-43.863669
997.700000	-108.665320
997.921000	-65.367829
998.141000	20.586947
998.361000	-8.910501
998.581000	-49.980214
998.801000	-93.217207
999.021000	-75.422260
999.241000	-53.485006
999.462000	-69.745255
999.682000	-113.106728
999.902000	-78.206230
1000.122000	-96.679114
1000.342000	-145.819533
1000.562000	-71.447057
1000.782000	-74.377300
1001.003000	-1049.672280
