Wavelength	Irradiance
(nm)	(mW/cm2/nm)

294.396000	0.000000
294.577000	0.000000
294.757000	0.000000
294.938000	0.000000
295.118000	0.000000
295.299000	0.000000
295.479000	-0.000000
295.660000	-0.000000
295.840000	-0.000000
296.021000	-0.000000
296.202000	-0.000000
296.382000	-0.000000
296.563000	-0.000000
296.743000	-0.000000
296.924000	0.000000
297.104000	-0.000000
297.285000	-0.000000
297.465000	-0.000000
297.646000	-0.000000
297.826000	-0.000000
298.007000	0.000000
298.187000	0.000000
298.368000	-0.000000
298.548000	0.000000
298.729000	0.000000
298.909000	-0.000000
299.090000	-0.000000
299.270000	-0.000000
299.451000	-0.000000
299.631000	-0.000000
299.812000	-0.000000
299.992000	0.000000
300.173000	0.000000
300.353000	-0.000000
300.534000	0.000000
300.714000	0.000000
300.895000	0.000000
301.075000	0.000000
301.256000	0.000000
301.436000	-0.000000
301.617000	-0.000000
301.797000	-0.000000
301.978000	0.000000
302.159000	0.000000
302.339000	0.000000
302.520000	0.000000
302.700000	-0.000000
302.881000	0.000000
303.061000	0.000000
303.242000	0.000000
303.422000	0.000000
303.603000	-0.000000
303.783000	-0.000000
303.964000	0.000000
304.144000	0.000000
304.325000	-0.000000
304.505000	0.000000
304.686000	0.000000
304.866000	0.000000
305.047000	-0.000000
305.227000	-0.000000
305.408000	-0.000000
305.588000	-0.000000
305.769000	-0.000000
305.949000	-0.000000
306.130000	-0.000000
306.310000	-0.000000
306.491000	-0.000000
306.671000	0.000000
306.852000	-0.000000
307.032000	-0.000000
307.213000	-0.000000
307.393000	-0.000000
307.574000	0.000000
307.755000	0.000000
307.935000	0.000000
308.116000	-0.000000
308.296000	-0.000000
308.477000	-0.000000
308.657000	0.000000
308.838000	0.000000
309.018000	0.000000
309.199000	-0.000000
309.379000	-0.000000
309.560000	0.000000
309.740000	-0.000000
309.921000	-0.000000
310.101000	-0.000000
310.282000	-0.000000
310.462000	-0.000000
310.643000	-0.000000
310.823000	-0.000000
311.004000	-0.000000
311.184000	-0.000000
311.365000	0.000000
311.545000	0.000000
311.726000	0.000000
311.906000	0.000000
312.087000	0.000000
312.267000	-0.000000
312.448000	-0.000000
312.628000	-0.000000
312.809000	-0.000000
312.989000	-0.000000
313.170000	-0.000000
313.344000	-0.000000
313.518000	-0.000000
313.691000	-0.000000
313.865000	-0.000000
314.039000	-0.000000
314.213000	-0.000000
314.387000	-0.000000
314.560000	-0.000000
314.734000	-0.000000
314.908000	-0.000000
315.082000	-0.000000
315.255000	0.000000
315.429000	0.000000
315.603000	0.000000
315.777000	-0.000000
315.951000	0.000000
316.124000	-0.000000
316.298000	-0.000000
316.472000	-0.000000
316.646000	-0.000000
316.820000	-0.000000
316.993000	-0.000000
317.167000	-0.000000
317.341000	-0.000000
317.515000	-0.000000
317.688000	-0.000000
317.862000	-0.000000
318.036000	-0.000000
318.210000	-0.000000
318.384000	-0.000000
318.557000	-0.000000
318.731000	-0.000000
318.905000	0.000000
319.079000	0.000000
319.253000	-0.000000
319.426000	0.000000
319.600000	0.000000
319.774000	-0.000000
319.948000	-0.000000
320.122000	0.000000
320.295000	0.000000
320.469000	-0.000000
320.643000	-0.000000
320.817000	-0.000000
320.990000	-0.000000
321.164000	-0.000000
321.338000	-0.000000
321.512000	-0.000000
321.686000	-0.000000
321.859000	-0.000000
322.033000	0.000000
322.207000	-0.000000
322.381000	-0.000000
322.555000	0.000000
322.728000	0.000000
322.902000	-0.000000
323.076000	-0.000000
323.250000	-0.000000
323.423000	-0.000000
323.597000	-0.000000
323.771000	-0.000000
323.945000	-0.000000
324.119000	-0.000000
324.292000	0.000000
324.466000	0.000000
324.640000	0.000000
324.814000	0.000000
324.988000	0.000000
325.161000	0.000000
325.335000	-0.000000
325.509000	-0.000000
325.683000	0.000000
325.856000	-0.000000
326.030000	-0.000000
326.204000	-0.000000
326.378000	0.000000
326.552000	-0.000000
326.725000	-0.000000
326.899000	-0.000000
327.073000	-0.000000
327.247000	-0.000000
327.421000	0.000000
327.594000	-0.000000
327.768000	-0.000000
327.942000	-0.000000
328.116000	0.000000
328.289000	0.000000
328.463000	0.000000
328.637000	0.000000
328.811000	-0.000000
328.985000	-0.000000
329.158000	-0.000000
329.332000	-0.000000
329.506000	0.000000
329.680000	-0.000000
329.854000	-0.000000
330.027000	-0.000000
330.201000	0.000000
330.375000	0.000000
330.549000	0.000000
330.723000	-0.000000
330.896000	-0.000000
331.070000	-0.000000
331.244000	-0.000000
331.418000	-0.000000
331.591000	-0.000000
331.765000	-0.000000
331.939000	-0.000000
332.113000	-0.000000
332.287000	-0.000000
332.460000	0.000000
332.634000	0.000000
332.808000	-0.000000
332.982000	-0.000000
333.156000	-0.000000
333.329000	0.000000
333.503000	-0.000000
333.677000	-0.000000
333.851000	-0.000000
334.024000	-0.000000
334.198000	-0.000000
334.372000	-0.000000
334.546000	-0.000000
334.720000	-0.000000
334.893000	-0.000000
335.067000	0.000000
335.241000	0.000000
335.415000	0.000000
335.589000	-0.000000
335.762000	-0.000000
335.936000	-0.000000
336.110000	-0.000000
336.284000	-0.000000
336.458000	-0.000000
336.631000	-0.000000
336.805000	-0.000000
336.979000	-0.000000
337.153000	-0.000000
337.326000	-0.000000
337.500000	-0.000000
337.674000	-0.000000
337.848000	-0.000000
338.022000	-0.000000
338.195000	-0.000000
338.369000	-0.000000
338.543000	-0.000000
338.717000	-0.000000
338.891000	0.000000
339.064000	0.000000
339.238000	-0.000000
339.412000	-0.000000
339.586000	-0.000000
339.759000	-0.000000
339.933000	-0.000000
340.107000	0.000000
340.281000	-0.000000
340.455000	-0.000000
340.628000	-0.000000
340.802000	-0.000000
340.976000	0.000000
341.150000	-0.000000
341.324000	-0.000000
341.497000	-0.000000
341.671000	-0.000000
341.845000	-0.000000
342.019000	-0.000000
342.192000	-0.000000
342.366000	-0.000000
342.540000	-0.000000
342.714000	-0.000000
342.888000	-0.000000
343.061000	0.000000
343.235000	0.000000
343.409000	-0.000000
343.583000	-0.000000
343.757000	0.000000
343.930000	-0.000000
344.104000	-0.000000
344.278000	0.000000
344.452000	0.000000
344.626000	-0.000000
344.799000	-0.000000
344.973000	-0.000000
345.147000	-0.000000
345.321000	-0.000000
345.494000	-0.000000
345.668000	0.000000
345.842000	0.000000
346.016000	-0.000000
346.190000	0.000000
346.363000	0.000000
346.537000	0.000000
346.711000	0.000000
346.885000	-0.000000
347.059000	-0.000000
347.232000	-0.000000
347.406000	0.000000
347.580000	-0.000000
347.754000	-0.000000
347.927000	0.000000
348.101000	0.000000
348.275000	-0.000000
348.449000	-0.000000
348.623000	-0.000000
348.796000	0.000000
348.970000	0.000000
349.144000	-0.000000
349.318000	-0.000000
349.492000	-0.000000
349.665000	-0.000000
349.839000	-0.000000
350.013000	-0.000000
350.187000	-0.000000
350.361000	-0.000000
350.534000	-0.000000
350.708000	-0.000000
350.882000	-0.000000
351.056000	0.000000
351.229000	-0.000000
351.403000	-0.000000
351.577000	-0.000000
351.751000	-0.000000
351.925000	-0.000000
352.098000	-0.000000
352.272000	-0.000000
352.446000	-0.000000
352.620000	-0.000000
352.794000	-0.000000
352.967000	-0.000000
353.141000	0.000000
353.315000	0.000000
353.489000	-0.000000
353.662000	-0.000000
353.836000	-0.000000
354.010000	-0.000000
354.184000	-0.000000
354.358000	-0.000000
354.531000	-0.000000
354.705000	-0.000000
354.879000	-0.000000
355.053000	-0.000000
355.227000	0.000000
355.400000	-0.000000
355.574000	0.000000
355.748000	0.000000
355.922000	-0.000000
356.095000	-0.000000
356.269000	-0.000000
356.443000	-0.000000
356.617000	-0.000000
356.791000	-0.000000
356.964000	-0.000000
357.138000	0.000000
357.312000	-0.000000
357.486000	-0.000000
357.660000	-0.000000
357.833000	-0.000000
358.007000	-0.000000
358.181000	-0.000000
358.355000	-0.000000
358.529000	-0.000000
358.702000	-0.000000
358.876000	-0.000000
359.050000	-0.000000
359.224000	-0.000000
359.397000	0.000000
359.571000	0.000000
359.745000	-0.000000
359.919000	0.000000
360.093000	0.067885
360.266000	0.072730
360.440000	0.058491
360.614000	0.072829
360.788000	0.155483
360.962000	-0.198676
361.135000	-0.072331
361.309000	-0.166312
361.483000	-0.271851
361.657000	-0.154413
361.830000	-0.264156
362.004000	-0.103006
362.178000	-0.459973
362.352000	-0.289866
362.526000	0.008484
362.699000	-0.048055
362.873000	-0.265650
363.047000	-0.357016
363.221000	-0.483491
363.395000	-0.248688
363.568000	-0.199725
363.742000	-0.215232
363.916000	-0.020696
364.090000	-0.132632
364.263000	-0.342594
364.437000	-0.275543
364.611000	0.054067
364.785000	-0.051915
364.959000	-0.147673
365.132000	-0.264744
365.306000	-0.339843
365.480000	-0.111309
365.656000	-0.058557
365.831000	-0.037406
366.007000	-0.188618
366.183000	-0.270793
366.358000	-0.385680
366.534000	-0.223579
366.710000	-0.338731
366.886000	-0.249228
367.061000	-0.060839
367.237000	0.133184
367.413000	-0.145808
367.588000	-0.418477
367.764000	-0.367899
367.940000	-0.373732
368.115000	-0.171282
368.291000	-0.195140
368.467000	-0.115264
368.643000	0.080158
368.818000	-0.363759
368.994000	-0.442846
369.170000	-0.230711
369.345000	-0.163468
369.521000	-0.291363
369.697000	-0.186253
369.872000	-0.200036
370.048000	-0.354891
370.224000	-0.167404
370.399000	-0.375319
370.575000	-0.229005
370.751000	-0.326160
370.927000	-0.523518
371.102000	-0.376521
371.278000	-0.325561
371.454000	-0.408833
371.629000	-0.104006
371.805000	0.034094
371.981000	0.100210
372.156000	0.099508
372.332000	0.089420
372.508000	0.082861
372.683000	-0.111440
372.859000	-0.006506
373.035000	0.083846
373.211000	0.290339
373.386000	-0.047727
373.562000	-0.465670
373.738000	-0.514700
373.913000	-0.626431
374.089000	-0.480918
374.265000	-0.039419
374.440000	0.109363
374.616000	0.117393
374.792000	-0.159244
374.968000	0.066045
375.143000	-0.136212
375.319000	-0.376292
375.495000	-0.403598
375.670000	-0.305390
375.846000	-0.218367
376.022000	-0.327683
376.197000	-0.153511
376.373000	-0.391845
376.549000	-0.470521
376.724000	-0.627982
376.900000	-0.525558
377.076000	-0.254849
377.252000	0.095845
377.427000	0.143886
377.603000	-0.222485
377.779000	-0.166525
377.954000	-0.313795
378.130000	-0.155738
378.306000	-0.149308
378.481000	-0.148695
378.657000	-0.321056
378.833000	-0.422642
379.009000	-0.078069
379.184000	0.088818
379.360000	-0.029871
379.536000	0.001585
379.711000	-0.191771
379.887000	-0.371553
380.063000	-0.273351
380.238000	-0.473029
380.414000	-0.037752
380.590000	-0.228710
380.765000	-0.410088
380.941000	-0.170658
381.117000	0.040448
381.293000	-0.091571
381.468000	-0.428198
381.644000	-0.239878
381.820000	-0.084187
381.995000	0.103903
382.171000	0.270475
382.347000	0.127965
382.522000	-0.249780
382.698000	0.032824
382.874000	0.103006
383.050000	-0.344060
383.225000	0.040782
383.401000	0.253361
383.577000	-0.069733
383.752000	-0.076160
383.928000	-0.107004
384.104000	-0.189168
384.279000	-0.197274
384.455000	-0.052563
384.631000	-0.044899
384.806000	-0.322160
384.982000	-0.130204
385.158000	-0.240768
385.334000	-0.060041
385.509000	-0.160777
385.685000	-0.414550
385.861000	-0.179028
386.036000	-0.254001
386.212000	-0.613623
386.388000	-0.367039
386.563000	-0.305030
386.739000	-0.416687
386.915000	-0.652197
387.090000	-0.364797
387.266000	-0.006214
387.442000	0.195562
387.618000	0.124725
387.793000	-0.371179
387.969000	-0.425318
388.145000	-0.238362
388.320000	-0.242163
388.496000	-0.341864
388.672000	-0.657369
388.847000	-0.151708
389.023000	-0.129550
389.199000	-0.432538
389.375000	-0.258268
389.550000	-0.445887
389.726000	-0.332982
389.902000	-0.474622
390.077000	-0.163866
390.253000	-0.082584
390.429000	-0.183059
390.604000	-0.067217
390.780000	-0.021281
390.956000	-0.239823
391.131000	-0.322163
391.307000	0.114494
391.483000	-0.036142
391.659000	-0.232671
391.834000	0.001504
392.010000	-0.156242
392.186000	-0.314315
392.361000	-0.201957
392.537000	-0.326890
392.713000	0.008890
392.888000	0.149873
393.064000	-0.095309
393.240000	-0.295604
393.416000	-0.330695
393.591000	-0.407432
393.767000	-0.460935
393.943000	-0.285758
394.118000	0.038085
394.294000	0.221038
394.470000	-0.005840
394.645000	0.045118
394.821000	0.279599
394.997000	-0.056735
395.172000	-0.186673
395.348000	-0.252287
395.524000	-0.468093
395.700000	-0.319678
395.875000	-0.264308
396.051000	-0.307000
396.227000	-0.157535
396.402000	-0.281872
396.578000	-0.157967
396.754000	-0.171523
396.929000	-0.285552
397.105000	-0.048715
397.281000	-0.120316
397.457000	-0.284204
397.632000	-0.281210
397.808000	-0.524760
397.984000	-0.526290
398.159000	-0.520071
398.335000	-0.255185
398.511000	0.229100
398.686000	-0.176265
398.862000	-0.323323
399.038000	-0.287284
399.213000	-0.082696
399.389000	-0.471563
399.565000	-0.097145
399.741000	0.106881
399.916000	0.086614
400.092000	0.284007
400.268000	-0.096693
400.443000	-0.289283
400.619000	0.206649
400.795000	-0.005682
400.970000	-0.306997
401.146000	-0.258943
401.322000	0.150182
401.497000	0.518171
401.673000	0.086807
401.849000	-0.253885
402.025000	-0.097452
402.200000	-0.238037
402.376000	-0.364642
402.552000	0.192264
402.727000	0.001407
402.903000	-0.363669
403.079000	-0.230432
403.254000	0.064689
403.430000	-0.089401
403.606000	-0.026585
403.782000	-0.026552
403.957000	-0.433038
404.133000	-0.574661
404.309000	-0.279518
404.484000	-0.033590
404.660000	-0.033684
404.841000	-0.237337
405.023000	0.008380
405.204000	-0.103660
405.385000	-0.329292
405.566000	-0.397856
405.748000	-0.288764
405.929000	0.108116
406.110000	0.057652
406.292000	-0.179581
406.473000	-0.200957
406.654000	-0.336184
406.835000	-0.110744
407.017000	-0.326787
407.198000	-0.185047
407.379000	-0.163880
407.560000	-0.274908
407.742000	-0.082138
407.923000	-0.145589
408.104000	-0.402647
408.286000	-0.116795
408.467000	-0.116506
408.648000	-0.429901
408.829000	-0.483844
409.011000	-0.297054
409.192000	-0.479369
409.373000	-0.269978
409.555000	-0.158674
409.736000	-0.074658
409.917000	-0.234519
410.098000	-0.267429
410.280000	-0.169697
410.461000	-0.176226
410.642000	-0.149179
410.823000	0.192904
411.005000	-0.053424
411.186000	-0.313907
411.367000	-0.252440
411.549000	-0.307096
411.730000	-0.176805
411.911000	0.015051
412.092000	-0.114592
412.274000	-0.350662
412.455000	-0.290336
412.636000	-0.100488
412.818000	-0.357074
412.999000	-0.394961
413.180000	-0.329771
413.361000	-0.371695
413.543000	-0.389949
413.724000	-0.469701
413.905000	-0.288021
414.087000	-0.335828
414.268000	-0.392174
414.449000	-0.359496
414.630000	-0.414558
414.812000	-0.587774
414.993000	-0.237604
415.174000	-0.011952
415.355000	-0.265909
415.537000	-0.597312
415.718000	-0.225054
415.899000	-0.323962
416.081000	-0.401965
416.262000	-0.183416
416.443000	-0.386971
416.624000	-0.418906
416.806000	-0.268405
416.987000	0.001322
417.168000	-0.123526
417.350000	-0.281152
417.531000	-0.370875
417.712000	-0.233737
417.893000	0.014358
418.075000	0.111836
418.256000	-0.226930
418.437000	-0.142730
418.618000	-0.076979
418.800000	-0.018238
418.981000	-0.251465
419.162000	-0.172574
419.344000	0.156855
419.525000	-0.011730
419.706000	-0.181363
419.887000	-0.037762
420.069000	0.111867
420.250000	0.072824
420.431000	0.072648
420.613000	-0.083419
420.794000	-0.436167
420.975000	0.052988
421.156000	-0.160566
421.338000	-0.289818
421.519000	-0.192742
421.700000	-0.225748
421.882000	-0.180307
422.063000	-0.024586
422.244000	0.451896
422.425000	0.227457
422.607000	-0.253343
422.788000	-0.382152
422.969000	-0.431143
423.150000	-0.392873
423.332000	-0.436842
423.513000	-0.192617
423.694000	-0.258605
423.876000	-0.160652
424.057000	-0.063493
424.238000	-0.122261
424.419000	-0.135661
424.601000	-0.357371
424.782000	-0.168081
424.963000	0.078821
425.145000	-0.102358
425.326000	-0.076116
425.507000	-0.043799
425.688000	-0.108760
425.870000	-0.284682
426.051000	-0.437657
426.232000	-0.411802
426.413000	-0.264896
426.595000	-0.315178
426.776000	-0.366677
426.957000	-0.225623
427.139000	-0.063269
427.320000	-0.147848
427.501000	0.046871
427.682000	-0.050529
427.864000	-0.069923
428.045000	0.085711
428.226000	-0.070378
428.408000	-0.402335
428.589000	-0.277455
428.770000	-0.179807
428.951000	-0.289270
429.133000	-0.500850
429.314000	-0.345860
429.495000	-0.357526
429.677000	-0.300923
429.858000	-0.159636
430.039000	-0.056712
430.220000	-0.024493
430.402000	-0.017991
430.583000	-0.275654
430.764000	-0.280971
430.945000	-0.107980
431.127000	0.020421
431.308000	-0.170239
431.489000	-0.024272
431.671000	0.001283
431.852000	-0.030579
432.033000	-0.208981
432.214000	-0.119547
432.396000	-0.062153
432.577000	-0.240261
432.758000	-0.393849
432.940000	-0.291570
433.121000	-0.164073
433.302000	-0.125499
433.483000	-0.049341
433.665000	0.140508
433.846000	0.108841
434.027000	-0.137085
434.208000	-0.356708
434.390000	-0.345418
434.571000	0.032791
434.752000	0.464446
434.934000	0.063496
435.115000	-0.098602
435.296000	0.138498
435.477000	-0.073400
435.659000	-0.386528
435.840000	-0.196324
436.026000	-0.263453
436.211000	-0.312354
436.397000	-0.537811
436.582000	-0.464327
436.768000	-0.261963
436.953000	-0.255496
437.139000	-0.181751
437.325000	0.049792
437.510000	-0.156641
437.696000	0.061764
437.881000	0.091895
438.067000	-0.245253
438.252000	-0.191296
438.438000	-0.125036
438.624000	-0.209204
438.809000	-0.106570
438.995000	-0.028704
439.180000	-0.153810
439.366000	-0.260848
439.551000	-0.260499
439.737000	-0.165005
439.923000	-0.070130
440.108000	-0.153132
440.294000	-0.105326
440.479000	0.024764
440.665000	0.130046
440.850000	0.047768
441.036000	0.059554
441.222000	0.036353
441.407000	-0.139072
441.593000	-0.155928
441.778000	-0.068497
441.964000	0.076951
442.149000	-0.225327
442.335000	-0.195304
442.521000	-0.050792
442.706000	0.116119
442.892000	-0.182407
443.077000	-0.257836
443.263000	-0.050436
443.448000	-0.187142
443.634000	-0.244370
443.820000	0.177005
444.005000	0.159882
444.191000	-0.180667
444.376000	-0.242018
444.562000	0.085424
444.747000	0.051974
444.933000	0.001127
445.119000	-0.173088
445.304000	-0.273734
445.490000	0.001122
445.675000	-0.060576
445.861000	-0.195711
446.046000	-0.111109
446.232000	-0.032502
446.418000	0.045901
446.603000	-0.054851
446.789000	-0.093928
446.974000	-0.071781
447.160000	-0.306205
447.345000	-0.310157
447.531000	-0.332099
447.717000	-0.099457
447.902000	-0.038153
448.088000	-0.021196
448.273000	-0.115425
448.459000	-0.104033
448.644000	-0.220358
448.830000	-0.304541
449.016000	-0.359814
449.201000	-0.276133
449.387000	-0.187837
449.572000	-0.043217
449.758000	-0.153930
449.943000	-0.215144
450.129000	-0.280560
450.315000	-0.235933
450.500000	-0.258207
450.686000	-0.231044
450.871000	-0.314256
451.057000	-0.054127
451.243000	-0.103716
451.428000	-0.203293
451.614000	-0.208322
451.799000	-0.147611
451.985000	0.039639
452.170000	0.039602
452.356000	-0.273715
452.542000	-0.230020
452.727000	-0.053758
452.913000	-0.224180
453.098000	-0.031866
453.284000	0.215285
453.469000	0.028592
453.655000	0.187721
453.841000	0.023017
454.026000	-0.113491
454.212000	-0.085963
454.397000	0.006538
454.583000	-0.246199
454.768000	-0.337772
454.954000	-0.085836
455.140000	0.039049
455.325000	-0.155837
455.511000	-0.254465
455.696000	-0.249052
455.882000	-0.167109
456.067000	0.028227
456.253000	-0.058629
456.439000	-0.237737
456.624000	-0.209905
456.810000	-0.225513
456.995000	-0.269036
457.181000	-0.332983
457.366000	-0.100780
457.552000	0.011745
457.738000	0.049061
457.923000	-0.025642
458.109000	0.135029
458.294000	0.043894
458.480000	0.038589
458.665000	0.081222
458.851000	-0.126953
459.037000	-0.247979
459.222000	-0.168511
459.408000	-0.232105
459.593000	-0.136060
459.779000	0.127213
459.964000	0.332811
460.150000	0.417807
460.336000	0.217123
460.521000	-0.108858
460.707000	-0.150375
460.892000	-0.243886
461.078000	0.021938
461.263000	0.157042
461.449000	-0.061580
461.635000	-0.103218
461.820000	-0.097809
462.006000	-0.035227
462.191000	0.016517
462.377000	-0.173943
462.562000	0.124936
462.748000	0.232760
462.934000	-0.143327
463.119000	-0.291491
463.305000	-0.024528
463.490000	-0.105773
463.676000	0.006118
463.861000	0.026626
464.047000	-0.095960
464.233000	0.006085
464.418000	-0.019248
464.604000	-0.185993
464.789000	-0.004046
464.975000	-0.024201
465.160000	-0.120197
465.346000	-0.099939
465.532000	-0.150633
465.717000	-0.165528
465.903000	-0.014108
466.088000	-0.129834
466.274000	-0.244326
466.459000	-0.254633
466.645000	0.106411
466.831000	0.140659
467.016000	0.195205
467.202000	0.136056
467.387000	0.065841
467.573000	-0.153010
467.758000	0.144449
467.944000	0.030657
468.130000	-0.197812
468.315000	-0.023870
468.501000	0.174420
468.686000	0.070192
468.872000	-0.033624
469.057000	-0.018785
469.243000	-0.028712
469.429000	-0.058371
469.614000	-0.206276
469.800000	-0.329658
469.985000	-0.097409
470.171000	-0.023526
470.356000	-0.072808
470.542000	0.055309
470.728000	0.055119
470.913000	0.040154
471.099000	0.167357
471.284000	0.010842
471.470000	-0.018755
471.655000	0.045413
471.841000	0.000984
472.027000	-0.082224
472.212000	0.049964
472.398000	0.118931
472.583000	0.060021
472.769000	0.030559
472.954000	0.010827
473.140000	-0.150927
473.326000	-0.263970
473.511000	0.054841
473.697000	0.143148
473.882000	0.015752
474.068000	-0.077924
474.253000	-0.161073
474.439000	-0.062958
474.625000	0.045168
474.810000	-0.033409
474.996000	0.005896
475.181000	-0.111604
475.367000	0.035280
475.552000	0.242453
475.738000	-0.008820
475.924000	-0.018662
476.109000	0.094257
476.295000	0.055012
476.480000	0.045235
476.666000	0.025529
476.851000	0.000981
477.037000	0.050311
477.223000	0.005896
477.408000	-0.141536
477.594000	-0.259238
477.779000	-0.141693
477.965000	-0.058075
478.151000	-0.161395
478.336000	0.079787
478.522000	-0.067804
478.707000	-0.229922
478.893000	-0.072861
479.078000	-0.230967
479.264000	-0.196471
479.450000	-0.038520
479.635000	0.119348
479.821000	-0.013833
480.006000	0.045417
480.192000	0.104558
480.377000	0.065244
480.563000	0.089869
480.749000	-0.003953
480.934000	0.050345
481.120000	0.119008
481.305000	0.182685
481.491000	0.198222
481.676000	0.183842
481.862000	0.204081
482.048000	0.069959
482.233000	0.050193
482.419000	0.010850
482.604000	-0.058257
482.790000	-0.028635
482.975000	0.065231
483.161000	0.247332
483.347000	0.246935
483.532000	0.256825
483.718000	-0.043439
483.903000	-0.058330
484.089000	0.099612
484.274000	0.005908
484.460000	0.134188
484.646000	0.188472
484.831000	0.099735
485.017000	0.168328
485.202000	0.118883
485.388000	0.270993
485.573000	0.314556
485.759000	0.212200
485.945000	0.398939
486.130000	0.050075
486.316000	0.123763
486.501000	0.250789
486.687000	0.040109
486.872000	0.069520
487.058000	0.299819
487.244000	0.334319
487.429000	0.118285
487.615000	0.367631
487.800000	0.494655
487.986000	0.312609
488.171000	0.342615
488.357000	0.307408
488.543000	0.306289
488.728000	0.417890
488.914000	0.413311
489.099000	0.296706
489.285000	0.315873
489.470000	0.411735
489.656000	0.455568
489.842000	0.511632
490.027000	0.567718
490.213000	0.366602
490.398000	0.131186
490.584000	0.375845
490.769000	0.428712
490.955000	0.480750
491.141000	0.417454
491.326000	0.392141
491.512000	0.582693
491.697000	0.491088
491.883000	0.386556
492.068000	0.391365
492.254000	0.492224
492.440000	0.544366
492.625000	0.576016
492.811000	0.546394
492.996000	0.597745
493.182000	0.624169
493.367000	0.446022
493.553000	0.441409
493.739000	0.544785
493.924000	0.635363
494.110000	0.708862
494.295000	0.636131
494.481000	0.684024
494.666000	0.774080
494.852000	0.937579
495.038000	0.827623
495.223000	0.687737
495.409000	0.676736
495.594000	0.677856
495.780000	0.746420
495.965000	0.681468
496.151000	0.971281
496.337000	1.068724
496.522000	0.849990
496.708000	0.923308
496.893000	1.077756
497.079000	0.967626
497.264000	0.877217
497.450000	1.003456
497.636000	1.209723
497.821000	1.080892
498.007000	1.267129
498.192000	1.337254
498.378000	1.050389
498.563000	1.050725
498.749000	1.121855
498.935000	1.162132
499.120000	1.396569
499.306000	1.258805
499.491000	1.153185
499.677000	1.310752
499.862000	1.488231
500.048000	1.560907
500.234000	1.519693
500.419000	1.410451
500.605000	1.621920
500.790000	1.652784
500.976000	1.501208
501.161000	1.440062
501.347000	1.566155
501.533000	1.749494
501.718000	1.683047
501.904000	1.597984
502.089000	1.802055
502.275000	1.975145
502.460000	1.796743
502.646000	1.831504
502.832000	1.996019
503.017000	1.967278
503.203000	1.702800
503.388000	1.767983
503.574000	2.063339
503.759000	2.175248
503.945000	2.193041
504.131000	2.122622
504.316000	2.130712
504.502000	2.131523
504.687000	2.113687
504.873000	2.020707
505.058000	2.105189
505.244000	2.104680
505.430000	2.169945
505.615000	2.441807
505.801000	2.545545
505.986000	2.321454
506.172000	2.398220
506.358000	2.427289
506.543000	2.421256
506.729000	2.625705
506.914000	2.612551
507.100000	2.844608
507.285000	2.606882
507.471000	2.499477
507.657000	2.812642
507.842000	2.832483
508.028000	2.649295
508.213000	2.608330
508.399000	2.804449
508.584000	3.002910
508.770000	2.797518
508.956000	2.876001
509.141000	2.959187
509.327000	2.984386
509.512000	2.944050
509.698000	3.048518
509.883000	3.004494
510.069000	3.026957
510.255000	3.172005
510.440000	3.171126
510.626000	3.193453
510.811000	3.174051
510.997000	3.198738
511.182000	3.415533
511.368000	3.385640
511.554000	3.080186
511.739000	3.164604
511.925000	3.281881
512.110000	3.264396
512.296000	3.426525
512.481000	3.470412
512.667000	3.478975
512.853000	3.296740
513.038000	3.354366
513.224000	3.408196
513.409000	3.398206
513.595000	3.514689
513.780000	3.266875
513.966000	3.258991
514.152000	3.336404
514.337000	3.265526
514.523000	3.236929
514.708000	3.408952
514.894000	3.476361
515.079000	3.303902
515.265000	3.368404
515.451000	3.447137
515.636000	3.372157
515.822000	3.395705
516.007000	3.231795
516.193000	3.412228
516.378000	3.534235
516.564000	3.301939
516.750000	3.307917
516.935000	3.430520
517.121000	3.526589
517.306000	3.432993
517.492000	3.486637
517.677000	3.308364
517.863000	3.216956
518.049000	3.368145
518.234000	3.215532
518.420000	3.369795
518.605000	3.552764
518.791000	3.458974
518.976000	3.244167
519.162000	3.121736
519.348000	3.180646
519.533000	3.083927
519.719000	3.426707
519.904000	3.260559
520.090000	3.200624
520.275000	3.421068
520.461000	3.345212
520.647000	3.023827
520.832000	2.822473
521.018000	2.931797
521.203000	2.980337
521.389000	2.765171
521.574000	2.879465
521.760000	2.975465
521.946000	2.916367
522.131000	2.806848
522.317000	2.787927
522.502000	2.742977
522.688000	2.778236
522.873000	2.702969
523.059000	2.622058
523.245000	2.590403
523.430000	2.432866
523.616000	2.412695
523.801000	2.313438
523.987000	2.430001
524.172000	2.547025
524.358000	2.582335
524.544000	2.548826
524.729000	2.673500
524.915000	2.635987
525.100000	2.410575
525.286000	2.531378
525.471000	2.474843
525.657000	2.394033
525.843000	2.058088
526.028000	2.211843
526.214000	2.211013
526.399000	2.168149
526.585000	2.065134
526.770000	1.995930
526.956000	2.129306
527.142000	2.143734
527.327000	2.235179
527.513000	2.020189
527.698000	1.967949
527.884000	2.124294
528.069000	1.961218
528.255000	2.043298
528.441000	1.901463
528.626000	1.907302
528.812000	2.150099
528.997000	1.984569
529.183000	1.783946
529.368000	1.817317
529.554000	1.917712
529.740000	1.807084
529.925000	1.746920
530.111000	1.784214
530.296000	1.898149
530.482000	1.978885
530.667000	1.736157
530.853000	1.741712
531.039000	1.669006
531.224000	1.595921
531.410000	1.800498
531.595000	1.750864
531.781000	1.658750
531.967000	1.606083
532.152000	1.776764
532.338000	1.510556
532.523000	1.201592
532.709000	1.294713
532.894000	1.526495
533.080000	1.585858
533.266000	1.408494
533.451000	1.371561
533.637000	1.450055
533.822000	1.631036
534.008000	1.401508
534.193000	1.369436
534.379000	1.491913
534.565000	1.288692
534.750000	1.223462
534.936000	1.482164
535.121000	1.209604
535.307000	1.276844
535.492000	1.355026
535.678000	1.089625
535.864000	1.210454
536.049000	1.654211
536.235000	1.335024
536.420000	1.235489
536.606000	1.094047
536.791000	0.949090
536.977000	0.973958
537.163000	1.265644
537.348000	1.278729
537.534000	1.435918
537.719000	1.244666
537.905000	1.071176
538.090000	1.167824
538.276000	1.224110
538.462000	1.175759
538.647000	1.168844
538.833000	1.028481
539.018000	1.045086
539.204000	1.051711
539.389000	1.058915
539.575000	1.303638
539.761000	1.190606
539.946000	0.895965
540.132000	0.899453
540.317000	0.738802
540.503000	0.976690
540.688000	1.025520
540.874000	1.181532
541.060000	1.303412
541.245000	1.088407
541.431000	0.734935
541.616000	0.848231
541.802000	0.793269
541.987000	0.876207
542.173000	0.923157
542.359000	0.755861
542.544000	0.885537
542.730000	0.745263
542.915000	0.552776
543.101000	0.647161
543.286000	0.610803
543.472000	0.589323
543.658000	0.526472
543.843000	0.534113
544.029000	0.714013
544.214000	0.600235
544.400000	0.275576
544.585000	0.461582
544.771000	0.617030
544.957000	0.701926
545.142000	0.721804
545.328000	0.801104
545.513000	0.802598
545.699000	0.799570
545.884000	0.637754
546.070000	0.631549
546.261000	0.646893
546.451000	0.472284
546.642000	0.243758
546.833000	0.631450
547.023000	0.526308
547.214000	0.390068
547.405000	0.607392
547.595000	0.891815
547.786000	0.716465
547.977000	0.545785
548.167000	0.366821
548.358000	0.315043
548.549000	0.597568
548.740000	0.403291
548.930000	0.095162
549.121000	0.344105
549.312000	0.298195
549.502000	0.156897
549.693000	0.359490
549.884000	0.562380
550.074000	0.659326
550.265000	0.504508
550.456000	0.498919
550.646000	0.500101
550.837000	0.445600
551.028000	0.336701
551.218000	0.562391
551.409000	0.262496
551.600000	0.269598
551.790000	0.602083
551.981000	0.332786
552.172000	0.195064
552.362000	0.540687
552.553000	0.654623
552.744000	0.445848
552.934000	0.348924
553.125000	0.370436
553.316000	0.300996
553.506000	0.657694
553.697000	0.386834
553.888000	0.400146
554.079000	0.638495
554.269000	0.667169
554.460000	0.373771
554.651000	0.254595
554.841000	-0.125328
555.032000	-0.033848
555.223000	0.290936
555.413000	0.366982
555.604000	0.234396
555.795000	0.263326
555.985000	0.327706
556.176000	0.150102
556.367000	0.043888
556.557000	0.150570
556.748000	0.129515
556.939000	0.100894
557.129000	0.001420
557.320000	0.143494
557.511000	0.036870
557.701000	0.086366
557.892000	0.264403
558.083000	0.356414
558.273000	0.285469
558.464000	0.086640
558.655000	0.235571
558.845000	0.312699
559.036000	0.341241
559.227000	0.213964
559.418000	0.278239
559.608000	0.249749
559.799000	-0.062359
559.990000	-0.012688
560.180000	0.170800
560.371000	-0.083410
560.562000	-0.047993
560.752000	-0.048037
560.943000	-0.168207
561.134000	-0.174804
561.324000	0.071808
561.515000	0.296538
561.706000	0.198382
561.896000	-0.026674
562.087000	0.029449
562.278000	-0.089714
562.468000	-0.188025
562.659000	-0.012594
562.850000	0.358460
563.040000	0.372462
563.231000	-0.180772
563.422000	-0.026538
563.612000	-0.103472
563.803000	-0.075369
563.994000	-0.054172
564.185000	-0.151150
564.375000	0.022213
564.566000	0.063784
564.757000	0.077867
564.947000	-0.088885
565.138000	0.015225
565.329000	-0.026245
565.519000	-0.115972
565.710000	-0.129909
565.901000	0.070531
566.091000	0.250133
566.282000	0.035848
566.473000	-0.039861
566.663000	0.035696
566.854000	0.056066
567.045000	0.165034
567.235000	0.171822
567.426000	0.028626
567.617000	-0.059763
567.807000	0.008153
567.998000	0.164085
568.189000	0.069143
568.379000	0.021637
568.570000	0.075624
568.761000	0.008085
568.951000	-0.018836
569.142000	-0.066015
569.333000	-0.052542
569.524000	-0.179851
569.714000	-0.407984
569.905000	-0.400586
570.096000	0.075012
570.286000	0.195304
570.477000	0.408223
570.668000	0.141278
570.858000	0.201244
571.049000	0.107573
571.240000	-0.138188
571.430000	0.114122
571.621000	0.047602
571.812000	0.073747
572.002000	-0.058047
572.193000	-0.202832
572.384000	0.047395
572.574000	0.093548
572.765000	0.034195
572.956000	-0.018355
573.146000	0.132617
573.337000	-0.011794
573.528000	0.112500
573.718000	0.275297
573.909000	0.320505
574.100000	0.280414
574.290000	0.007764
574.481000	-0.069724
574.672000	-0.011634
574.863000	0.091413
575.053000	-0.075819
575.244000	-0.043588
575.435000	-0.152413
575.625000	-0.158116
575.816000	-0.119714
576.007000	0.033113
576.197000	0.096943
576.388000	0.033036
576.579000	0.090183
576.769000	0.045673
576.960000	-0.220587
577.155000	-0.441220
577.350000	-0.087125
577.545000	0.051674
577.740000	-0.218649
577.935000	0.183085
578.130000	0.327550
578.326000	-0.067562
578.521000	0.070032
578.716000	0.163070
578.911000	-0.104449
579.106000	0.019820
579.301000	0.112384
579.496000	0.044320
579.691000	-0.318584
579.886000	-0.201202
580.081000	0.019599
580.276000	0.013442
580.471000	-0.072083
580.666000	-0.181724
580.861000	-0.120700
581.057000	-0.120779
581.252000	0.001220
581.447000	-0.181414
581.642000	-0.047564
581.837000	0.031667
582.032000	0.013359
582.227000	0.248730
582.422000	0.151852
582.617000	-0.142765
582.812000	-0.244111
583.007000	-0.232019
583.202000	-0.237561
583.397000	0.019034
583.592000	0.315879
583.788000	-0.052084
583.983000	-0.034295
584.178000	0.066121
584.373000	-0.051796
584.568000	-0.110424
584.763000	-0.075255
584.958000	-0.151675
585.153000	-0.145807
585.348000	-0.039957
585.543000	0.124701
585.738000	0.018814
585.933000	-0.151728
586.128000	0.071722
586.324000	0.095487
586.519000	0.077747
586.714000	0.160334
586.909000	0.237385
587.104000	0.232252
587.299000	0.125246
587.494000	0.107377
587.689000	-0.016552
587.884000	0.101983
588.079000	0.001186
588.274000	0.001188
588.469000	0.042686
588.664000	0.286137
588.859000	0.262770
589.055000	0.179747
589.250000	0.233426
589.445000	-0.004770
589.640000	-0.112174
589.835000	0.264360
590.030000	0.503451
590.225000	0.527465
590.420000	0.312606
590.615000	0.127072
590.810000	0.198778
591.005000	0.211615
591.200000	0.175617
591.395000	0.229710
591.591000	0.229315
591.786000	0.349083
591.981000	0.241832
592.176000	0.272465
592.371000	0.411268
592.566000	0.543541
592.761000	0.736265
592.956000	0.779758
593.151000	0.743919
593.346000	0.624879
593.541000	0.708917
593.736000	0.705031
593.931000	0.662847
594.126000	0.815805
594.322000	0.931270
594.517000	0.888536
594.712000	0.882847
594.907000	0.910432
595.102000	0.874968
595.297000	1.143068
595.492000	1.537130
595.687000	1.337873
595.882000	1.087033
596.077000	1.445634
596.272000	1.678859
596.467000	1.777758
596.662000	1.674891
596.857000	1.588912
597.053000	1.733914
597.248000	2.011506
597.443000	2.131857
597.638000	2.093537
597.833000	1.921526
598.028000	2.204597
598.223000	2.414125
598.418000	2.567951
598.613000	2.492865
598.808000	2.563356
599.003000	2.647248
599.198000	2.669337
599.393000	2.818449
599.589000	3.001504
599.784000	2.947178
599.979000	3.089627
600.174000	3.374430
600.369000	3.308790
600.564000	3.426409
600.759000	3.789724
600.954000	4.003602
601.149000	3.952741
601.344000	3.811432
601.539000	4.170152
601.734000	4.013074
601.929000	3.928172
602.124000	4.185019
602.320000	4.643129
602.515000	4.916958
602.710000	4.958934
602.905000	4.741889
603.100000	4.759669
603.295000	5.112113
603.490000	5.343773
603.685000	5.536201
603.880000	5.677172
604.075000	5.601829
604.270000	5.710022
604.465000	5.943102
604.660000	6.166245
604.856000	6.527466
605.051000	6.765049
605.246000	6.733795
605.441000	6.616580
605.636000	6.843547
605.831000	6.997856
606.026000	7.136624
606.221000	7.443031
606.416000	7.652705
606.611000	8.048183
606.806000	8.234562
607.001000	8.477915
607.196000	8.550505
607.391000	8.575403
607.587000	9.073346
607.782000	9.182881
607.977000	9.122268
608.172000	9.801495
608.367000	10.061630
608.562000	10.036093
608.757000	10.117605
608.952000	10.330646
609.147000	11.048636
609.342000	11.281412
609.537000	11.190821
609.732000	11.510194
609.927000	11.559393
610.122000	11.756181
610.318000	12.259864
610.513000	12.535427
610.708000	12.759407
610.903000	13.155345
611.098000	13.321926
611.293000	13.628988
611.488000	13.921109
611.683000	14.381680
611.878000	14.551367
612.073000	14.912559
612.268000	15.153874
612.463000	15.605789
612.658000	16.229689
612.854000	16.463218
613.049000	16.836447
613.244000	17.232133
613.439000	17.485130
613.634000	17.602101
613.829000	18.221421
614.024000	18.632687
614.219000	18.824028
614.414000	19.586369
614.609000	19.702670
614.804000	19.862139
614.999000	20.272899
615.194000	20.970608
615.389000	21.526689
615.585000	21.727911
615.780000	22.427299
615.975000	23.026219
616.170000	23.516234
616.365000	23.912541
616.560000	24.423432
616.755000	25.048216
616.950000	25.521479
617.145000	25.932892
617.340000	26.468615
617.535000	26.652086
617.730000	27.479765
617.925000	27.907035
618.120000	28.373762
618.316000	29.517968
618.511000	29.915595
618.706000	30.413378
618.901000	30.899720
619.096000	31.735376
619.291000	32.293871
619.486000	33.171142
619.681000	33.294081
619.876000	33.528936
620.071000	34.209571
620.266000	35.299657
620.461000	36.065582
620.656000	36.822813
620.852000	37.131437
621.047000	37.899039
621.242000	38.312346
621.437000	39.174084
621.632000	40.416100
621.827000	40.775702
622.022000	41.299100
622.217000	42.087440
622.412000	42.619950
622.607000	43.466633
622.802000	44.111163
622.997000	44.945795
623.192000	45.608583
623.387000	46.263765
623.583000	46.902540
623.778000	48.151207
623.973000	48.803440
624.168000	49.676810
624.363000	50.299762
624.558000	51.236508
624.753000	51.967728
624.948000	52.870099
625.143000	53.332704
625.338000	54.416594
625.533000	55.189960
625.728000	56.151255
625.923000	57.219643
626.119000	58.263929
626.314000	58.754547
626.509000	59.240198
626.704000	60.700308
626.899000	61.926300
627.094000	62.815378
627.289000	63.515754
627.484000	63.951323
627.679000	65.043534
627.874000	66.156496
628.069000	67.622180
628.264000	68.664077
628.459000	69.297029
628.654000	69.787844
628.850000	70.076884
629.045000	71.325988
629.240000	72.421061
629.435000	72.812417
629.630000	73.798403
629.825000	75.091243
630.020000	75.611373
630.215000	75.876279
630.410000	76.874132
630.605000	77.094602
630.800000	77.563009
630.995000	78.353611
631.190000	78.559620
631.385000	79.036829
631.581000	79.277534
631.776000	79.229985
631.971000	78.826532
632.166000	78.720300
632.361000	78.315822
632.556000	78.486135
632.751000	78.640761
632.946000	77.590064
633.141000	77.297884
633.336000	76.682878
633.531000	76.134742
633.726000	75.211221
633.921000	74.152171
634.117000	73.011784
634.312000	72.003292
634.507000	70.866552
634.702000	69.613991
634.897000	68.549038
635.092000	66.838959
635.287000	65.890268
635.482000	64.405592
635.677000	62.416505
635.872000	61.078101
636.067000	59.635559
636.262000	58.050123
636.457000	56.090456
636.652000	54.156860
636.848000	52.678365
637.043000	51.419521
637.238000	49.700794
637.433000	47.764831
637.628000	46.233277
637.823000	45.015376
638.018000	43.559257
638.213000	41.879104
638.408000	40.298501
638.603000	38.702555
638.798000	37.166560
638.993000	36.011462
639.188000	34.772901
639.383000	33.486105
639.579000	32.601012
639.774000	31.156409
639.969000	29.946834
640.164000	28.636751
640.359000	27.763774
640.554000	27.137036
640.749000	26.134093
640.944000	25.191985
641.139000	24.200540
641.334000	22.912552
641.529000	21.868117
641.724000	21.414473
641.919000	20.782187
642.115000	20.341239
642.310000	19.838351
642.505000	19.006479
642.700000	18.189996
642.895000	17.523184
643.090000	17.230518
643.285000	16.814302
643.480000	16.087792
643.675000	15.607683
643.870000	15.299633
644.065000	14.527911
644.260000	13.582368
644.455000	13.309779
644.650000	12.927942
644.846000	12.637853
645.041000	12.118321
645.236000	11.532601
645.431000	11.232800
645.626000	10.934820
645.821000	10.789166
646.016000	10.320218
646.211000	10.331318
646.406000	9.856789
646.601000	9.495769
646.796000	9.083942
646.991000	8.307486
647.186000	8.208516
647.381000	8.339635
647.577000	8.280453
647.772000	8.087793
647.967000	7.682955
648.162000	7.327036
648.357000	6.982794
648.552000	6.887312
648.747000	6.790123
648.942000	6.397869
649.137000	6.112693
649.332000	5.976623
649.527000	5.796201
649.722000	5.955119
649.917000	5.522454
650.113000	5.057700
650.308000	5.022398
650.503000	4.731024
650.698000	4.719145
650.893000	4.466861
651.088000	4.393050
651.283000	4.282999
651.478000	3.855753
651.673000	4.142112
651.868000	3.970769
652.063000	4.124369
652.258000	4.067481
652.453000	4.082350
652.648000	3.659637
652.844000	3.576559
653.039000	3.462376
653.234000	2.887944
653.429000	2.574704
653.624000	2.847961
653.819000	2.983481
654.014000	2.828916
654.209000	2.533875
654.404000	2.600308
654.599000	2.650209
654.794000	2.524678
654.989000	2.601472
655.184000	2.491736
655.380000	2.325014
655.575000	2.099860
655.770000	1.912290
655.965000	2.182048
656.160000	2.244038
656.355000	2.174071
656.550000	1.988993
656.745000	2.025228
656.940000	1.861036
657.135000	1.930397
657.330000	1.922453
657.525000	1.452043
657.720000	1.664636
657.915000	1.768025
658.111000	1.585004
658.306000	1.936435
658.501000	1.677655
658.696000	1.238443
658.891000	1.458388
659.086000	1.545512
659.281000	1.627109
659.476000	1.224703
659.671000	0.723140
659.866000	0.987494
660.061000	1.173109
660.256000	1.288192
660.451000	1.509809
660.646000	1.211558
660.842000	1.071504
661.037000	0.859650
661.232000	1.029161
661.427000	1.178789
661.622000	0.870649
661.817000	0.702004
662.012000	1.076974
662.207000	0.837629
662.402000	0.786251
662.597000	1.072247
662.792000	0.705856
662.987000	0.536082
663.182000	0.849549
663.378000	0.885954
663.573000	0.359907
663.768000	0.412767
663.963000	0.681541
664.158000	0.698791
664.353000	1.240000
664.548000	1.347199
664.743000	0.818931
664.938000	0.612340
665.133000	0.658263
665.328000	0.992460
665.523000	0.804910
665.718000	0.525237
665.913000	0.426605
666.109000	0.472852
666.304000	0.816808
666.499000	0.689595
666.694000	0.809538
666.889000	0.945567
667.084000	0.575438
667.279000	0.474998
667.474000	0.466161
667.669000	0.593482
667.864000	0.694430
668.059000	0.604218
668.254000	0.486181
668.449000	0.358644
668.644000	0.423073
668.840000	0.605429
669.035000	0.340695
669.230000	-0.016541
669.425000	0.351280
669.620000	0.204132
669.815000	0.241785
670.010000	0.306100
670.205000	0.527816
670.400000	0.453187
670.595000	0.463805
670.790000	0.325655
670.985000	0.187077
671.180000	0.419072
671.376000	0.141053
671.571000	0.066963
671.766000	0.048474
671.961000	0.039167
672.156000	0.141924
672.351000	0.085921
672.546000	0.114179
672.741000	0.338053
672.936000	0.301093
673.131000	0.967611
673.326000	0.707045
673.521000	0.095985
673.716000	-0.176910
673.911000	-0.290038
674.107000	0.379268
674.302000	0.596676
674.497000	0.332705
674.692000	-0.045401
674.887000	-0.036065
675.082000	0.172994
675.277000	0.658682
675.472000	0.430802
675.667000	0.078274
675.862000	0.078314
676.057000	0.202606
676.252000	0.174303
676.447000	0.117127
676.643000	0.318478
676.838000	0.530520
677.033000	0.252161
677.228000	0.561545
677.423000	0.368798
677.618000	-0.027105
677.813000	-0.085139
678.008000	0.157237
678.203000	0.273998
678.398000	0.079818
678.593000	0.109057
678.788000	0.255944
678.983000	-0.007806
679.178000	0.158141
679.374000	0.050835
679.569000	0.031351
679.764000	-0.155253
679.959000	-0.214723
680.154000	-0.066991
680.349000	-0.195739
680.544000	-0.185604
680.739000	0.011853
680.934000	-0.087012
681.129000	-0.235987
681.324000	-0.405048
681.519000	0.071704
681.714000	0.111579
681.909000	-0.017911
682.105000	-0.247463
682.300000	0.042072
682.495000	0.312372
682.690000	0.393361
682.885000	0.212907
683.080000	-0.340387
683.275000	-0.330482
683.470000	0.244128
683.665000	0.689509
683.860000	0.791973
684.055000	0.387093
684.250000	-0.109547
684.445000	-0.089118
684.641000	0.489595
684.836000	0.185175
685.031000	0.114365
685.226000	-0.008180
685.421000	0.412203
685.616000	0.227633
685.811000	0.002056
686.006000	0.300101
686.201000	0.300501
686.396000	-0.121901
686.591000	-0.163551
686.786000	0.302738
686.981000	0.188711
687.176000	0.261927
687.372000	-0.091570
687.567000	0.095775
687.762000	0.148234
687.957000	0.054281
688.152000	-0.029290
688.347000	-0.081742
688.542000	-0.197508
688.737000	-0.617465
688.932000	-0.755261
689.127000	-0.061095
689.322000	0.223949
689.517000	-0.156309
689.712000	-0.390034
689.908000	-0.443476
690.103000	-0.338036
690.298000	-0.104192
690.493000	-0.104465
690.688000	-0.350069
690.883000	-0.212049
691.078000	0.302110
691.273000	0.302144
691.468000	0.227586
691.663000	-0.073277
691.858000	-0.073290
692.053000	0.153040
692.248000	0.120831
692.443000	0.110037
692.639000	0.012972
692.834000	0.045516
693.029000	0.620123
693.224000	0.525031
693.419000	-0.215877
693.614000	-0.161668
693.809000	-0.052471
694.004000	-0.260661
694.199000	-0.249644
694.394000	0.024170
694.589000	-0.272752
694.784000	-0.251011
694.979000	0.068260
695.174000	-0.075055
695.370000	0.608240
695.565000	0.333580
695.760000	-0.363126
695.955000	0.068806
696.150000	0.279750
696.345000	-0.131502
696.540000	0.125034
696.740000	-0.075861
696.940000	0.091549
697.140000	0.383792
697.340000	-0.155132
697.539000	-0.245194
697.739000	-0.177780
697.939000	0.036031
698.139000	-0.121731
698.339000	-0.710501
698.539000	-0.597022
698.739000	-0.383211
698.939000	-0.225466
699.138000	-0.522394
699.338000	0.240982
699.538000	0.595623
699.738000	0.025176
699.938000	-0.158058
700.138000	-0.318946
700.338000	-0.273843
700.538000	-0.043832
700.737000	0.025368
700.937000	-0.687500
701.137000	-0.642499
701.337000	0.106482
701.537000	0.118315
701.737000	-0.171458
701.937000	-0.090567
702.137000	0.095217
702.337000	-0.113987
702.536000	-0.428905
702.736000	-0.289392
702.936000	-0.336565
703.136000	0.060948
703.336000	-0.079683
703.536000	-0.267916
703.736000	-0.539641
703.936000	-0.409184
704.135000	-0.479493
704.335000	-0.115495
704.535000	-0.245801
704.735000	-0.518130
704.935000	0.061383
705.135000	-0.068799
705.335000	-0.366565
705.535000	0.026200
705.735000	-0.176227
705.934000	-0.259445
706.134000	-0.295248
706.334000	-0.164681
706.534000	-0.260522
706.734000	-0.212889
706.934000	-0.440105
707.134000	-0.344520
707.334000	-0.129470
707.533000	-0.153729
707.733000	-0.225626
707.933000	-0.273905
708.133000	-0.009599
708.333000	0.038596
708.533000	-0.263422
708.733000	-0.009665
708.933000	-0.130598
709.132000	-0.312591
709.332000	-0.373801
709.532000	-0.350301
709.732000	-0.204044
709.932000	-0.411500
710.132000	-0.301739
710.332000	-0.775893
710.532000	-0.228845
710.732000	-0.058589
710.931000	-0.449512
711.131000	-0.500320
711.331000	-0.218445
711.531000	-0.390918
711.731000	-0.441198
711.931000	-0.355519
712.131000	-0.355093
712.331000	-0.059201
712.530000	-0.182315
712.730000	-0.256901
712.930000	-0.120999
713.130000	-0.232934
713.330000	-0.307655
713.530000	-0.234081
713.730000	0.500764
713.930000	0.276453
714.129000	-0.482666
714.329000	-0.671412
714.529000	-0.271852
714.729000	0.039987
714.929000	-0.097472
715.129000	-0.322940
715.329000	-0.197953
715.529000	-0.072964
715.729000	0.554991
715.928000	0.392742
716.128000	-0.211608
716.328000	0.040426
716.528000	0.053120
716.728000	0.129036
716.928000	-0.161943
717.128000	-0.060864
717.328000	-0.073532
717.527000	-0.378263
717.727000	-0.264280
717.927000	-0.341610
718.127000	-0.533113
718.327000	-0.917390
718.527000	-0.789224
718.727000	-0.419264
718.927000	-0.266356
719.127000	-0.370284
719.326000	-0.509636
719.526000	-0.266832
719.726000	-0.203115
719.926000	-0.655493
720.126000	-0.771749
720.326000	-0.371623
720.526000	-0.345880
720.726000	-0.359870
720.925000	-0.139895
721.125000	-0.478444
721.325000	-0.179199
721.525000	-0.244718
721.725000	-0.283800
721.925000	-0.193214
722.125000	-0.310735
722.325000	0.133158
722.524000	-0.246173
722.724000	-0.652908
722.924000	-0.810185
723.124000	-0.509292
723.324000	0.042047
723.524000	0.147297
723.724000	-0.681864
723.924000	-0.565414
724.124000	-0.248445
724.323000	-0.010586
724.523000	-0.182447
724.723000	0.201388
724.923000	0.015904
725.123000	0.042455
725.323000	0.015949
725.523000	-0.356873
725.723000	-0.356498
725.922000	-0.356900
726.122000	-0.063994
726.322000	-0.291425
726.522000	-0.305091
726.722000	0.630865
726.922000	0.069455
727.122000	0.136712
727.322000	0.566335
727.521000	-0.078029
727.721000	-0.563172
727.921000	-0.388041
728.121000	-0.185890
728.321000	-0.658560
728.521000	-0.552009
728.721000	-0.295448
728.921000	-0.078578
729.121000	0.966198
729.320000	0.423859
729.520000	-0.296185
729.720000	-0.323891
729.920000	-0.380128
730.120000	-0.597387
730.320000	-0.270713
730.520000	-0.448639
730.720000	-0.408889
730.919000	-0.381375
731.119000	-0.258381
731.319000	-0.864510
731.519000	-0.685458
731.719000	-0.162541
731.919000	-0.314230
732.119000	-1.004994
732.319000	-0.648096
732.519000	0.113616
732.718000	-0.538302
732.918000	-0.649851
733.118000	-0.136419
733.318000	0.156356
733.518000	-0.318322
733.718000	-0.878002
733.918000	-0.626711
734.118000	-0.486650
734.317000	-0.362262
734.517000	-0.530021
734.717000	-0.588932
734.917000	0.158157
735.117000	0.229006
735.317000	-0.180897
735.517000	0.102032
735.717000	0.628213
735.916000	-0.224599
736.116000	-0.806716
736.316000	-0.554467
736.516000	-0.182860
736.716000	-0.168659
736.916000	-0.743405
737.116000	-0.444177
737.316000	0.233587
737.516000	-0.054901
737.715000	-0.213959
737.915000	-0.604565
738.115000	-0.316300
738.315000	-0.127775
738.515000	-0.548747
738.715000	-0.274525
738.915000	0.105278
739.115000	-0.700085
739.314000	-0.670188
739.514000	0.091050
739.714000	0.164893
739.914000	0.062015
740.114000	-0.307700
740.314000	-0.100669
740.514000	0.373639
740.714000	-0.011902
740.913000	-0.533379
741.113000	-0.519291
741.313000	0.032829
741.513000	-0.206506
741.713000	-0.297087
741.913000	-0.268340
742.113000	-0.147513
742.313000	-0.721039
742.513000	-0.434839
742.712000	-0.254477
742.912000	-0.724240
743.112000	-0.589864
743.312000	-0.727896
743.512000	-0.409030
743.712000	-0.134739
743.912000	-0.763733
744.112000	-1.086484
744.311000	-1.227907
744.511000	-0.644353
744.711000	-0.105084
744.911000	-0.755213
745.111000	-0.601202
745.311000	0.158352
745.511000	-0.680922
745.711000	-0.759368
745.911000	-0.230599
746.110000	-0.698363
746.310000	-1.047454
746.510000	-0.716614
746.710000	0.003144
746.910000	-0.091248
747.110000	-0.832006
747.310000	-0.975528
747.510000	-0.567264
747.709000	-0.345709
747.909000	-0.537382
748.109000	-0.156335
748.309000	-0.476359
748.509000	-0.813322
748.709000	-0.703848
748.909000	-0.414468
749.109000	-0.674433
749.308000	-0.029072
749.508000	-0.158862
749.708000	-0.434585
749.908000	0.133000
750.108000	0.214733
750.308000	-0.796633
750.508000	-0.013093
750.708000	-0.422389
750.908000	-1.194434
751.107000	-0.276488
751.307000	0.578623
751.507000	-0.376378
751.707000	-0.276978
751.907000	-0.195022
752.107000	-0.311765
752.307000	-1.078211
752.507000	-0.630603
752.706000	-0.546818
752.906000	0.521249
753.106000	-0.164294
753.306000	-0.803810
753.506000	-0.047213
753.706000	-0.300742
753.906000	0.054074
754.106000	-0.081219
754.305000	-0.030497
754.505000	-0.115511
754.705000	-0.457737
754.905000	-0.595255
755.105000	-0.099356
755.305000	-0.682740
755.505000	-0.736317
755.705000	0.124021
755.905000	-0.169314
756.104000	-0.740093
756.304000	-1.106186
756.504000	-1.473322
756.704000	-0.555366
756.904000	-0.380506
757.104000	-0.292820
757.304000	-0.188421
757.504000	0.354573
757.703000	-0.084239
757.903000	0.302585
758.103000	0.320833
758.303000	-0.296986
758.503000	-0.599085
758.703000	-0.405060
758.903000	-0.582978
759.103000	-0.156841
759.303000	-0.085960
759.502000	-0.176057
759.702000	-0.158031
759.902000	-0.700332
760.102000	-0.846753
760.302000	-0.413910
760.502000	-0.141178
760.702000	0.076128
760.902000	-0.105352
761.101000	-0.706797
761.301000	-0.762781
761.501000	-0.635247
761.701000	-0.947469
761.901000	-0.676610
762.101000	-0.217421
762.301000	-0.254275
762.501000	-0.992119
762.700000	-0.867007
762.900000	-0.756122
763.100000	-0.608556
763.300000	-0.033533
763.500000	-0.537056
763.703000	-0.851214
763.905000	-0.817138
764.108000	0.078634
764.311000	-0.071155
764.513000	-0.239970
764.716000	-0.316235
764.919000	-0.297810
765.121000	-0.825895
765.324000	-0.847290
765.527000	-0.870825
765.729000	-0.661654
765.932000	0.251383
766.135000	-0.224655
766.337000	-0.853366
766.540000	-0.932613
766.743000	-0.477474
766.945000	-1.091404
767.148000	-1.402009
767.351000	-0.920421
767.553000	-0.073445
767.756000	-0.305703
767.958000	-0.828022
768.161000	-0.731925
768.364000	-0.909531
768.566000	-1.106291
768.769000	-0.640976
768.972000	-0.132867
769.174000	-0.740832
769.377000	-1.136050
769.580000	-1.197562
769.782000	-0.429015
769.985000	-0.785750
770.188000	-1.895825
770.390000	-0.672191
770.593000	0.897786
770.796000	0.341889
770.998000	0.023867
771.201000	-0.453944
771.404000	-0.215330
771.606000	-0.756646
771.809000	-0.756398
772.012000	-0.577414
772.214000	-1.440659
772.417000	-1.360546
772.620000	-0.576144
772.822000	-1.104769
773.025000	-0.963825
773.228000	-0.723208
773.430000	-0.866059
773.633000	-0.340593
773.836000	-0.077144
774.038000	-0.016302
774.241000	-0.118159
774.444000	-0.302436
774.646000	0.453289
774.849000	-0.077765
775.052000	-0.057291
775.254000	-0.057405
775.457000	-0.589909
775.659000	-0.591322
775.862000	-0.920053
776.065000	-0.530724
776.267000	0.292606
776.470000	0.666480
776.673000	-0.202982
776.875000	0.315752
777.078000	-0.141033
777.281000	-0.807776
777.483000	-0.350872
777.686000	-0.330605
777.889000	-0.561376
778.091000	-0.016815
778.294000	-1.045256
778.497000	-1.109647
778.699000	-0.816074
778.902000	-0.734443
779.105000	-0.755599
779.307000	0.300135
779.510000	-0.716002
779.713000	-0.357267
779.915000	-0.763834
780.118000	0.260556
780.321000	0.474709
780.523000	-0.467239
780.726000	-0.917713
780.929000	-1.196026
781.131000	-1.004671
781.334000	-1.417796
781.537000	-1.313726
781.739000	0.025953
781.942000	-0.601719
782.145000	-1.583872
782.347000	-1.606642
782.550000	-0.888795
782.753000	-1.306976
782.955000	-1.354359
783.158000	-1.025026
783.361000	-0.522561
783.563000	-0.676366
783.766000	-0.501985
783.968000	1.327452
784.171000	0.979113
784.374000	-0.150646
784.576000	-0.106307
784.779000	-0.194589
784.982000	0.115647
785.184000	-0.576901
785.387000	0.183636
785.590000	1.101227
785.792000	0.543714
785.995000	0.364531
786.198000	0.004508
786.400000	-0.516049
786.603000	-0.290447
786.806000	-0.425277
787.008000	0.298569
787.211000	0.435850
787.414000	-0.724346
787.616000	-0.658491
787.819000	-0.728797
788.022000	-1.395304
788.224000	-0.823621
788.427000	-1.054279
788.630000	-0.295680
788.832000	-0.226134
789.035000	-1.170341
789.238000	-1.430186
789.440000	-0.693660
789.643000	0.260164
789.846000	-0.903850
790.048000	-0.485713
790.251000	0.214886
790.454000	-0.321684
790.656000	0.355626
790.859000	-0.089112
791.062000	-0.770534
791.264000	-0.183086
791.467000	-0.867444
791.669000	-1.529687
791.872000	-0.540912
792.075000	-1.061617
792.277000	-0.801082
792.480000	-0.614800
792.683000	-0.922058
792.885000	-0.899163
793.088000	-0.496592
793.291000	-1.000455
793.493000	-1.385926
793.696000	-0.235076
793.899000	-0.091403
794.101000	-0.356817
794.304000	-0.961718
794.507000	-0.938945
794.709000	-0.092214
794.912000	-0.604238
795.115000	-1.093626
795.317000	-0.458806
795.520000	-0.362767
795.723000	-0.462670
795.925000	-1.153437
796.128000	-1.348871
796.331000	-1.155743
796.533000	-1.579312
796.736000	-0.393080
796.939000	-0.244392
797.141000	-1.170178
797.344000	-0.545603
797.547000	-0.195300
797.749000	-0.170507
797.952000	-0.751013
798.155000	-1.176867
798.357000	-1.462233
798.560000	-1.368724
798.763000	-0.452383
798.965000	-0.553517
799.168000	-0.453273
799.371000	-0.428308
799.573000	-0.762271
799.776000	-1.634420
799.978000	-1.383026
800.181000	-0.432701
800.384000	0.598464
800.586000	0.367162
800.789000	-1.028644
800.992000	-0.872980
801.194000	-1.289066
801.397000	-1.837385
801.600000	-1.192657
801.802000	0.318168
802.005000	0.266857
802.208000	-1.385322
802.410000	-0.387977
802.613000	-0.284368
802.816000	0.031633
803.018000	-0.787652
803.221000	-1.662982
803.424000	0.244128
803.626000	0.005315
803.829000	-0.714531
804.032000	0.352863
804.234000	1.475155
804.437000	-0.424056
804.640000	-0.638233
804.842000	-0.424670
805.045000	-1.372187
805.248000	-0.860575
805.450000	-1.048985
805.653000	-0.919599
805.856000	-0.891418
806.058000	0.387103
806.261000	-0.732313
806.464000	-0.760398
806.666000	-0.487645
806.869000	-0.628626
807.072000	-1.317768
807.274000	-1.842776
807.477000	-1.045615
807.679000	-0.382050
807.882000	-0.965645
808.085000	-0.692800
808.287000	-0.190149
808.490000	-1.199118
808.693000	-0.891562
808.895000	-0.724156
809.098000	-0.864914
809.301000	-0.924159
809.503000	-1.409229
809.706000	-0.079666
809.909000	0.375507
810.111000	-0.108252
810.314000	-0.451129
810.517000	-0.819637
810.719000	-1.053216
810.922000	-0.597817
811.125000	-0.137661
811.327000	0.178829
811.530000	-0.544405
811.735000	-0.861638
811.940000	-0.602758
812.146000	-0.808998
812.351000	0.209541
812.556000	0.268607
812.761000	-0.960680
812.967000	-0.670671
813.172000	-0.317352
813.377000	0.123797
813.582000	0.361126
813.788000	-0.202673
813.993000	-1.510289
814.198000	-0.351159
814.403000	-0.678133
814.609000	-0.323242
814.814000	-0.054117
815.019000	0.696228
815.224000	0.035993
815.429000	-1.262096
815.635000	-0.842021
815.840000	-0.388114
816.045000	-0.572640
816.250000	-0.024407
816.456000	-1.491369
816.661000	-2.542045
816.866000	-1.593809
817.071000	-1.285314
817.277000	-2.160131
817.482000	-1.450843
817.687000	-1.109127
817.892000	-0.616900
818.097000	0.193770
818.303000	0.443790
818.508000	1.097952
818.713000	7.956251
818.918000	4.046756
819.124000	0.069085
819.329000	-0.719010
819.534000	-0.879301
819.739000	-0.721213
819.945000	-0.502146
820.150000	-0.952467
820.355000	-0.986343
820.560000	-0.728185
820.766000	-0.345813
820.971000	0.070850
821.176000	-1.736807
821.381000	-2.826240
821.586000	-1.191675
821.792000	0.266465
821.997000	-0.839172
822.202000	-0.253953
822.407000	-0.548634
822.613000	-1.498821
822.818000	-0.977762
823.023000	-0.617595
823.228000	-0.489332
823.434000	0.105718
823.639000	0.602559
823.844000	-0.823232
824.049000	-0.093014
824.255000	-0.126642
824.460000	-0.261163
824.665000	-0.395643
824.870000	0.343155
825.075000	0.175163
825.281000	-0.466256
825.486000	0.890461
825.691000	-1.218577
825.896000	-2.380535
826.102000	-0.573322
826.307000	-0.745764
826.512000	-1.366625
826.717000	-1.233067
826.923000	-0.234883
827.128000	-0.166163
827.333000	-2.013812
827.538000	-0.972209
827.744000	-0.098158
827.949000	-0.972724
828.154000	-0.660478
828.359000	-0.098320
828.564000	-0.239975
828.770000	-0.276403
828.975000	0.646404
829.180000	-0.278434
829.385000	-2.312266
829.591000	-1.641160
829.796000	-0.857091
830.001000	-0.750486
830.206000	-1.187194
830.412000	-0.932877
830.617000	-1.478811
830.822000	0.007285
831.027000	-0.610598
831.232000	-0.906827
831.438000	-0.765936
831.643000	-0.287202
831.848000	-0.878481
832.053000	-1.215302
832.259000	-0.920024
832.464000	-2.894308
832.669000	-2.046032
832.874000	-1.856329
833.080000	-1.714774
833.285000	0.307511
833.490000	-0.217662
833.695000	-2.145622
833.901000	-1.244850
834.106000	-1.550835
834.311000	-1.826460
834.516000	-0.528113
834.721000	-1.377761
834.927000	-0.417355
835.132000	-0.185855
835.337000	1.132301
835.542000	-0.265254
835.748000	-1.977764
835.953000	0.359416
836.158000	0.242809
836.363000	-0.070776
836.569000	-0.388323
836.774000	-1.698922
836.979000	-1.343304
837.184000	-1.466082
837.390000	-1.788053
837.595000	-1.792843
837.800000	-0.914524
838.005000	-0.355136
838.210000	-0.516786
838.416000	-0.640379
838.621000	0.008128
838.826000	-1.088469
839.031000	-1.788049
839.237000	-1.883668
839.442000	-2.175037
839.647000	-1.883863
839.852000	-1.520199
840.058000	-1.194020
840.263000	-0.783258
840.468000	-1.659843
840.673000	-0.909252
840.878000	-1.244095
841.084000	-1.629482
841.289000	-0.581016
841.494000	1.958702
841.699000	1.709965
841.905000	0.264420
842.110000	0.523121
842.315000	-1.968029
842.520000	-1.365076
842.726000	-0.679866
842.931000	-1.238245
843.136000	-1.333812
843.341000	-2.870760
843.547000	-1.776401
843.752000	-0.688708
843.957000	-2.012730
844.162000	-1.978128
844.367000	-1.053171
844.573000	-0.391084
844.778000	-0.257079
844.983000	-0.435441
845.188000	-0.571656
845.394000	-2.514572
845.599000	-1.879052
845.804000	-1.389287
846.009000	-0.218009
846.215000	-1.314115
846.420000	-1.866686
846.625000	-0.541633
846.830000	0.466508
847.036000	-1.369538
847.241000	-2.713771
847.446000	-0.682975
847.651000	-0.222438
847.856000	-1.580520
848.062000	-2.054204
848.267000	-0.412839
848.472000	-2.061939
848.677000	-3.200681
848.883000	-0.932746
849.088000	-0.085654
849.293000	-2.379100
849.498000	-0.896989
849.704000	0.057415
849.909000	-1.141683
850.114000	-1.861290
850.319000	-0.615407
850.524000	-0.715478
850.730000	-0.962623
850.935000	-1.356991
851.140000	0.841791
851.345000	0.939540
851.551000	0.353388
851.756000	-0.582279
851.961000	-2.068137
852.166000	-1.970206
852.372000	-1.727159
852.577000	-0.989875
852.782000	-0.544027
852.987000	0.663029
853.193000	-0.292381
853.398000	-0.595022
853.603000	-1.404962
853.808000	-1.961911
854.013000	-2.228823
854.219000	-1.264275
854.424000	1.084944
854.629000	1.497656
854.834000	-0.815785
855.040000	-0.457272
855.245000	0.217514
855.450000	-2.467900
855.655000	-4.035961
855.861000	-3.539542
856.066000	-2.147287
856.271000	-1.939887
856.476000	0.275058
856.682000	-1.157569
856.887000	-3.809188
857.092000	-2.647560
857.297000	-0.042702
857.502000	0.599008
857.708000	-0.257218
857.913000	0.171776
858.118000	0.498409
858.323000	-0.152135
858.529000	-0.477401
858.734000	-0.859483
858.939000	-0.643785
859.144000	-1.193390
859.350000	-2.288565
859.555000	-2.570329
859.760000	-0.706829
859.965000	0.176656
860.171000	-1.596777
860.376000	0.233836
860.581000	-2.221800
860.786000	-4.585592
860.991000	-4.830801
861.197000	-3.421137
861.402000	-0.891595
861.607000	-1.626224
861.812000	-2.313731
862.018000	-2.778020
862.223000	-1.870710
862.428000	-1.021187
862.633000	-0.619877
862.839000	-2.009909
863.044000	-2.492623
863.249000	-1.440405
863.454000	0.244182
863.659000	-1.038007
863.865000	-1.101773
864.070000	-1.457215
864.275000	-3.166504
864.480000	-1.880215
864.686000	-3.370779
864.891000	-2.185704
865.096000	-0.883068
865.301000	-1.661838
865.507000	-0.769664
865.712000	0.312655
865.917000	-0.774561
866.122000	-0.048542
866.328000	-2.367621
866.533000	-2.731840
866.738000	-0.598352
866.943000	-0.538429
867.148000	0.443009
867.354000	-1.971979
867.559000	-2.716908
867.764000	-1.732858
867.969000	-0.927208
868.175000	-2.485021
868.380000	-3.308274
868.585000	-3.751751
868.790000	-1.120597
868.996000	-2.395422
869.201000	-3.799511
869.406000	-3.050167
869.611000	-1.840358
869.817000	-2.348955
870.022000	2.896053
870.227000	-0.629447
870.432000	-1.794365
870.637000	0.336020
870.843000	-0.636949
871.048000	-2.067832
871.253000	-0.767752
871.458000	-1.164014
871.664000	-3.935423
871.869000	-4.885456
872.074000	-2.974630
872.279000	-0.185825
872.485000	-1.923658
872.690000	-3.005332
872.895000	-1.805263
873.100000	-2.684119
873.306000	-2.966439
873.511000	-1.691330
873.716000	0.492108
873.921000	-1.622443
874.126000	-2.785758
874.332000	-1.434183
874.537000	-0.194018
874.742000	0.359157
874.947000	0.568765
875.153000	-0.476083
875.358000	-2.021080
875.563000	-2.509985
875.768000	-4.562280
875.974000	-4.368943
876.179000	-0.410830
876.384000	0.227766
876.589000	-1.493895
876.794000	-2.142728
877.000000	-2.936088
877.205000	-3.938571
877.410000	-1.357841
877.615000	-2.148683
877.821000	-4.422771
878.026000	-2.605478
878.231000	-3.914607
878.436000	-5.451751
878.642000	-2.627299
878.847000	-0.720806
879.052000	-0.425991
879.257000	-3.170850
879.463000	-4.362229
879.668000	-2.805142
879.873000	-0.432132
880.078000	-3.495397
880.283000	-4.708668
880.489000	-5.758247
880.694000	-4.352510
880.899000	-3.019666
881.104000	-1.203629
881.310000	1.767310
881.515000	0.776114
881.720000	1.693253
881.925000	3.160154
882.131000	4.310966
882.336000	0.479246
882.541000	-3.178550
882.746000	-2.411329
882.952000	-3.034117
883.157000	-3.119983
883.362000	-3.046265
883.567000	-3.768582
883.772000	-3.166991
883.978000	-2.533180
884.183000	-1.980051
884.388000	-3.090581
884.593000	-4.526183
884.799000	1.696907
885.004000	0.097408
885.209000	-2.257589
885.414000	-2.168921
885.620000	-3.977946
885.825000	0.591128
886.030000	0.262210
886.235000	-3.363707
886.440000	-3.557978
886.646000	-3.486391
886.851000	-1.827406
887.056000	0.100913
887.261000	-0.993111
887.467000	-3.532286
887.672000	-1.769670
887.877000	-2.035239
888.082000	-4.107092
888.288000	-6.917199
888.493000	-9.104068
888.698000	-7.082198
888.903000	-2.760296
889.109000	-4.140532
889.314000	-0.329351
889.519000	-0.500782
889.724000	1.573679
889.929000	-0.155820
890.135000	0.711758
890.340000	-1.206776
890.545000	-3.041787
890.750000	-5.063319
890.956000	-5.080176
891.161000	-0.245743
891.366000	-1.302598
891.571000	-0.952776
891.777000	0.105963
891.982000	1.614952
892.187000	0.730734
892.392000	0.640094
892.598000	2.074300
892.803000	0.559239
893.008000	-2.595181
893.213000	-3.397179
893.418000	-6.045794
893.624000	-5.803247
893.829000	-7.079749
894.034000	-4.541428
894.239000	-0.256597
894.445000	-3.913191
894.650000	-3.565353
894.855000	-3.109774
895.060000	-3.288287
895.266000	-4.233683
895.471000	-4.606154
895.676000	-0.723965
895.881000	0.205953
896.087000	-2.228466
896.292000	-5.164468
896.497000	-1.022813
896.702000	-2.622243
896.907000	-4.893590
897.113000	0.303423
897.318000	0.113726
897.523000	0.209048
897.728000	-1.602510
897.934000	-2.643226
898.139000	-1.983119
898.344000	0.019248
898.549000	-1.722797
898.755000	-3.179087
898.960000	-5.636766
899.165000	-5.346603
899.370000	-0.960182
899.575000	0.805468
899.781000	-4.117582
899.986000	-4.708867
900.191000	-1.764712
900.396000	-2.362298
900.602000	-2.276628
900.807000	-1.689371
901.012000	-0.587034
901.217000	0.121757
901.423000	-3.721074
901.628000	-5.153897
901.833000	0.326272
902.038000	0.739818
902.244000	-3.770914
902.449000	-2.865454
902.654000	-2.062373
902.859000	-0.914464
903.064000	1.900344
903.270000	-0.293412
903.475000	-6.271248
903.680000	-8.255353
903.885000	-6.525985
904.091000	-2.420034
904.296000	-4.347802
904.501000	-3.509162
904.706000	-3.520453
904.912000	1.757532
905.117000	-0.305044
905.322000	-4.041693
905.527000	-3.694991
905.733000	-5.010112
905.938000	-3.720559
906.143000	-5.213448
906.348000	-6.332509
906.553000	-0.875843
906.759000	-0.426426
906.964000	-2.345708
907.169000	-2.358920
907.374000	-6.766744
907.580000	-6.347744
907.785000	-4.605624
907.990000	29.420757
908.195000	19.763618
908.401000	-0.444472
908.606000	-9.149979
908.811000	-9.375870
909.016000	-0.680552
909.221000	-0.447291
909.427000	-4.001185
909.632000	-6.424668
909.837000	-3.944194
910.042000	-5.764592
910.248000	-7.974757
910.453000	-3.629059
910.658000	-5.865482
910.863000	-4.756140
911.069000	-5.388610
911.274000	-0.347007
911.479000	0.773101
911.684000	-6.578000
911.890000	-2.735614
912.095000	-3.367195
912.300000	-6.554646
912.506000	-4.405825
912.711000	-2.794364
912.917000	-1.129007
913.123000	0.282504
913.328000	-2.558245
913.534000	-0.886649
913.740000	7.510595
913.946000	2.005807
914.151000	-4.387772
914.357000	-4.935787
914.563000	-2.879278
914.768000	-5.431056
914.974000	-6.026626
915.180000	-7.443562
915.385000	-3.927619
915.591000	-6.576640
915.797000	-2.457063
916.002000	3.084707
916.208000	-2.462195
916.414000	-6.404887
916.620000	-6.839017
916.825000	-2.783539
917.031000	-2.363590
917.237000	-8.446394
917.442000	-4.968368
917.648000	-6.446257
917.854000	-6.442001
918.059000	2.200710
918.265000	-1.850908
918.471000	-6.074982
918.676000	-6.139870
918.882000	-8.693948
919.088000	-8.709865
919.294000	-13.553568
919.499000	-8.236457
919.705000	0.936936
919.911000	0.030222
920.116000	2.930392
920.322000	-4.567541
920.528000	-3.667420
920.733000	-7.312231
920.939000	-8.126829
921.145000	-9.517226
921.350000	-9.163642
921.556000	-4.443677
921.762000	-3.316419
921.968000	-5.884253
922.173000	-7.855316
922.379000	-11.174489
922.585000	-5.037713
922.790000	-5.538197
922.996000	-11.195688
923.202000	-11.999491
923.407000	-8.206694
923.613000	-6.196976
923.819000	-5.207077
924.024000	-4.334854
924.230000	-1.826039
924.436000	-6.942011
924.642000	3.135198
924.847000	0.208861
925.053000	-4.659687
925.259000	-13.023107
925.464000	-4.170762
925.670000	-3.992284
925.876000	-6.693485
926.081000	-6.551350
926.287000	-1.034778
926.493000	-4.684170
926.698000	-8.511038
926.904000	-7.012887
927.110000	-9.236884
927.316000	-4.163176
927.521000	4.648302
927.727000	-3.894385
927.933000	-7.860163
928.138000	-6.950235
928.344000	-13.526868
928.550000	-9.146047
928.755000	-1.896664
928.961000	-7.301192
929.167000	-6.179717
929.372000	2.185140
929.578000	1.023870
929.784000	-8.687262
929.990000	-12.513017
930.195000	-8.550548
930.401000	-7.607858
930.607000	-5.003431
930.812000	-3.015102
931.018000	-4.459581
931.224000	-11.567813
931.429000	-7.871574
931.635000	-10.348052
931.841000	-16.953874
932.046000	-11.533703
932.252000	-2.497083
932.458000	9.438023
932.664000	3.929989
932.869000	-6.225387
933.075000	-10.402778
933.281000	-6.356987
933.486000	3.175708
933.692000	1.392827
933.898000	-8.653156
934.103000	-0.860908
934.309000	-3.886084
934.515000	0.752375
934.720000	2.878287
934.926000	0.999196
935.132000	-5.666669
935.338000	-5.006040
935.543000	-11.181053
935.749000	-16.953531
935.955000	-20.002154
936.160000	-12.971725
936.366000	-1.209761
936.572000	-2.775604
936.777000	-1.258851
936.983000	2.944215
937.189000	-1.536639
937.394000	-4.242590
937.600000	0.053953
937.806000	4.945484
938.012000	-4.085105
938.217000	8.675986
938.423000	0.336072
938.629000	-11.708206
938.834000	-14.895217
939.040000	-12.911924
939.246000	-8.853747
939.451000	-11.585111
939.657000	-10.229844
939.863000	-12.163185
940.068000	2.468278
940.274000	-4.485403
940.480000	-4.237974
940.686000	-7.442480
940.891000	-10.480675
941.097000	23.706637
941.303000	8.922310
941.508000	-5.028269
941.714000	0.063995
941.920000	-11.605247
942.125000	0.065163
942.331000	1.702138
942.537000	-0.261669
942.742000	-3.898834
942.948000	-9.517174
943.154000	-15.116498
943.360000	-25.775687
943.565000	-9.369826
943.771000	5.512059
943.977000	4.122692
944.182000	-20.848032
944.388000	-18.228042
944.594000	-2.334726
944.799000	5.271739
945.005000	-0.954850
945.211000	2.804643
945.416000	-0.972458
945.622000	-15.598828
945.828000	-13.303515
946.034000	2.217735
946.239000	-0.287757
946.445000	-9.491112
946.651000	-15.086223
946.856000	-9.823994
947.062000	-3.475444
947.268000	-7.071047
947.473000	-21.442761
947.679000	-17.604981
947.885000	0.434253
948.090000	1.529222
948.296000	14.514159
948.502000	4.452114
948.708000	-10.233559
948.913000	-9.982623
949.119000	-0.670229
949.325000	-6.259438
949.530000	-21.176730
949.736000	-27.048556
949.942000	-16.580091
950.147000	-16.327978
950.353000	-15.450119
950.559000	-11.391707
950.764000	11.647335
950.970000	5.337175
951.176000	-15.512925
951.382000	-23.710351
951.587000	-12.430600
951.793000	4.013530
951.999000	5.120135
952.204000	-11.280412
952.410000	-20.496472
952.616000	-7.241171
952.821000	-3.411482
953.027000	-14.679335
953.233000	-22.058956
953.438000	-11.467294
953.644000	3.661620
953.850000	-5.894366
954.056000	-9.176592
954.261000	-5.183787
954.467000	2.516780
954.673000	11.828425
954.878000	-1.544605
955.084000	-4.802331
955.290000	-22.392271
955.495000	-29.834345
955.701000	-24.850090
955.907000	4.245293
956.112000	1.331993
956.318000	9.983625
956.524000	9.264041
956.730000	-7.544759
956.935000	-15.645340
957.141000	-14.694526
957.347000	-8.055305
957.552000	-10.615037
957.758000	-20.473681
957.964000	-31.065792
958.169000	5.738947
958.375000	9.681762
958.581000	-6.047790
958.786000	-16.443612
958.992000	-32.553585
959.198000	-18.279621
959.404000	0.535727
959.609000	-2.563146
959.815000	-13.429494
960.021000	6.000848
960.226000	-1.742811
960.432000	-35.441739
960.638000	-20.423791
960.843000	-14.318489
961.049000	-10.345206
961.255000	2.445782
961.460000	-9.379835
961.666000	-32.850211
961.872000	-15.344545
962.078000	-11.607478
962.283000	-32.176355
962.489000	-25.216022
962.695000	-16.097964
962.900000	-17.432038
963.106000	-13.190877
963.312000	-17.351011
963.517000	-27.511734
963.723000	-30.377739
963.929000	-4.954729
964.134000	8.174440
964.340000	-16.225613
964.546000	-10.347928
964.752000	-22.667194
964.957000	-42.175708
965.163000	-12.521813
965.369000	1.172672
965.574000	6.570182
965.780000	-13.905916
966.000000	-31.718375
966.220000	-18.884389
966.440000	-7.528263
966.661000	8.890973
966.881000	-12.551681
967.101000	-36.472177
967.321000	-44.004769
967.541000	-18.851950
967.761000	-19.070193
967.981000	-15.110398
968.202000	-13.735547
968.422000	-2.781319
968.642000	4.159144
968.862000	1.297410
969.082000	-28.396091
969.302000	-4.784530
969.522000	3.737961
969.743000	14.207618
969.963000	-8.280506
970.183000	-26.195626
970.403000	-35.615142
970.623000	-25.792337
970.843000	-14.753498
971.063000	-1.133032
971.284000	-16.972067
971.504000	-37.541482
971.724000	-4.374518
971.944000	-15.205601
972.164000	-34.060157
972.384000	-25.118486
972.604000	-48.460576
972.825000	-51.654976
973.045000	-20.827870
973.265000	32.200351
973.485000	0.136085
973.705000	-19.021853
973.925000	-4.723215
974.145000	-26.506172
974.365000	2.987852
974.586000	-17.745952
974.806000	-36.501931
975.026000	-3.448428
975.246000	-7.166432
975.466000	-22.368803
975.686000	-11.297459
975.906000	-20.613230
976.127000	-48.759045
976.347000	-28.952293
976.567000	-5.079352
976.787000	-2.097953
977.007000	-23.906240
977.227000	-22.572591
977.447000	-23.676084
977.668000	-36.592494
977.888000	-29.082835
978.108000	-36.459890
978.328000	-11.132980
978.548000	16.050846
978.768000	13.921816
978.988000	13.698464
979.209000	-11.616075
979.429000	-13.376095
979.649000	-0.662085
979.869000	-36.577955
980.089000	-47.813035
980.309000	-53.800981
980.529000	-63.980800
980.750000	-26.347304
980.970000	-38.069053
981.190000	-24.461846
981.410000	-37.098424
981.630000	-37.669169
981.850000	-24.703751
982.070000	-22.670652
982.291000	-46.127484
982.511000	-31.527719
982.731000	0.193756
982.951000	-17.334922
983.171000	-47.746961
983.391000	-37.635745
983.611000	5.111025
983.832000	-19.884453
984.052000	-49.683112
984.272000	-27.704218
984.492000	-17.126602
984.712000	-34.647113
984.932000	-63.229504
985.152000	-59.649558
985.373000	-30.802226
985.593000	-27.394032
985.813000	-35.023191
986.033000	-37.845742
986.253000	-5.374325
986.473000	-4.045766
986.693000	-37.053187
986.914000	-44.517117
987.134000	3.671291
987.354000	-30.113131
987.574000	215.667500
987.794000	148.898962
988.014000	-13.991822
988.234000	-5.889983
988.455000	-2.230881
988.675000	-25.908122
988.895000	-51.303383
989.115000	-49.324986
989.335000	-13.703917
989.555000	9.119505
989.775000	-34.327040
989.995000	-32.424311
990.216000	-20.145820
990.436000	-19.201046
990.656000	18.112391
990.876000	-12.096224
991.096000	0.273870
991.316000	30.116569
991.536000	-1.141953
991.757000	-16.973678
991.977000	-59.028542
992.197000	-31.597984
992.417000	-46.619375
992.637000	-85.743724
992.857000	-71.080048
993.077000	-63.041766
993.298000	-52.145535
993.518000	-40.461392
993.738000	-89.749905
993.958000	-4.212110
994.178000	-27.562832
994.398000	-45.064034
994.618000	-63.969108
994.839000	-133.170113
995.059000	-53.986926
995.279000	57.147541
995.499000	10.746106
995.719000	-18.035386
995.939000	-28.114934
996.159000	-15.727591
996.380000	-27.367910
996.600000	-48.259617
996.820000	0.358141
997.040000	11.293385
997.260000	-39.754813
997.480000	-29.958760
997.700000	-97.950062
997.921000	-45.708332
998.141000	22.425068
998.361000	-16.335919
998.581000	-54.892274
998.801000	-115.127234
999.021000	-67.646769
999.241000	-24.150117
999.462000	-36.089947
999.682000	-128.834992
999.902000	-99.291243
1000.122000	-91.359768
1000.342000	-153.553452
1000.562000	-65.919238
1000.782000	-64.797086
1001.003000	-1138.805290
