Wavelength	Irradiance
(nm)	(mW/cm2/nm)

294.396000	0.000000
294.577000	0.000000
294.757000	0.000000
294.938000	-0.000000
295.118000	-0.000000
295.299000	0.000000
295.479000	0.000000
295.660000	-0.000000
295.840000	-0.000000
296.021000	-0.000000
296.202000	-0.000000
296.382000	-0.000000
296.563000	-0.000000
296.743000	-0.000000
296.924000	0.000000
297.104000	-0.000000
297.285000	-0.000000
297.465000	-0.000000
297.646000	-0.000000
297.826000	0.000000
298.007000	0.000000
298.187000	-0.000000
298.368000	-0.000000
298.548000	0.000000
298.729000	0.000000
298.909000	-0.000000
299.090000	-0.000000
299.270000	-0.000000
299.451000	-0.000000
299.631000	-0.000000
299.812000	-0.000000
299.992000	0.000000
300.173000	0.000000
300.353000	-0.000000
300.534000	0.000000
300.714000	0.000000
300.895000	0.000000
301.075000	-0.000000
301.256000	0.000000
301.436000	-0.000000
301.617000	-0.000000
301.797000	-0.000000
301.978000	0.000000
302.159000	0.000000
302.339000	0.000000
302.520000	-0.000000
302.700000	-0.000000
302.881000	0.000000
303.061000	0.000000
303.242000	0.000000
303.422000	0.000000
303.603000	-0.000000
303.783000	-0.000000
303.964000	0.000000
304.144000	-0.000000
304.325000	-0.000000
304.505000	-0.000000
304.686000	-0.000000
304.866000	0.000000
305.047000	-0.000000
305.227000	-0.000000
305.408000	-0.000000
305.588000	-0.000000
305.769000	-0.000000
305.949000	-0.000000
306.130000	-0.000000
306.310000	-0.000000
306.491000	-0.000000
306.671000	0.000000
306.852000	-0.000000
307.032000	-0.000000
307.213000	0.000000
307.393000	-0.000000
307.574000	0.000000
307.755000	0.000000
307.935000	0.000000
308.116000	-0.000000
308.296000	-0.000000
308.477000	0.000000
308.657000	0.000000
308.838000	0.000000
309.018000	0.000000
309.199000	-0.000000
309.379000	-0.000000
309.560000	0.000000
309.740000	-0.000000
309.921000	0.000000
310.101000	0.000000
310.282000	-0.000000
310.462000	-0.000000
310.643000	-0.000000
310.823000	-0.000000
311.004000	-0.000000
311.184000	-0.000000
311.365000	0.000000
311.545000	0.000000
311.726000	0.000000
311.906000	-0.000000
312.087000	0.000000
312.267000	-0.000000
312.448000	-0.000000
312.628000	-0.000000
312.809000	-0.000000
312.989000	-0.000000
313.170000	-0.000000
313.344000	-0.000000
313.518000	-0.000000
313.691000	-0.000000
313.865000	-0.000000
314.039000	-0.000000
314.213000	-0.000000
314.387000	-0.000000
314.560000	-0.000000
314.734000	-0.000000
314.908000	-0.000000
315.082000	-0.000000
315.255000	0.000000
315.429000	0.000000
315.603000	0.000000
315.777000	-0.000000
315.951000	0.000000
316.124000	-0.000000
316.298000	-0.000000
316.472000	-0.000000
316.646000	-0.000000
316.820000	-0.000000
316.993000	0.000000
317.167000	-0.000000
317.341000	-0.000000
317.515000	-0.000000
317.688000	-0.000000
317.862000	-0.000000
318.036000	-0.000000
318.210000	-0.000000
318.384000	-0.000000
318.557000	-0.000000
318.731000	-0.000000
318.905000	-0.000000
319.079000	0.000000
319.253000	0.000000
319.426000	0.000000
319.600000	0.000000
319.774000	-0.000000
319.948000	-0.000000
320.122000	0.000000
320.295000	0.000000
320.469000	-0.000000
320.643000	-0.000000
320.817000	-0.000000
320.990000	-0.000000
321.164000	-0.000000
321.338000	-0.000000
321.512000	-0.000000
321.686000	-0.000000
321.859000	-0.000000
322.033000	0.000000
322.207000	-0.000000
322.381000	-0.000000
322.555000	0.000000
322.728000	0.000000
322.902000	-0.000000
323.076000	-0.000000
323.250000	-0.000000
323.423000	-0.000000
323.597000	-0.000000
323.771000	-0.000000
323.945000	-0.000000
324.119000	-0.000000
324.292000	0.000000
324.466000	-0.000000
324.640000	0.000000
324.814000	0.000000
324.988000	-0.000000
325.161000	-0.000000
325.335000	-0.000000
325.509000	-0.000000
325.683000	-0.000000
325.856000	-0.000000
326.030000	-0.000000
326.204000	-0.000000
326.378000	-0.000000
326.552000	-0.000000
326.725000	-0.000000
326.899000	-0.000000
327.073000	-0.000000
327.247000	-0.000000
327.421000	0.000000
327.594000	0.000000
327.768000	-0.000000
327.942000	-0.000000
328.116000	0.000000
328.289000	0.000000
328.463000	0.000000
328.637000	0.000000
328.811000	-0.000000
328.985000	-0.000000
329.158000	-0.000000
329.332000	-0.000000
329.506000	0.000000
329.680000	-0.000000
329.854000	-0.000000
330.027000	-0.000000
330.201000	0.000000
330.375000	0.000000
330.549000	0.000000
330.723000	-0.000000
330.896000	-0.000000
331.070000	-0.000000
331.244000	-0.000000
331.418000	-0.000000
331.591000	0.000000
331.765000	-0.000000
331.939000	-0.000000
332.113000	-0.000000
332.287000	-0.000000
332.460000	0.000000
332.634000	0.000000
332.808000	-0.000000
332.982000	-0.000000
333.156000	-0.000000
333.329000	-0.000000
333.503000	-0.000000
333.677000	-0.000000
333.851000	-0.000000
334.024000	0.000000
334.198000	-0.000000
334.372000	-0.000000
334.546000	-0.000000
334.720000	-0.000000
334.893000	-0.000000
335.067000	0.000000
335.241000	0.000000
335.415000	-0.000000
335.589000	-0.000000
335.762000	-0.000000
335.936000	-0.000000
336.110000	-0.000000
336.284000	-0.000000
336.458000	-0.000000
336.631000	-0.000000
336.805000	-0.000000
336.979000	-0.000000
337.153000	-0.000000
337.326000	-0.000000
337.500000	-0.000000
337.674000	-0.000000
337.848000	-0.000000
338.022000	0.000000
338.195000	-0.000000
338.369000	-0.000000
338.543000	-0.000000
338.717000	-0.000000
338.891000	0.000000
339.064000	0.000000
339.238000	-0.000000
339.412000	-0.000000
339.586000	-0.000000
339.759000	-0.000000
339.933000	-0.000000
340.107000	0.000000
340.281000	0.000000
340.455000	-0.000000
340.628000	-0.000000
340.802000	-0.000000
340.976000	-0.000000
341.150000	-0.000000
341.324000	-0.000000
341.497000	-0.000000
341.671000	-0.000000
341.845000	-0.000000
342.019000	-0.000000
342.192000	-0.000000
342.366000	-0.000000
342.540000	-0.000000
342.714000	-0.000000
342.888000	-0.000000
343.061000	0.000000
343.235000	-0.000000
343.409000	-0.000000
343.583000	-0.000000
343.757000	-0.000000
343.930000	-0.000000
344.104000	-0.000000
344.278000	0.000000
344.452000	0.000000
344.626000	-0.000000
344.799000	-0.000000
344.973000	-0.000000
345.147000	-0.000000
345.321000	-0.000000
345.494000	-0.000000
345.668000	0.000000
345.842000	0.000000
346.016000	-0.000000
346.190000	0.000000
346.363000	0.000000
346.537000	-0.000000
346.711000	-0.000000
346.885000	-0.000000
347.059000	-0.000000
347.232000	-0.000000
347.406000	0.000000
347.580000	-0.000000
347.754000	-0.000000
347.927000	0.000000
348.101000	0.000000
348.275000	-0.000000
348.449000	-0.000000
348.623000	-0.000000
348.796000	-0.000000
348.970000	0.000000
349.144000	-0.000000
349.318000	-0.000000
349.492000	-0.000000
349.665000	-0.000000
349.839000	-0.000000
350.013000	-0.000000
350.187000	-0.000000
350.361000	-0.000000
350.534000	-0.000000
350.708000	-0.000000
350.882000	-0.000000
351.056000	0.000000
351.229000	0.000000
351.403000	-0.000000
351.577000	-0.000000
351.751000	-0.000000
351.925000	-0.000000
352.098000	-0.000000
352.272000	-0.000000
352.446000	-0.000000
352.620000	-0.000000
352.794000	-0.000000
352.967000	-0.000000
353.141000	0.000000
353.315000	0.000000
353.489000	-0.000000
353.662000	-0.000000
353.836000	-0.000000
354.010000	-0.000000
354.184000	-0.000000
354.358000	-0.000000
354.531000	-0.000000
354.705000	-0.000000
354.879000	-0.000000
355.053000	-0.000000
355.227000	0.000000
355.400000	-0.000000
355.574000	0.000000
355.748000	0.000000
355.922000	-0.000000
356.095000	-0.000000
356.269000	-0.000000
356.443000	-0.000000
356.617000	-0.000000
356.791000	-0.000000
356.964000	-0.000000
357.138000	-0.000000
357.312000	-0.000000
357.486000	-0.000000
357.660000	0.000000
357.833000	-0.000000
358.007000	-0.000000
358.181000	-0.000000
358.355000	-0.000000
358.529000	-0.000000
358.702000	-0.000000
358.876000	-0.000000
359.050000	-0.000000
359.224000	-0.000000
359.397000	0.000000
359.571000	-0.000000
359.745000	-0.000000
359.919000	-0.000000
360.093000	-0.011263
360.266000	0.070932
360.440000	0.098789
360.614000	0.113045
360.788000	0.046397
360.962000	-0.170264
361.135000	-0.080368
361.309000	-0.158883
361.483000	-0.269013
361.657000	-0.208385
361.830000	-0.212623
362.004000	-0.020344
362.178000	-0.300858
362.352000	-0.195235
362.526000	-0.064177
362.699000	-0.061971
362.873000	-0.363283
363.047000	-0.335288
363.221000	-0.310672
363.395000	-0.168211
363.568000	-0.163582
363.742000	-0.170008
363.916000	-0.188763
364.090000	-0.302635
364.263000	-0.238757
364.437000	-0.320238
364.611000	-0.076248
364.785000	-0.079870
364.959000	-0.212273
365.132000	-0.188859
365.306000	-0.229907
365.480000	-0.104135
365.656000	-0.187106
365.831000	-0.161852
366.007000	-0.187765
366.183000	-0.150840
366.358000	-0.234667
366.534000	-0.131376
366.710000	-0.289117
366.886000	-0.232709
367.061000	-0.087598
367.237000	0.035738
367.413000	-0.103807
367.588000	-0.296300
367.764000	-0.279371
367.940000	-0.288689
368.115000	-0.271972
368.291000	-0.284479
368.467000	-0.134195
368.643000	0.165635
368.818000	-0.219942
368.994000	-0.333191
369.170000	-0.232929
369.345000	-0.181363
369.521000	-0.211604
369.697000	-0.120650
369.872000	-0.210956
370.048000	-0.302911
370.224000	-0.235258
370.399000	-0.443776
370.575000	-0.362454
370.751000	-0.443789
370.927000	-0.407836
371.102000	-0.344017
371.278000	-0.294477
371.454000	-0.186959
371.629000	0.016251
371.805000	-0.043710
371.981000	0.108676
372.156000	0.284848
372.332000	0.092122
372.508000	-0.044993
372.683000	-0.036029
372.859000	-0.113860
373.035000	-0.147963
373.211000	0.156083
373.386000	-0.025319
373.562000	-0.349378
373.738000	-0.419504
373.913000	-0.583514
374.089000	-0.429077
374.265000	0.010107
374.440000	-0.006373
374.616000	-0.015262
374.792000	-0.171989
374.968000	0.240389
375.143000	0.001247
375.319000	-0.278079
375.495000	-0.354099
375.670000	-0.208814
375.846000	-0.105298
376.022000	-0.257131
376.197000	-0.188434
376.373000	-0.370598
376.549000	-0.406259
376.724000	-0.444321
376.900000	-0.310887
377.076000	-0.141788
377.252000	0.070101
377.427000	0.148386
377.603000	-0.190842
377.779000	-0.166279
377.954000	-0.343270
378.130000	-0.206925
378.306000	-0.119740
378.481000	-0.127766
378.657000	-0.233649
378.833000	-0.248968
379.009000	-0.083339
379.184000	0.032941
379.360000	-0.065304
379.536000	-0.064627
379.711000	-0.143797
379.887000	-0.214968
380.063000	-0.254982
380.238000	-0.323709
380.414000	-0.010890
380.590000	-0.257788
380.765000	-0.303273
380.941000	-0.105984
381.117000	-0.080178
381.293000	-0.112225
381.468000	-0.258548
381.644000	-0.212080
381.820000	-0.103135
381.995000	0.041174
382.171000	0.193457
382.347000	0.092358
382.522000	-0.269477
382.698000	0.107008
382.874000	0.103246
383.050000	-0.315418
383.225000	0.095318
383.401000	0.290524
383.577000	-0.098748
383.752000	-0.229555
383.928000	-0.132413
384.104000	-0.068477
384.279000	-0.176225
384.455000	-0.097515
384.631000	-0.136959
384.806000	-0.347416
384.982000	-0.146658
385.158000	-0.196030
385.334000	-0.035527
385.509000	-0.120107
385.685000	-0.416725
385.861000	-0.223483
386.036000	-0.334776
386.212000	-0.494494
386.388000	-0.301239
386.563000	-0.255862
386.739000	-0.318146
386.915000	-0.551374
387.090000	-0.291406
387.266000	-0.089627
387.442000	0.027460
387.618000	-0.036719
387.793000	-0.315389
387.969000	-0.476423
388.145000	-0.385761
388.320000	-0.324525
388.496000	-0.319324
388.672000	-0.542209
388.847000	-0.101374
389.023000	-0.041523
389.199000	-0.354188
389.375000	-0.183385
389.550000	-0.283492
389.726000	-0.122807
389.902000	-0.354629
390.077000	-0.190811
390.253000	-0.124699
390.429000	-0.203530
390.604000	-0.118687
390.780000	-0.092373
390.956000	-0.223927
391.131000	-0.250134
391.307000	0.033606
391.483000	-0.159859
391.659000	-0.304495
391.834000	-0.062489
392.010000	-0.218415
392.186000	-0.292682
392.361000	-0.221434
392.537000	-0.338716
392.713000	0.124234
392.888000	0.241989
393.064000	-0.073315
393.240000	-0.235387
393.416000	-0.314569
393.591000	-0.394621
393.767000	-0.430298
393.943000	-0.329720
394.118000	-0.075493
394.294000	0.112602
394.470000	0.016847
394.645000	0.081728
394.821000	0.217328
394.997000	-0.091761
395.172000	-0.093503
395.348000	-0.197413
395.524000	-0.487620
395.700000	-0.350332
395.875000	-0.091712
396.051000	-0.111456
396.227000	-0.191221
396.402000	-0.268236
396.578000	-0.193975
396.754000	-0.321537
396.929000	-0.257184
397.105000	0.005511
397.281000	-0.095856
397.457000	-0.173577
397.632000	-0.180444
397.808000	-0.456171
397.984000	-0.601223
398.159000	-0.482483
398.335000	-0.305958
398.511000	0.176231
398.686000	-0.051392
398.862000	-0.285636
399.038000	-0.368312
399.213000	-0.154179
399.389000	-0.449625
399.565000	-0.136458
399.741000	0.041108
399.916000	-0.055704
400.092000	0.246726
400.268000	-0.120731
400.443000	-0.255249
400.619000	0.074037
400.795000	-0.033876
400.970000	-0.201645
401.146000	-0.284707
401.322000	-0.004359
401.497000	0.431265
401.673000	0.102898
401.849000	-0.216026
402.025000	-0.032593
402.200000	-0.176604
402.376000	-0.258834
402.552000	0.147895
402.727000	-0.061695
402.903000	-0.357512
403.079000	-0.224812
403.254000	0.012981
403.430000	0.013969
403.606000	-0.065655
403.782000	-0.116096
403.957000	-0.302922
404.133000	-0.450693
404.309000	-0.278761
404.484000	-0.068903
404.660000	-0.093927
404.841000	-0.207413
405.023000	0.021487
405.204000	-0.033404
405.385000	-0.333405
405.566000	-0.344837
405.748000	-0.197083
405.929000	0.033923
406.110000	-0.045429
406.292000	-0.175618
406.473000	-0.109496
406.654000	-0.271587
406.835000	-0.107832
407.017000	-0.160063
407.198000	-0.147655
407.379000	-0.131358
407.560000	-0.167899
407.742000	-0.209896
407.923000	-0.135682
408.104000	-0.303298
408.286000	-0.173268
408.467000	-0.108824
408.648000	-0.326412
408.829000	-0.370055
409.011000	-0.240248
409.192000	-0.397687
409.373000	-0.175560
409.555000	-0.069594
409.736000	-0.089334
409.917000	-0.201748
410.098000	-0.185567
410.280000	-0.075795
410.461000	-0.074610
410.642000	-0.089486
410.823000	0.150492
411.005000	0.093782
411.186000	-0.150785
411.367000	-0.252229
411.549000	-0.250992
411.730000	0.001054
411.911000	0.111566
412.092000	-0.076604
412.274000	-0.110396
412.455000	-0.054268
412.636000	-0.056407
412.818000	-0.268430
412.999000	-0.343085
413.180000	-0.243273
413.361000	-0.234788
413.543000	-0.285430
413.724000	-0.350956
413.905000	-0.339579
414.087000	-0.345476
414.268000	-0.341690
414.449000	-0.346441
414.630000	-0.404548
414.812000	-0.520108
414.993000	-0.184814
415.174000	-0.020431
415.355000	-0.198379
415.537000	-0.431841
415.718000	-0.134193
415.899000	-0.235925
416.081000	-0.352940
416.262000	-0.152254
416.443000	-0.286533
416.624000	-0.253546
416.806000	-0.132583
416.987000	0.002034
417.168000	-0.085922
417.350000	-0.253663
417.531000	-0.298347
417.712000	-0.285265
417.893000	-0.046188
418.075000	0.036012
418.256000	-0.212684
418.437000	-0.114828
418.618000	-0.034124
418.800000	0.042087
418.981000	-0.166513
419.162000	-0.153554
419.344000	0.040884
419.525000	-0.059151
419.706000	-0.132484
419.887000	-0.011018
420.069000	0.110066
420.250000	0.025008
420.431000	-0.019958
420.613000	-0.067176
420.794000	-0.288300
420.975000	0.052690
421.156000	-0.121520
421.338000	-0.166208
421.519000	-0.145278
421.700000	-0.236527
421.882000	-0.224511
422.063000	-0.045787
422.244000	0.359497
422.425000	0.172979
422.607000	-0.171775
422.788000	-0.204974
422.969000	-0.269092
423.150000	-0.301216
423.332000	-0.348919
423.513000	-0.147172
423.694000	-0.102962
423.876000	-0.059796
424.057000	0.020932
424.238000	0.064032
424.419000	0.065222
424.601000	-0.103339
424.782000	-0.048109
424.963000	0.090450
425.145000	-0.032890
425.326000	0.044658
425.507000	0.136748
425.688000	-0.008964
425.870000	-0.156990
426.051000	-0.260191
426.232000	-0.196617
426.413000	-0.184788
426.595000	-0.193757
426.776000	-0.191681
426.957000	-0.126676
427.139000	-0.049662
427.320000	-0.011971
427.501000	0.107162
427.682000	0.077736
427.864000	0.082672
428.045000	0.243746
428.226000	0.175443
428.408000	-0.159251
428.589000	-0.014960
428.770000	0.012936
428.951000	-0.087417
429.133000	-0.231756
429.314000	-0.078133
429.495000	-0.088716
429.677000	-0.060343
429.858000	-0.061398
430.039000	0.028752
430.220000	0.106105
430.402000	0.181890
430.583000	-0.053506
430.764000	-0.042437
430.945000	0.096905
431.127000	0.179663
431.308000	0.046909
431.489000	0.155263
431.671000	0.228915
431.852000	0.148976
432.033000	0.081358
432.214000	0.166309
432.396000	0.207826
432.577000	0.041070
432.758000	-0.121576
432.940000	-0.048970
433.121000	0.067508
433.302000	0.142369
433.483000	0.335754
433.665000	0.422596
433.846000	0.311529
434.027000	0.174138
434.208000	0.111109
434.390000	0.064002
434.571000	0.465667
434.752000	0.909054
434.934000	0.752759
435.115000	0.684552
435.296000	0.732321
435.477000	0.556960
435.659000	0.325736
435.840000	0.393218
436.026000	0.363645
436.211000	0.234596
436.397000	-0.027329
436.582000	0.097068
436.768000	0.321098
436.953000	0.235090
437.139000	0.275864
437.325000	0.526883
437.510000	0.488512
437.696000	0.675397
437.881000	0.666890
438.067000	0.307028
438.252000	0.328544
438.438000	0.302417
438.624000	0.340350
438.809000	0.415411
438.995000	0.530848
439.180000	0.470511
439.366000	0.428791
439.551000	0.423643
439.737000	0.475747
439.923000	0.555001
440.108000	0.451087
440.294000	0.549845
440.479000	0.693032
440.665000	0.747109
440.850000	0.678433
441.036000	0.682675
441.222000	0.640462
441.407000	0.516015
441.593000	0.657011
441.778000	0.771593
441.964000	0.884306
442.149000	0.595036
442.335000	0.581378
442.521000	0.711269
442.706000	0.879955
442.892000	0.792458
443.077000	0.751727
443.263000	0.868520
443.448000	0.804922
443.634000	0.780896
443.820000	1.129412
444.005000	0.992609
444.191000	0.779656
444.376000	0.801217
444.562000	1.171559
444.747000	1.153342
444.933000	1.055583
445.119000	0.995126
445.304000	0.941499
445.490000	1.130941
445.675000	1.140770
445.861000	0.986340
446.046000	1.019582
446.232000	1.132842
446.418000	1.226311
446.603000	1.219286
446.789000	1.250656
446.974000	1.244080
447.160000	1.037589
447.345000	1.189489
447.531000	1.185031
447.717000	1.362488
447.902000	1.446723
448.088000	1.533502
448.273000	1.483787
448.459000	1.443857
448.644000	1.399490
448.830000	1.360261
449.016000	1.310435
449.201000	1.409241
449.387000	1.573143
449.572000	1.700556
449.758000	1.621926
449.943000	1.553439
450.129000	1.523454
450.315000	1.554512
450.500000	1.579631
450.686000	1.675218
450.871000	1.601071
451.057000	1.812460
451.243000	1.808671
451.428000	1.830653
451.614000	1.845819
451.799000	1.839635
451.985000	2.081916
452.170000	2.112088
452.356000	1.915245
452.542000	1.973413
452.727000	2.130084
452.913000	2.065127
453.098000	2.243265
453.284000	2.363232
453.469000	2.265363
453.655000	2.397395
453.841000	2.364119
454.026000	2.200155
454.212000	2.267510
454.397000	2.320857
454.583000	2.163541
454.768000	2.094572
454.954000	2.332688
455.140000	2.366273
455.325000	2.205197
455.511000	2.162371
455.696000	2.203569
455.882000	2.350551
456.067000	2.532060
456.253000	2.359347
456.439000	2.260462
456.624000	2.247199
456.810000	2.240188
456.995000	2.304716
457.181000	2.233146
457.366000	2.411467
457.552000	2.408141
457.738000	2.497340
457.923000	2.481190
458.109000	2.606604
458.294000	2.494461
458.480000	2.457135
458.665000	2.417766
458.851000	2.264971
459.037000	2.072195
459.222000	2.250068
459.408000	2.272135
459.593000	2.264413
459.779000	2.342888
459.964000	2.505804
460.150000	2.649031
460.336000	2.483373
460.521000	2.239954
460.707000	2.121481
460.892000	1.993095
461.078000	2.182590
461.263000	2.224827
461.449000	2.048111
461.635000	2.034687
461.820000	1.991396
462.006000	2.058630
462.191000	2.039154
462.377000	1.816224
462.562000	2.036472
462.748000	2.150933
462.934000	1.777511
463.119000	1.638254
463.305000	1.775923
463.490000	1.671867
463.676000	1.745144
463.861000	1.672425
464.047000	1.593319
464.233000	1.650720
464.418000	1.588930
464.604000	1.461819
464.789000	1.618522
464.975000	1.632772
465.160000	1.470803
465.346000	1.451333
465.532000	1.354684
465.717000	1.316772
465.903000	1.532493
466.088000	1.426082
466.274000	1.195440
466.459000	1.179087
466.645000	1.528989
466.831000	1.462608
467.016000	1.413476
467.202000	1.308999
467.387000	1.188670
467.573000	1.024140
467.758000	1.299886
467.944000	1.164648
468.130000	1.058261
468.315000	1.182006
468.501000	1.279184
468.686000	1.142991
468.872000	1.141860
469.057000	1.170456
469.243000	1.084514
469.429000	1.059353
469.614000	0.964952
469.800000	0.883743
469.985000	1.019499
470.171000	1.068475
470.356000	0.940753
470.542000	1.015777
470.728000	1.019847
470.913000	0.952242
471.099000	1.059251
471.284000	0.974289
471.470000	0.901292
471.655000	0.909783
471.841000	0.907656
472.027000	0.834283
472.212000	1.007568
472.398000	1.059265
472.583000	0.952162
472.769000	0.952423
472.954000	0.903999
473.140000	0.732016
473.326000	0.719370
473.511000	1.012457
473.697000	0.971413
473.882000	0.840616
474.068000	0.773930
474.253000	0.670886
474.439000	0.744596
474.625000	0.807437
474.810000	0.823886
474.996000	0.831443
475.181000	0.665709
475.367000	0.825457
475.552000	1.024245
475.738000	0.702608
475.924000	0.683032
476.109000	0.783207
476.295000	0.678586
476.480000	0.743583
476.666000	0.733390
476.851000	0.730736
477.037000	0.767189
477.223000	0.662133
477.408000	0.548150
477.594000	0.488715
477.779000	0.634286
477.965000	0.655709
478.151000	0.525367
478.336000	0.677394
478.522000	0.620596
478.707000	0.563090
478.893000	0.655141
479.078000	0.520853
479.264000	0.512633
479.450000	0.587295
479.635000	0.717001
479.821000	0.649093
480.006000	0.713916
480.192000	0.693512
480.377000	0.701865
480.563000	0.687503
480.749000	0.510830
480.934000	0.533064
481.120000	0.649890
481.305000	0.747211
481.491000	0.756323
481.676000	0.809727
481.862000	0.810073
482.048000	0.659417
482.233000	0.691189
482.419000	0.699581
482.604000	0.643332
482.790000	0.634232
482.975000	0.700202
483.161000	0.849705
483.347000	0.848343
483.532000	0.815965
483.718000	0.565773
483.903000	0.634252
484.089000	0.688104
484.274000	0.578703
484.460000	0.762780
484.646000	0.830398
484.831000	0.715538
485.017000	0.780686
485.202000	0.825306
485.388000	1.082310
485.573000	1.057565
485.759000	0.869051
485.945000	1.023425
486.130000	0.861020
486.316000	0.869663
486.501000	0.970602
486.687000	0.823999
486.872000	0.812695
487.058000	1.006181
487.244000	0.994737
487.429000	0.812130
487.615000	0.987520
487.800000	1.100905
487.986000	0.997831
488.171000	1.130788
488.357000	1.091045
488.543000	1.101238
488.728000	1.172450
488.914000	1.113506
489.099000	1.030043
489.285000	1.038252
489.470000	1.228960
489.656000	1.249222
489.842000	1.254064
490.027000	1.364061
490.213000	1.233849
490.398000	0.986864
490.584000	1.272536
490.769000	1.309503
490.955000	1.350795
491.141000	1.385376
491.326000	1.382731
491.512000	1.532476
491.697000	1.442954
491.883000	1.351995
492.068000	1.314805
492.254000	1.377318
492.440000	1.458634
492.625000	1.418471
492.811000	1.426549
492.996000	1.552111
493.182000	1.586389
493.367000	1.449591
493.553000	1.412829
493.739000	1.543120
493.924000	1.688376
494.110000	1.712073
494.295000	1.618559
494.481000	1.756082
494.666000	1.803745
494.852000	1.960892
495.038000	1.860037
495.223000	1.777419
495.409000	1.848334
495.594000	1.851393
495.780000	1.928805
495.965000	1.919200
496.151000	2.115933
496.337000	2.207625
496.522000	2.034005
496.708000	2.132872
496.893000	2.305619
497.079000	2.217177
497.264000	2.216528
497.450000	2.271908
497.636000	2.426912
497.821000	2.311746
498.007000	2.562474
498.192000	2.634541
498.378000	2.535199
498.563000	2.523090
498.749000	2.637757
498.935000	2.668211
499.120000	2.754777
499.306000	2.634008
499.491000	2.656193
499.677000	2.828304
499.862000	2.947341
500.048000	3.025097
500.234000	2.983051
500.419000	3.039474
500.605000	3.262095
500.790000	3.207506
500.976000	3.106964
501.161000	3.055810
501.347000	3.277080
501.533000	3.462593
501.718000	3.447612
501.904000	3.447721
502.089000	3.592131
502.275000	3.697955
502.460000	3.652617
502.646000	3.726517
502.832000	3.815496
503.017000	3.853453
503.203000	3.717483
503.388000	3.750991
503.574000	4.025288
503.759000	4.154692
503.945000	4.239050
504.131000	4.210869
504.316000	4.242227
504.502000	4.358636
504.687000	4.365930
504.873000	4.279281
505.058000	4.342476
505.244000	4.407317
505.430000	4.528789
505.615000	4.689245
505.801000	4.775580
505.986000	4.647542
506.172000	4.803252
506.358000	4.913693
506.543000	4.940791
506.729000	5.178346
506.914000	5.222482
507.100000	5.373992
507.285000	5.239661
507.471000	5.228710
507.657000	5.536432
507.842000	5.436867
508.028000	5.347073
508.213000	5.437285
508.399000	5.605524
508.584000	5.789511
508.770000	5.716266
508.956000	5.736891
509.141000	5.830724
509.327000	5.956581
509.512000	5.914726
509.698000	5.999895
509.883000	6.146658
510.069000	6.129344
510.255000	6.182178
510.440000	6.292374
510.626000	6.257407
510.811000	6.260512
510.997000	6.371179
511.182000	6.643957
511.368000	6.578799
511.554000	6.275220
511.739000	6.385635
511.925000	6.617268
512.110000	6.672325
512.296000	6.845204
512.481000	6.839837
512.667000	6.800609
512.853000	6.627827
513.038000	6.772777
513.224000	6.767754
513.409000	6.700332
513.595000	6.859632
513.780000	6.721814
513.966000	6.819611
514.152000	6.781953
514.337000	6.722467
514.523000	6.811235
514.708000	6.893843
514.894000	6.928479
515.079000	6.801431
515.265000	6.844881
515.451000	6.890110
515.636000	6.792166
515.822000	6.876521
516.007000	6.771197
516.193000	6.944434
516.378000	7.025579
516.564000	6.904568
516.750000	6.896546
516.935000	6.977430
517.121000	6.979815
517.306000	7.046506
517.492000	6.963876
517.677000	6.690780
517.863000	6.697986
518.049000	6.802179
518.234000	6.642886
518.420000	6.736905
518.605000	6.920950
518.791000	6.874286
518.976000	6.665175
519.162000	6.526765
519.348000	6.635682
519.533000	6.525370
519.719000	6.637970
519.904000	6.536364
520.090000	6.491047
520.275000	6.637191
520.461000	6.496291
520.647000	6.271509
520.832000	6.088319
521.018000	6.124112
521.203000	6.077985
521.389000	5.883659
521.574000	5.930700
521.760000	6.037825
521.946000	6.011992
522.131000	5.897281
522.317000	5.863491
522.502000	5.750281
522.688000	5.857583
522.873000	5.778488
523.059000	5.628921
523.245000	5.591460
523.430000	5.453104
523.616000	5.476312
523.801000	5.311683
523.987000	5.352047
524.172000	5.428912
524.358000	5.408666
524.544000	5.341248
524.729000	5.336065
524.915000	5.304555
525.100000	5.141129
525.286000	5.144223
525.471000	5.093181
525.657000	5.053927
525.843000	4.775870
526.028000	4.925873
526.214000	4.821267
526.399000	4.663949
526.585000	4.559545
526.770000	4.495351
526.956000	4.584071
527.142000	4.448801
527.327000	4.547468
527.513000	4.393967
527.698000	4.377540
527.884000	4.372062
528.069000	4.269359
528.255000	4.349118
528.441000	4.182866
528.626000	4.186498
528.812000	4.367246
528.997000	4.165459
529.183000	4.006926
529.368000	4.027074
529.554000	3.987430
529.740000	3.963742
529.925000	3.876869
530.111000	3.832974
530.296000	3.844087
530.482000	3.890203
530.667000	3.755963
530.853000	3.765631
531.039000	3.664781
531.224000	3.722342
531.410000	3.757479
531.595000	3.610989
531.781000	3.617067
531.967000	3.452269
532.152000	3.586503
532.338000	3.414872
532.523000	3.223063
532.709000	3.173984
532.894000	3.292028
533.080000	3.279416
533.266000	3.081509
533.451000	2.985109
533.637000	2.985048
533.822000	3.165197
534.008000	2.989416
534.193000	2.983303
534.379000	3.063897
534.565000	2.967301
534.750000	2.920302
534.936000	3.092728
535.121000	2.908120
535.307000	2.925684
535.492000	2.902791
535.678000	2.663472
535.864000	2.775597
536.049000	2.963426
536.235000	2.748728
536.420000	2.739923
536.606000	2.637964
536.791000	2.503464
536.977000	2.469933
537.163000	2.715754
537.348000	2.661762
537.534000	2.640900
537.719000	2.422681
537.905000	2.284314
538.090000	2.495054
538.276000	2.544879
538.462000	2.471750
538.647000	2.462900
538.833000	2.335487
539.018000	2.399034
539.204000	2.336228
539.389000	2.173048
539.575000	2.469482
539.761000	2.380660
539.946000	2.081470
540.132000	2.196231
540.317000	2.045356
540.503000	2.157890
540.688000	2.163037
540.874000	2.403898
541.060000	2.517848
541.245000	2.287752
541.431000	2.137078
541.616000	2.182879
541.802000	2.123823
541.987000	2.158535
542.173000	2.108321
542.359000	2.006226
542.544000	2.131688
542.730000	1.946841
542.915000	1.931293
543.101000	2.086776
543.286000	1.891962
543.472000	1.770498
543.658000	1.841874
543.843000	1.841532
544.029000	2.025631
544.214000	1.841977
544.400000	1.517240
544.585000	1.696630
544.771000	1.754485
544.957000	1.914523
545.142000	1.993298
545.328000	2.031288
545.513000	2.044024
545.699000	1.981952
545.884000	1.804456
546.070000	1.729312
546.261000	1.641310
546.451000	1.450161
546.642000	1.247016
546.833000	1.354190
547.023000	1.216576
547.214000	1.202236
547.405000	1.361135
547.595000	1.624712
547.786000	1.530116
547.977000	1.295256
548.167000	1.144016
548.358000	1.189112
548.549000	1.552151
548.740000	1.305826
548.930000	0.952648
549.121000	1.066021
549.312000	1.008862
549.502000	0.907255
549.693000	1.029195
549.884000	1.107498
550.074000	1.186536
550.265000	0.939350
550.456000	1.032861
550.646000	1.137263
550.837000	1.087189
551.028000	0.924402
551.218000	1.033629
551.409000	0.903884
551.600000	0.925816
551.790000	1.033568
551.981000	0.773280
552.172000	0.788556
552.362000	1.132858
552.553000	1.138615
552.744000	0.939134
552.934000	0.881131
553.125000	0.791648
553.316000	0.732124
553.506000	1.055876
553.697000	0.875444
553.888000	0.874983
554.079000	0.999534
554.269000	0.934770
554.460000	0.620429
554.651000	0.582116
554.841000	0.471198
555.032000	0.557625
555.223000	0.670305
555.413000	0.810108
555.604000	0.722306
555.795000	0.628368
555.985000	0.703864
556.176000	0.621977
556.367000	0.353938
556.557000	0.520111
556.748000	0.584624
556.939000	0.508298
557.129000	0.389912
557.320000	0.555178
557.511000	0.522509
557.701000	0.504257
557.892000	0.531431
558.083000	0.758049
558.273000	0.635831
558.464000	0.430468
558.655000	0.455204
558.845000	0.553999
559.036000	0.599050
559.227000	0.526463
559.418000	0.611515
559.608000	0.637471
559.799000	0.337962
559.990000	0.316646
560.180000	0.368095
560.371000	0.201183
560.562000	0.256253
560.752000	0.434724
560.943000	0.252256
561.134000	0.068317
561.324000	0.319509
561.515000	0.564319
561.706000	0.377715
561.896000	0.193307
562.087000	0.310669
562.278000	0.260946
562.468000	0.084190
562.659000	0.182990
562.850000	0.510547
563.040000	0.584867
563.231000	0.116418
563.422000	0.250336
563.612000	0.168867
563.803000	0.238346
563.994000	0.158135
564.185000	0.073602
564.375000	0.289407
564.566000	0.271990
564.757000	0.240659
564.947000	0.146361
565.138000	0.275759
565.329000	0.219950
565.519000	0.065845
565.710000	0.132886
565.901000	0.367018
566.091000	0.462421
566.282000	0.243937
566.473000	0.236838
566.663000	0.221778
566.854000	0.072581
567.045000	0.181505
567.235000	0.231823
567.426000	0.282071
567.617000	0.305085
567.807000	0.240410
567.998000	0.258697
568.189000	0.118888
568.379000	0.177880
568.570000	0.273201
568.761000	0.185551
568.951000	0.139718
569.142000	0.103634
569.333000	0.082906
569.524000	-0.028908
569.714000	-0.111494
569.905000	-0.218483
570.096000	0.196803
570.286000	0.284003
570.477000	0.423822
570.668000	0.231704
570.858000	0.186584
571.049000	0.053123
571.240000	-0.052127
571.430000	0.189863
571.621000	0.101715
571.812000	0.153976
572.002000	0.194842
572.193000	0.053697
572.384000	0.163046
572.574000	0.180407
572.765000	0.095098
572.956000	0.054460
573.146000	0.220187
573.337000	0.080642
573.528000	0.088551
573.718000	0.237861
573.909000	0.252555
574.100000	0.170765
574.290000	0.033845
574.481000	0.058600
574.672000	0.057672
574.863000	0.169356
575.053000	0.041517
575.244000	0.123271
575.435000	-0.012808
575.625000	-0.030407
575.816000	-0.008817
576.007000	0.096007
576.197000	0.124613
576.388000	0.108490
576.579000	0.223748
576.769000	0.202017
576.960000	-0.075089
577.155000	-0.230481
577.350000	0.034967
577.545000	0.172570
577.740000	-0.022232
577.935000	0.246943
578.130000	0.226862
578.326000	-0.018286
578.521000	0.202977
578.716000	0.197255
578.911000	-0.054520
579.106000	0.088620
579.301000	0.182398
579.496000	0.015152
579.691000	-0.236549
579.886000	-0.042468
580.081000	0.085747
580.276000	0.098696
580.471000	-0.023495
580.666000	-0.139788
580.861000	-0.145366
581.057000	-0.134199
581.252000	0.006571
581.447000	-0.058067
581.642000	-0.062856
581.837000	-0.035602
582.032000	-0.012145
582.227000	0.171826
582.422000	0.124226
582.617000	-0.027686
582.812000	-0.130708
583.007000	-0.080958
583.202000	-0.151517
583.397000	0.089678
583.592000	0.296879
583.788000	0.007284
583.983000	-0.018194
584.178000	0.075385
584.373000	-0.073348
584.568000	-0.099399
584.763000	-0.153766
584.958000	-0.203500
585.153000	-0.085024
585.348000	-0.062377
585.543000	0.075110
585.738000	0.037990
585.933000	-0.190904
586.128000	0.039795
586.324000	0.057129
586.519000	0.078835
586.714000	0.154167
586.909000	0.218943
587.104000	0.184124
587.299000	0.055443
587.494000	0.059906
587.689000	-0.001819
587.884000	0.011858
588.079000	-0.046525
588.274000	-0.008225
588.469000	-0.038308
588.664000	0.062104
588.859000	0.059450
589.055000	0.044868
589.250000	0.010077
589.445000	-0.134831
589.640000	-0.110155
589.835000	0.151825
590.030000	0.225371
590.225000	0.231853
590.420000	0.001843
590.615000	-0.101437
590.810000	-0.063557
591.005000	-0.048094
591.200000	-0.143417
591.395000	-0.169299
591.591000	-0.038789
591.786000	0.050752
591.981000	-0.064785
592.176000	0.003710
592.371000	0.022266
592.566000	-0.045426
592.761000	0.151091
592.956000	0.103064
593.151000	0.156067
593.346000	0.049372
593.541000	0.072585
593.736000	0.036404
593.931000	-0.114864
594.126000	-0.036474
594.322000	-0.000935
594.517000	-0.089761
594.712000	-0.224500
594.907000	-0.253472
595.102000	-0.121262
595.297000	0.036637
595.492000	0.114852
595.687000	-0.071690
595.882000	-0.151947
596.077000	-0.053899
596.272000	0.101159
596.467000	0.116323
596.662000	-0.016093
596.857000	-0.002851
597.053000	0.001904
597.248000	0.033306
597.443000	0.053361
597.638000	-0.018148
597.833000	-0.227547
598.028000	-0.023872
598.223000	0.094717
598.418000	-0.021086
598.613000	-0.117873
598.808000	-0.011509
599.003000	-0.022082
599.198000	-0.179763
599.393000	-0.144151
599.589000	-0.020236
599.784000	-0.179359
599.979000	-0.084018
600.174000	0.106303
600.369000	-0.116088
600.564000	-0.053276
600.759000	0.167773
600.954000	0.276892
601.149000	0.112650
601.344000	-0.199282
601.539000	-0.021411
601.734000	-0.117608
601.929000	-0.355663
602.124000	-0.290620
602.320000	-0.044939
602.515000	0.209095
602.710000	0.136095
602.905000	-0.207540
603.100000	-0.243369
603.295000	-0.131210
603.490000	-0.062847
603.685000	-0.036340
603.880000	-0.043267
604.075000	-0.202097
604.270000	-0.205489
604.465000	-0.126359
604.660000	-0.307260
604.856000	-0.161908
605.051000	0.008902
605.246000	0.000000
605.441000	-0.251220
605.636000	-0.302737
605.831000	-0.159576
606.026000	-0.248677
606.221000	-0.271835
606.416000	-0.078476
606.611000	0.108386
606.806000	0.097359
607.001000	0.249678
607.196000	-0.014935
607.391000	-0.224336
607.587000	-0.026975
607.782000	-0.037014
607.977000	-0.216572
608.172000	0.142162
608.367000	0.165186
608.562000	-0.045141
608.757000	-0.078219
608.952000	-0.115591
609.147000	0.255992
609.342000	0.157855
609.537000	-0.049357
609.732000	-0.005044
609.927000	-0.046317
610.122000	0.068586
610.318000	0.435137
610.513000	0.517183
610.708000	0.335726
610.903000	0.404942
611.098000	0.484939
611.293000	0.446509
611.488000	0.443525
611.683000	0.393467
611.878000	0.348839
612.073000	0.340799
612.268000	0.309599
612.463000	0.374597
612.658000	0.319484
612.854000	0.225029
613.049000	0.126891
613.244000	0.271335
613.439000	0.319582
613.634000	0.002054
613.829000	0.124285
614.024000	0.010296
614.219000	-0.002059
614.414000	0.266799
614.609000	0.009285
614.804000	-0.140341
614.999000	-0.144337
615.194000	-0.083726
615.389000	-0.024837
615.585000	-0.172104
615.780000	0.013489
615.975000	-0.046787
616.170000	-0.054104
616.365000	0.182266
616.560000	0.278353
616.755000	0.161036
616.950000	0.073230
617.145000	0.150783
617.340000	-0.006289
617.535000	-0.262021
617.730000	-0.047228
617.925000	-0.213398
618.120000	-0.263939
618.316000	0.090631
618.511000	-0.003164
618.706000	-0.188421
618.901000	-0.156584
619.096000	0.016992
619.291000	-0.044566
619.486000	0.007451
619.681000	-0.268455
619.876000	-0.324776
620.071000	-0.182248
620.266000	0.097221
620.461000	0.210845
620.656000	0.129745
620.852000	0.065326
621.047000	-0.066560
621.242000	-0.175218
621.437000	0.145465
621.632000	0.234323
621.827000	0.031343
622.022000	-0.250938
622.217000	-0.088933
622.412000	0.093372
622.607000	0.116285
622.802000	-0.115258
622.997000	-0.178946
623.192000	-0.056734
623.387000	0.009821
623.583000	-0.268984
623.778000	0.025218
623.973000	0.074608
624.168000	0.071486
624.363000	0.119691
624.558000	0.174894
624.753000	-0.109246
624.948000	0.103923
625.143000	0.092935
625.338000	-0.054303
625.533000	-0.144114
625.728000	-0.006659
625.923000	0.206550
626.119000	0.048975
626.314000	-0.201658
626.509000	-0.197807
626.704000	-0.124376
626.899000	-0.121119
627.094000	-0.196530
627.289000	-0.199233
627.484000	-0.130878
627.679000	-0.150193
627.874000	-0.168479
628.069000	0.206093
628.264000	0.121055
628.459000	-0.013608
628.654000	-0.076048
628.850000	-0.234638
629.045000	-0.088943
629.240000	-0.130123
629.435000	-0.160008
629.630000	-0.009161
629.825000	-0.038931
630.020000	-0.010346
630.215000	-0.213699
630.410000	-0.147645
630.605000	-0.125831
630.800000	-0.090031
630.995000	0.065939
631.190000	0.357069
631.385000	0.141522
631.581000	-0.042994
631.776000	0.019767
631.971000	-0.127148
632.166000	-0.004670
632.361000	-0.168263
632.556000	-0.101801
632.751000	0.066913
632.946000	-0.082201
633.141000	-0.170791
633.336000	-0.143925
633.531000	-0.035501
633.726000	-0.024820
633.921000	-0.165914
634.117000	-0.374134
634.312000	-0.507670
634.507000	-0.371345
634.702000	-0.255161
634.897000	-0.250749
635.092000	-0.093381
635.287000	0.031190
635.482000	-0.107045
635.677000	-0.009625
635.872000	0.085433
636.067000	0.161611
636.262000	-0.046009
636.457000	-0.383460
636.652000	-0.363503
636.848000	-0.363088
637.043000	-0.291674
637.238000	-0.224202
637.433000	-0.345094
637.628000	-0.265822
637.823000	-0.086702
638.018000	-0.003671
638.213000	-0.144697
638.408000	-0.228294
638.603000	-0.304829
638.798000	-0.370511
638.993000	-0.238027
639.188000	-0.220837
639.383000	-0.275354
639.579000	0.061674
639.774000	-0.117507
639.969000	-0.269760
640.164000	-0.319987
640.359000	-0.340198
640.554000	-0.094484
640.749000	-0.058592
640.944000	-0.026236
641.139000	-0.043638
641.334000	-0.233568
641.529000	-0.618249
641.724000	-0.456112
641.919000	-0.290066
642.115000	0.031468
642.310000	0.065360
642.505000	-0.077902
642.700000	-0.114547
642.895000	-0.266406
643.090000	-0.153987
643.285000	0.079528
643.480000	0.030366
643.675000	-0.005065
643.870000	0.342563
644.065000	0.199582
644.260000	-0.214780
644.455000	-0.113320
644.650000	-0.176146
644.846000	-0.117433
645.041000	-0.376393
645.236000	-0.523116
645.431000	-0.420119
645.626000	-0.590116
645.821000	-0.362121
646.016000	-0.205332
646.211000	0.178718
646.406000	0.029628
646.601000	-0.024451
646.796000	-0.160828
646.991000	-0.402776
647.186000	-0.312101
647.381000	-0.109693
647.577000	-0.077505
647.772000	0.055548
647.967000	-0.077661
648.162000	-0.110107
648.357000	-0.115444
648.552000	0.058347
648.747000	0.011676
648.942000	0.018175
649.137000	-0.016928
649.332000	-0.230783
649.527000	-0.205923
649.722000	0.002606
649.917000	0.116295
650.113000	-0.134427
650.308000	-0.317592
650.503000	-0.270396
650.698000	-0.086462
650.893000	-0.183535
651.088000	-0.060344
651.283000	0.024979
651.478000	-0.256367
651.673000	-0.023641
651.868000	-0.238196
652.063000	-0.027691
652.258000	0.171551
652.453000	0.340876
652.648000	-0.036902
652.844000	-0.146397
653.039000	-0.036991
653.234000	-0.429498
653.429000	-0.578541
653.624000	-0.316176
653.819000	-0.046404
654.014000	-0.136586
654.209000	-0.319094
654.404000	-0.151412
654.599000	-0.249002
654.794000	-0.231293
654.989000	0.029330
655.184000	-0.060064
655.380000	-0.345425
655.575000	-0.369473
655.770000	-0.344701
655.965000	-0.201794
656.160000	-0.247362
656.355000	-0.081546
656.550000	-0.128729
656.745000	-0.087219
656.940000	-0.169210
657.135000	-0.095325
657.330000	-0.099393
657.525000	-0.352157
657.720000	-0.133300
657.915000	0.020178
658.111000	-0.099584
658.306000	0.121212
658.501000	-0.045897
658.696000	-0.276619
658.891000	-0.013500
659.086000	-0.161933
659.281000	-0.121648
659.476000	-0.289662
659.671000	-0.678071
659.866000	-0.396731
660.061000	-0.051488
660.256000	0.029822
660.451000	-0.051557
660.646000	-0.266276
660.842000	-0.141453
661.037000	-0.295258
661.232000	-0.309307
661.427000	-0.168826
661.622000	-0.264618
661.817000	-0.351820
662.012000	-0.140808
662.207000	-0.317377
662.402000	-0.368919
662.597000	-0.163314
662.792000	-0.489492
662.987000	-0.501421
663.182000	-0.210053
663.378000	-0.195108
663.573000	-0.542684
663.768000	-0.508570
663.963000	-0.320612
664.158000	-0.294199
664.353000	0.086964
664.548000	0.247003
664.743000	-0.031774
664.938000	-0.334280
665.133000	-0.369391
665.328000	0.044337
665.523000	-0.011106
665.718000	-0.169387
665.913000	-0.207185
666.109000	-0.157478
666.304000	0.083589
666.499000	-0.123913
666.694000	-0.089359
666.889000	0.238730
667.084000	-0.039222
667.279000	-0.156793
667.474000	-0.158282
667.669000	-0.105029
667.864000	-0.137400
668.059000	-0.117951
668.254000	-0.158873
668.449000	-0.313883
668.644000	-0.211325
668.840000	0.067536
669.035000	-0.219803
669.230000	-0.484928
669.425000	-0.114594
669.620000	-0.260293
669.815000	-0.336482
670.010000	-0.330498
670.205000	-0.176033
670.400000	-0.198394
670.595000	-0.150669
670.790000	-0.214921
670.985000	-0.138206
671.180000	0.081304
671.376000	-0.342639
671.571000	-0.432110
671.766000	-0.388652
671.961000	-0.416059
672.156000	-0.430942
672.351000	-0.291672
672.546000	-0.275008
672.741000	-0.097695
672.936000	-0.090630
673.131000	0.411105
673.326000	0.065092
673.521000	-0.350354
673.716000	-0.456029
673.911000	-0.596882
674.107000	-0.043544
674.302000	0.226586
674.497000	-0.059619
674.692000	-0.382709
674.887000	-0.400075
675.082000	-0.241286
675.277000	-0.007322
675.472000	-0.105574
675.667000	-0.268746
675.862000	-0.315901
676.057000	-0.208781
676.252000	-0.151760
676.447000	-0.270293
676.643000	-0.053129
676.838000	0.181867
677.033000	-0.108090
677.228000	0.184064
677.423000	0.123279
677.618000	-0.315734
677.813000	-0.449509
678.008000	-0.222491
678.203000	-0.097163
678.398000	-0.329457
678.593000	-0.188753
678.788000	-0.076648
678.983000	-0.324230
679.178000	-0.205749
679.374000	-0.303808
679.569000	-0.209507
679.764000	-0.288737
679.959000	-0.445509
680.154000	-0.448630
680.349000	-0.608358
680.544000	-0.475402
680.739000	-0.335845
680.934000	-0.465484
681.129000	-0.434753
681.324000	-0.516237
681.519000	-0.284979
681.714000	-0.297341
681.909000	-0.376582
682.105000	-0.495847
682.300000	-0.106335
682.495000	0.023104
682.690000	0.024701
682.885000	-0.125148
683.080000	-0.365641
683.275000	-0.306921
683.470000	0.037248
683.665000	0.227089
683.860000	0.342778
684.055000	0.077949
684.250000	-0.305857
684.445000	-0.350553
684.641000	0.048444
684.836000	-0.200358
685.031000	-0.202653
685.226000	-0.217085
685.421000	0.044170
685.616000	-0.175103
685.811000	-0.276725
686.006000	0.049015
686.201000	-0.082329
686.396000	-0.549904
686.591000	-0.466605
686.786000	0.001595
686.981000	-0.121234
687.176000	-0.091147
687.372000	-0.222521
687.567000	0.099299
687.762000	0.011242
687.957000	-0.120445
688.152000	-0.291295
688.347000	-0.196696
688.542000	-0.420230
688.737000	-0.801316
688.932000	-0.805914
689.127000	-0.345178
689.322000	-0.052006
689.517000	-0.285970
689.712000	-0.490804
689.908000	-0.359090
690.103000	-0.418661
690.298000	-0.292784
690.493000	-0.309950
690.688000	-0.532000
690.883000	-0.324582
691.078000	0.046149
691.273000	0.089011
691.468000	-0.153596
691.663000	-0.200600
691.858000	-0.054719
692.053000	-0.051400
692.248000	0.019917
692.443000	-0.031534
692.639000	-0.157998
692.834000	-0.025009
693.029000	0.547069
693.224000	0.449117
693.419000	-0.238186
693.614000	-0.336108
693.809000	-0.417079
694.004000	-0.486949
694.199000	-0.463239
694.394000	-0.153810
694.589000	-0.434847
694.784000	-0.447145
694.979000	-0.194786
695.174000	-0.278485
695.370000	0.235634
695.565000	-0.027189
695.760000	-0.308283
695.955000	0.107563
696.150000	0.169080
696.345000	-0.293180
696.540000	-0.094463
696.740000	-0.202524
696.940000	-0.061834
697.140000	0.012085
697.340000	-0.240394
697.539000	-0.038068
697.739000	-0.122905
697.939000	-0.084881
698.139000	-0.449123
698.339000	-0.772813
698.539000	-0.523612
698.739000	-0.542461
698.939000	-0.478261
699.138000	-0.531695
699.338000	0.230839
699.538000	0.323002
699.738000	-0.195426
699.938000	-0.274884
700.138000	-0.335361
700.338000	-0.412446
700.538000	-0.220045
700.737000	-0.204007
700.937000	-0.670343
701.137000	-0.706802
701.337000	-0.122864
701.537000	-0.051752
701.737000	-0.253087
701.937000	-0.317969
702.137000	-0.203653
702.337000	-0.334623
702.536000	-0.518200
702.736000	-0.526005
702.936000	-0.663420
703.136000	-0.131634
703.336000	-0.097351
703.536000	-0.305518
703.736000	-0.665262
703.936000	-0.528213
704.135000	-0.544221
704.335000	-0.223012
704.535000	-0.423607
704.735000	-0.618771
704.935000	-0.078090
705.135000	-0.114968
705.335000	-0.360706
705.535000	-0.133751
705.735000	-0.087930
705.934000	-0.164785
706.134000	-0.401112
706.334000	-0.367181
706.534000	-0.444928
706.734000	-0.408481
706.934000	-0.526213
707.134000	-0.546593
707.334000	-0.247136
707.533000	-0.236506
707.733000	-0.264030
707.933000	-0.397366
708.133000	-0.119988
708.333000	-0.029689
708.533000	-0.234235
708.733000	0.061338
708.933000	-0.163713
709.132000	-0.320606
709.332000	-0.272602
709.532000	-0.406064
709.732000	-0.269069
709.932000	-0.728600
710.132000	-0.713168
710.332000	-0.875616
710.532000	-0.279033
710.732000	-0.071358
710.931000	-0.334503
711.131000	-0.381089
711.331000	-0.185027
711.531000	-0.349878
711.731000	-0.328007
711.931000	-0.267779
712.131000	-0.295911
712.331000	-0.184055
712.530000	-0.261533
712.730000	-0.416134
712.930000	-0.281129
713.130000	-0.343111
713.330000	-0.444688
713.530000	-0.241360
713.730000	0.346874
713.930000	-0.047896
714.129000	-0.468887
714.329000	-0.539510
714.529000	-0.257080
714.729000	0.063441
714.929000	-0.078823
715.129000	-0.423655
715.329000	-0.348875
715.529000	-0.315468
715.729000	0.249195
715.928000	0.000000
716.128000	-0.273230
716.328000	-0.231282
716.528000	-0.286028
716.728000	-0.112882
716.928000	-0.340625
717.128000	-0.273109
717.328000	-0.314024
717.527000	-0.462820
717.727000	-0.394856
717.927000	-0.301997
718.127000	-0.347299
718.327000	-0.697822
718.527000	-0.658178
718.727000	-0.228117
718.927000	-0.354616
719.127000	-0.668569
719.326000	-0.409758
719.526000	-0.033551
719.726000	-0.229419
719.926000	-0.708695
720.126000	-0.597624
720.326000	-0.359315
720.526000	-0.432847
720.726000	-0.344535
720.925000	-0.133518
721.125000	-0.622058
721.325000	-0.309653
721.525000	-0.274356
721.725000	-0.474669
721.925000	-0.471989
722.125000	-0.453950
722.325000	0.032135
722.524000	-0.205480
722.724000	-0.709990
722.924000	-0.812807
723.124000	-0.539179
723.324000	-0.125331
723.524000	-0.087002
723.724000	-0.629818
723.924000	-0.404448
724.124000	-0.258204
724.323000	-0.126216
724.523000	-0.231872
724.723000	0.189566
724.923000	0.010195
725.123000	-0.073479
725.323000	-0.036805
725.523000	-0.258128
725.723000	-0.417484
725.922000	-0.432296
726.122000	-0.309716
726.322000	-0.417496
726.522000	-0.481723
726.722000	0.111039
726.922000	-0.191103
727.122000	-0.222699
727.322000	0.125944
727.521000	-0.097277
727.721000	-0.342007
727.921000	-0.271546
728.121000	-0.292202
728.321000	-0.714202
728.521000	-0.501637
728.721000	-0.308583
728.921000	0.058360
729.121000	0.747404
729.320000	0.137942
729.520000	-0.305173
729.720000	-0.502481
729.920000	-0.437558
730.120000	-0.314745
730.320000	-0.233482
730.520000	-0.471365
730.720000	-0.468628
730.919000	-0.508641
731.119000	-0.177610
731.319000	-0.616297
731.519000	-0.713621
731.719000	-0.296685
731.919000	-0.489792
732.119000	-0.983331
732.319000	-0.965113
732.519000	-0.411405
732.718000	-0.661672
732.918000	-0.578927
733.118000	-0.357646
733.318000	-0.057989
733.518000	-0.352260
733.718000	-0.868968
733.918000	-0.837193
734.118000	-0.619608
734.317000	-0.324027
734.517000	-0.532825
734.717000	-0.472533
734.917000	-0.026070
735.117000	-0.071768
735.317000	-0.154371
735.517000	0.109008
735.717000	0.306125
735.916000	-0.454883
736.116000	-0.546259
736.316000	-0.404528
736.516000	-0.371434
736.716000	-0.325444
736.916000	-0.752899
737.116000	-0.530261
737.316000	0.102042
737.516000	0.048899
737.715000	-0.028913
737.915000	-0.605232
738.115000	-0.640637
738.315000	-0.368583
738.515000	-0.632053
738.715000	-0.444811
738.915000	0.087732
739.115000	-0.376293
739.314000	-0.463751
739.514000	-0.031630
739.714000	0.070215
739.914000	-0.095408
740.114000	-0.307245
740.314000	-0.040996
740.514000	0.380938
740.714000	-0.363918
740.913000	-0.891638
741.113000	-0.750699
741.313000	-0.358133
741.513000	-0.322306
741.713000	-0.242379
741.913000	-0.245843
742.113000	-0.351994
742.313000	-0.816884
742.513000	-0.441343
742.712000	-0.293628
742.912000	-0.671326
743.112000	-0.561330
743.312000	-0.859793
743.512000	-0.579968
743.712000	-0.350982
743.912000	-0.920161
744.112000	-1.024629
744.311000	-1.015562
744.511000	-0.573917
744.711000	-0.209218
744.911000	-0.590457
745.111000	-0.586422
745.311000	-0.140917
745.511000	-0.502260
745.711000	-0.643978
745.911000	-0.294841
746.110000	-0.705078
746.310000	-0.894992
746.510000	-0.613828
746.710000	-0.176529
746.910000	-0.055668
747.110000	-0.593943
747.310000	-0.876688
747.510000	-0.706947
747.709000	-0.387916
747.909000	-0.288626
748.109000	0.107987
748.309000	-0.260682
748.509000	-0.694599
748.709000	-0.791118
748.909000	-0.489354
749.109000	-0.471632
749.308000	-0.141633
749.508000	-0.366605
749.708000	-0.354254
749.908000	-0.109793
750.108000	-0.055060
750.308000	-0.771016
750.508000	-0.037768
750.708000	-0.589380
750.908000	-0.969279
751.107000	-0.263322
751.307000	0.389458
751.507000	-0.210792
751.707000	-0.266325
751.907000	-0.335632
752.107000	-0.247473
752.307000	-0.752597
752.507000	-0.515878
752.706000	-0.584778
752.906000	0.418953
753.106000	-0.446198
753.306000	-1.016728
753.506000	-0.088201
753.706000	-0.444484
753.906000	-0.181981
754.106000	-0.080698
754.305000	-0.161606
754.505000	-0.096695
754.705000	-0.281159
754.905000	-0.347364
755.105000	-0.115960
755.305000	-0.865631
755.505000	-0.674913
755.705000	-0.227902
755.905000	-0.345539
756.104000	-0.867255
756.304000	-1.285704
756.504000	-1.504863
756.704000	-0.368094
756.904000	-0.091300
757.104000	-0.420996
757.304000	-0.437503
757.504000	0.002700
757.703000	-0.437396
757.903000	-0.008119
758.103000	0.181706
758.303000	-0.231171
758.503000	-0.389937
758.703000	-0.595837
758.903000	-0.689073
759.103000	-0.255004
759.303000	-0.253473
759.502000	-0.420104
759.702000	-0.096697
759.902000	-0.435972
760.102000	-0.411964
760.302000	-0.480382
760.502000	-0.133660
760.702000	-0.072503
760.902000	-0.310188
761.101000	-0.723052
761.301000	-1.078056
761.501000	-0.710510
761.701000	-0.818870
761.901000	-0.568556
762.101000	-0.141735
762.301000	-0.351506
762.501000	-0.706427
762.700000	-0.789484
762.900000	-0.798319
763.100000	-0.502372
763.300000	-0.143303
763.500000	-0.470498
763.703000	-0.574720
763.905000	-0.898364
764.108000	-0.048967
764.311000	-0.383142
764.513000	-0.519165
764.716000	-0.333032
764.919000	-0.307380
765.121000	-0.849973
765.324000	-1.030016
765.527000	-0.877552
765.729000	-0.661069
765.932000	0.114265
766.135000	-0.035148
766.337000	-0.354592
766.540000	-0.505705
766.743000	-0.225112
766.945000	-0.795200
767.148000	-1.173279
767.351000	-0.959821
767.553000	-0.246800
767.756000	-0.604262
767.958000	-0.889930
768.161000	-0.443862
768.364000	-0.756447
768.566000	-1.060745
768.769000	-0.514103
768.972000	-0.201404
769.174000	-0.657312
769.377000	-1.194410
769.580000	-1.227258
769.782000	-0.360288
769.985000	-0.804885
770.188000	-1.805403
770.390000	-0.884220
770.593000	0.742553
770.796000	0.229353
770.998000	-0.342701
771.201000	-0.686124
771.404000	-0.331277
771.606000	-0.689819
771.809000	-0.603395
772.012000	-0.462672
772.214000	-1.290326
772.417000	-1.358385
772.620000	-0.283148
772.822000	-0.604801
773.025000	-0.890305
773.228000	-0.954125
773.430000	-0.809401
773.633000	-0.452253
773.836000	-0.371666
774.038000	-0.253939
774.241000	-0.482667
774.444000	-0.628765
774.646000	0.332977
774.849000	-0.125935
775.052000	-0.377741
775.254000	-0.208170
775.457000	-0.551464
775.659000	-0.473816
775.862000	-0.682457
776.065000	-0.519015
776.267000	0.076084
776.470000	0.324801
776.673000	-0.376011
776.875000	0.150206
777.078000	0.035099
777.281000	-0.861585
777.483000	-0.141377
777.686000	0.054725
777.889000	-0.112791
778.091000	-0.016168
778.294000	-1.088202
778.497000	-0.953805
778.699000	-0.728060
778.902000	-0.659115
779.105000	-0.464335
779.307000	0.360942
779.510000	-0.593138
779.713000	-0.386058
779.915000	-0.705734
780.118000	0.427141
780.321000	0.503329
780.523000	-0.464930
780.726000	-0.837883
780.929000	-1.018947
781.131000	-0.908233
781.334000	-1.342547
781.537000	-1.316385
781.739000	-0.289470
781.942000	-0.805843
782.145000	-1.352249
782.347000	-1.373198
782.550000	-1.032236
782.753000	-1.052440
782.955000	-0.913695
783.158000	-0.731199
783.361000	-0.476284
783.563000	-0.577716
783.766000	-0.728251
783.968000	1.102535
784.171000	0.971274
784.374000	-0.364687
784.576000	-0.477018
784.779000	-0.139478
784.982000	0.198448
785.184000	-0.430010
785.387000	-0.120586
785.590000	0.444210
785.792000	0.390589
785.995000	0.204248
786.198000	-0.093622
786.400000	-0.445710
786.603000	-0.331640
786.806000	-0.473303
787.008000	-0.233148
787.211000	-0.247959
787.414000	-1.026770
787.616000	-0.707033
787.819000	-0.684018
788.022000	-1.338108
788.224000	-0.679567
788.427000	-1.274909
788.630000	-0.717876
788.832000	-0.301749
789.035000	-0.808109
789.238000	-1.523823
789.440000	-1.260548
789.643000	-0.050032
789.846000	-0.559083
790.048000	-0.118554
790.251000	-0.010780
790.454000	-0.451864
790.656000	0.266359
790.859000	-0.501482
791.062000	-0.910763
791.264000	-0.213058
791.467000	-1.120569
791.669000	-1.616122
791.872000	-0.635079
792.075000	-0.977038
792.277000	-0.725605
792.480000	-0.458259
792.683000	-0.954232
792.885000	-1.174731
793.088000	-1.039464
793.291000	-1.248268
793.493000	-1.342766
793.696000	-0.590458
793.899000	-0.188727
794.101000	-0.433967
794.304000	-0.635693
794.507000	-0.301564
794.709000	-0.100800
794.912000	-0.659713
795.115000	-1.014007
795.317000	-0.747155
795.520000	-0.441203
795.723000	-0.632290
795.925000	-1.110969
796.128000	-1.389769
796.331000	-0.896631
796.533000	-1.329105
796.736000	-0.734872
796.939000	-0.356805
797.141000	-0.638559
797.344000	-0.007701
797.547000	-0.038521
797.749000	-0.162020
797.952000	-0.655246
798.155000	-1.118062
798.357000	-1.327180
798.560000	-1.072435
798.763000	-0.383177
798.965000	-0.585939
799.168000	-0.556307
799.371000	-0.380456
799.573000	-0.743775
799.776000	-1.391247
799.978000	-1.376303
800.181000	-0.610220
800.384000	0.900871
800.586000	0.206852
800.789000	-1.252504
800.992000	-1.192053
801.194000	-1.397782
801.397000	-1.377440
801.600000	-1.113734
801.802000	0.148452
802.005000	-0.076475
802.208000	-1.525792
802.410000	-0.592855
802.613000	-0.364574
802.816000	-0.446111
803.018000	-1.162976
803.221000	-1.087742
803.424000	0.281687
803.626000	0.020444
803.829000	-0.475807
804.032000	0.324897
804.234000	0.859273
804.437000	-0.507877
804.640000	-0.585837
804.842000	-0.591313
805.045000	-1.130330
805.248000	-0.865987
805.450000	-0.798593
805.653000	-0.715755
805.856000	-0.823684
806.058000	0.138401
806.261000	-0.874403
806.464000	-1.047809
806.666000	-0.450976
806.869000	-0.708371
807.072000	-1.942509
807.274000	-2.066863
807.477000	-0.970290
807.679000	-0.643139
807.882000	-1.225200
808.085000	-1.009976
808.287000	-0.266725
808.490000	-1.099120
808.693000	-0.849723
808.895000	-0.686588
809.098000	-0.613476
809.301000	-0.520164
809.503000	-0.753156
809.706000	0.052527
809.909000	0.297605
810.111000	0.157777
810.314000	-0.267954
810.517000	-0.950113
810.719000	-1.135994
810.922000	-0.676524
811.125000	0.229435
811.327000	0.217435
811.530000	-0.369768
811.735000	-0.818490
811.940000	-1.069984
812.146000	-0.962560
812.351000	-0.304461
812.556000	-0.574944
812.761000	-1.189585
812.967000	-0.063356
813.172000	-0.076852
813.377000	-0.430795
813.582000	0.182157
813.788000	-0.220098
813.993000	-1.266960
814.198000	-0.434943
814.403000	-1.230890
814.609000	-0.423623
814.814000	-0.467161
815.019000	0.447839
815.224000	0.179966
815.429000	-1.026585
815.635000	-0.591791
815.840000	-0.559779
816.045000	-0.337398
816.250000	-0.014081
816.456000	-1.316467
816.661000	-1.955419
816.866000	-1.429552
817.071000	-1.414460
817.277000	-2.342483
817.482000	-1.426042
817.687000	-0.571961
817.892000	-0.589578
818.097000	-0.158670
818.303000	0.298104
818.508000	0.743805
818.713000	7.449204
818.918000	3.888702
819.124000	0.396151
819.329000	-0.800518
819.534000	-1.021877
819.739000	-1.080359
819.945000	-0.943662
820.150000	-0.565481
820.355000	-0.472972
820.560000	-0.176887
820.766000	-0.275862
820.971000	-0.381499
821.176000	-1.956826
821.381000	-2.609828
821.586000	-1.634069
821.792000	0.034995
821.997000	-0.470377
822.202000	-0.671196
822.407000	-1.361536
822.613000	-1.545643
822.818000	-0.842985
823.023000	-0.520559
823.228000	-0.605306
823.434000	0.055908
823.639000	0.173178
823.844000	-0.663897
824.049000	0.199316
824.255000	0.338396
824.460000	-0.468754
824.665000	-1.067771
824.870000	-0.031055
825.075000	-0.057006
825.281000	0.010396
825.486000	0.763402
825.691000	-1.539586
825.896000	-2.539517
826.102000	-0.850532
826.307000	-0.715765
826.512000	-0.972010
826.717000	-0.747153
826.923000	-0.924651
827.128000	-0.639088
827.333000	-1.468684
827.538000	-0.376617
827.744000	0.194159
827.949000	-0.942040
828.154000	-0.589133
828.359000	0.140457
828.564000	-0.570076
828.770000	-0.752340
828.975000	0.333310
829.180000	-0.170246
829.385000	-1.701810
829.591000	-1.339610
829.796000	-0.675922
830.001000	-0.677213
830.206000	-1.247334
830.412000	-1.134805
830.617000	-1.171004
830.822000	-0.095268
831.027000	-0.827550
831.232000	-1.378242
831.438000	-1.195359
831.643000	-0.555143
831.848000	-0.721184
832.053000	-0.718237
832.259000	-0.878931
832.464000	-2.552623
832.669000	-2.228693
832.874000	-1.754824
833.080000	-1.520659
833.285000	0.213469
833.490000	-0.155885
833.695000	-1.481943
833.901000	-1.179455
834.106000	-1.397622
834.311000	-1.187464
834.516000	-0.771269
834.721000	-1.142707
834.927000	0.309152
835.132000	-0.351456
835.337000	1.049973
835.542000	-0.132027
835.748000	-1.778909
835.953000	-0.090155
836.158000	-0.084351
836.363000	-0.296412
836.569000	-0.243845
836.774000	-1.294650
836.979000	-1.650851
837.184000	-1.930668
837.390000	-1.651739
837.595000	-1.058959
837.800000	-0.604746
838.005000	-0.471859
838.210000	-0.838534
838.416000	-1.259557
838.621000	-1.062875
838.826000	-1.212187
839.031000	-0.879265
839.237000	-1.436321
839.442000	-2.192782
839.647000	-2.240132
839.852000	-1.525283
840.058000	-1.384094
840.263000	-1.237061
840.468000	-2.155807
840.673000	-1.071595
840.878000	-0.854231
841.084000	-1.615268
841.289000	-0.887394
841.494000	1.819773
841.699000	1.714546
841.905000	0.597077
842.110000	0.824592
842.315000	-1.295712
842.520000	-0.832122
842.726000	-1.184967
842.931000	-1.739629
843.136000	-0.692890
843.341000	-2.114307
843.547000	-1.192306
843.752000	-1.046138
843.957000	-1.967432
844.162000	-1.827323
844.367000	-1.164139
844.573000	-0.499111
844.778000	-0.163658
844.983000	-0.177731
845.188000	-0.219868
845.394000	-1.851091
845.599000	-1.514583
845.804000	-1.304625
846.009000	-0.817533
846.215000	-1.888338
846.420000	-1.379602
846.625000	-0.508443
846.830000	0.246271
847.036000	-0.933294
847.241000	-1.455581
847.446000	-0.262683
847.651000	-0.855530
847.856000	-1.971153
848.062000	-1.926493
848.267000	-0.295916
848.472000	-1.296407
848.677000	-2.483851
848.883000	-0.500074
849.088000	1.046880
849.293000	-0.654124
849.498000	-1.299239
849.704000	-0.220827
849.909000	-0.678958
850.114000	-1.749110
850.319000	-0.591738
850.524000	-0.624741
850.730000	-0.703082
850.935000	-0.871117
851.140000	0.007529
851.345000	0.060227
851.551000	-0.120816
851.756000	-0.106283
851.961000	-1.278789
852.166000	-1.515543
852.372000	-1.221687
852.577000	-0.915269
852.782000	-1.022956
852.987000	0.556388
853.193000	-0.201642
853.398000	-0.581833
853.603000	-1.959327
853.808000	-2.504898
854.013000	-1.189958
854.219000	0.070586
854.424000	1.842358
854.629000	1.578141
854.834000	-1.024696
855.040000	-0.815416
855.245000	-0.278864
855.450000	-2.605314
855.655000	-3.663251
855.861000	-3.236749
856.066000	-2.210442
856.271000	-2.222111
856.476000	-0.235997
856.682000	-1.070159
856.887000	-3.762665
857.092000	-2.224703
857.297000	0.213511
857.502000	-0.320897
857.708000	-0.791440
857.913000	0.330339
858.118000	-0.533414
858.323000	-0.886064
858.529000	-0.600924
858.734000	-1.046109
858.939000	-1.007225
859.144000	-1.827562
859.350000	-2.804903
859.555000	-2.585538
859.760000	-0.662652
859.965000	0.186848
860.171000	-1.228290
860.376000	-0.205570
860.581000	-2.190023
860.786000	-4.545058
860.991000	-3.793959
861.197000	-2.571047
861.402000	-1.059149
861.607000	-1.459431
861.812000	-2.521374
862.018000	-2.741236
862.223000	-1.640820
862.428000	-0.759050
862.633000	0.132452
862.839000	-0.417620
863.044000	-1.576929
863.249000	-2.305363
863.454000	-0.286220
863.659000	-1.291901
863.865000	-2.226987
864.070000	-1.961635
864.275000	-2.481047
864.480000	-2.428724
864.686000	-3.889360
864.891000	-2.978844
865.096000	-0.633386
865.301000	-0.193130
865.507000	-0.240520
865.712000	-0.064751
865.917000	-1.005439
866.122000	-0.065345
866.328000	-3.210652
866.533000	-2.964497
866.738000	0.272405
866.943000	0.197675
867.148000	0.672086
867.354000	-1.679092
867.559000	-2.939262
867.764000	-1.275430
867.969000	-0.559023
868.175000	-1.998007
868.380000	-2.429152
868.585000	-3.069351
868.790000	-1.055705
868.996000	-1.364913
869.201000	-2.961800
869.406000	-3.897380
869.611000	-2.772334
869.817000	-2.189870
870.022000	2.316448
870.227000	-0.108696
870.432000	-2.323638
870.637000	-0.864905
870.843000	-1.349891
871.048000	-1.260507
871.253000	0.220216
871.458000	-0.865213
871.664000	-2.672889
871.869000	-2.994213
872.074000	-2.472049
872.279000	-1.368161
872.485000	-1.962707
872.690000	-1.919614
872.895000	-2.114085
873.100000	-2.894740
873.306000	-3.011243
873.511000	-1.458405
873.716000	0.273393
873.921000	-1.636077
874.126000	-2.247935
874.332000	-1.548748
874.537000	-0.341131
874.742000	-0.340030
874.947000	-1.024417
875.153000	0.937087
875.358000	-0.518226
875.563000	-1.531663
875.768000	-4.094354
875.974000	-4.296073
876.179000	-0.762814
876.384000	-0.383261
876.589000	-2.110459
876.794000	-1.626128
877.000000	-2.634951
877.205000	-3.803673
877.410000	-0.822261
877.615000	-2.728839
877.821000	-4.924138
878.026000	-3.470985
878.231000	-3.514975
878.436000	-3.554515
878.642000	-2.777462
878.847000	-1.459716
879.052000	-0.045198
879.257000	-1.926217
879.463000	-3.230013
879.668000	-2.386140
879.873000	-0.137549
880.078000	-2.642805
880.283000	-4.452587
880.489000	-4.763934
880.694000	-3.996849
880.899000	-1.669162
881.104000	-0.140638
881.310000	1.242274
881.515000	-0.280946
881.720000	1.161691
881.925000	2.265682
882.131000	3.327929
882.336000	0.523246
882.541000	-3.212109
882.746000	-3.035239
882.952000	-3.308415
883.157000	-3.051240
883.362000	-3.128400
883.567000	-3.905643
883.772000	-3.868455
883.978000	-2.978049
884.183000	-1.191470
884.388000	-1.715628
884.593000	-3.788165
884.799000	0.751171
885.004000	0.224788
885.209000	-1.749100
885.414000	-1.045863
885.620000	-3.624295
885.825000	-0.644178
886.030000	-1.197592
886.235000	-2.524049
886.440000	-1.624239
886.646000	-4.118998
886.851000	-4.423433
887.056000	-0.439879
887.261000	-1.191215
887.467000	-3.887204
887.672000	-1.099499
887.877000	-2.354930
888.082000	-4.692686
888.288000	-5.083852
888.493000	-7.109037
888.698000	-5.141487
888.903000	-1.842868
889.109000	-3.025107
889.314000	-0.293349
889.519000	-1.806535
889.724000	0.718332
889.929000	-1.291844
890.135000	-1.896241
890.340000	-1.587509
890.545000	-2.716362
890.750000	-4.393511
890.956000	-3.245255
891.161000	-0.405071
891.366000	-2.897672
891.571000	-1.615104
891.777000	-1.616611
891.982000	0.218421
892.187000	-0.219357
892.392000	0.834310
892.598000	0.178819
892.803000	-0.416307
893.008000	-2.717177
893.213000	-3.110970
893.418000	-3.299984
893.624000	-3.624406
893.829000	-5.599960
894.034000	-2.763860
894.239000	-1.127901
894.445000	-3.671254
894.650000	-3.986636
894.855000	-4.019917
895.060000	-3.702325
895.266000	-3.555327
895.471000	-4.951936
895.676000	-1.784923
895.881000	-0.936149
896.087000	-2.463269
896.292000	-3.595699
896.497000	0.655649
896.702000	-1.320554
896.907000	-3.212009
897.113000	1.400416
897.318000	1.487190
897.523000	0.482418
897.728000	-1.834375
897.934000	-1.930857
898.139000	-2.038858
898.344000	-0.207282
898.549000	-1.325229
898.755000	-2.728766
898.960000	-3.330748
899.165000	-5.268550
899.370000	-1.748527
899.575000	2.312132
899.781000	-2.318697
899.986000	-3.500960
900.191000	-1.677773
900.396000	-2.321069
900.602000	-1.397929
900.807000	-2.119449
901.012000	-1.821829
901.217000	0.187318
901.423000	-2.333450
901.628000	-4.261096
901.833000	0.313723
902.038000	0.379394
902.244000	-3.499761
902.449000	-2.711636
902.654000	-2.772265
902.859000	-1.758585
903.064000	0.658615
903.270000	0.757712
903.475000	-3.613994
903.680000	-6.108510
903.885000	-5.377399
904.091000	-4.310992
904.296000	-5.590500
904.501000	-4.575736
904.706000	-3.863912
904.912000	0.216979
905.117000	-1.642543
905.322000	-4.494525
905.527000	-3.952312
905.733000	-3.079780
905.938000	-3.386945
906.143000	-3.736133
906.348000	-5.385720
906.553000	-1.710226
906.759000	-0.172642
906.964000	-0.954245
907.169000	-2.652041
907.374000	-5.048510
907.580000	-3.570278
907.785000	-3.614000
907.990000	14.998186
908.195000	10.254286
908.401000	-0.467865
908.606000	-7.925036
908.811000	-9.055930
909.016000	-2.039851
909.221000	-1.503041
909.427000	-2.713594
909.632000	-4.905309
909.837000	-4.402994
910.042000	-5.770158
910.248000	-7.719311
910.453000	-2.529287
910.658000	-3.832291
910.863000	-4.375196
911.069000	-5.772834
911.274000	-1.143979
911.479000	0.652244
911.684000	-6.344167
911.890000	-3.648773
912.095000	-3.575954
912.300000	-6.054336
912.506000	-4.849914
912.711000	-4.397622
912.917000	-1.855361
913.123000	-1.422397
913.328000	-1.788983
913.534000	-2.146412
913.740000	7.252027
913.946000	3.106158
914.151000	-3.786820
914.357000	-5.199909
914.563000	-0.934699
914.768000	-4.218693
914.974000	-6.353620
915.180000	-5.872097
915.385000	-4.280098
915.591000	-7.091002
915.797000	-2.420961
916.002000	0.940590
916.208000	-2.511141
916.414000	-5.378642
916.620000	-6.317251
916.825000	-2.097928
917.031000	-2.272682
917.237000	-9.061349
917.442000	-4.963975
917.648000	-5.799861
917.854000	-6.614555
918.059000	-0.534585
918.265000	0.378190
918.471000	-2.817253
918.676000	-6.350032
918.882000	-8.188962
919.088000	-7.110093
919.294000	-11.964434
919.499000	-7.468770
919.705000	-1.418190
919.911000	-3.463953
920.116000	-1.526246
920.322000	-6.979826
920.528000	-4.717625
920.733000	-7.403574
920.939000	-8.230617
921.145000	-7.176451
921.350000	-5.878194
921.556000	-4.401871
921.762000	-4.979534
921.968000	-5.461138
922.173000	-6.513077
922.379000	-8.545786
922.585000	-4.252615
922.790000	-5.797839
922.996000	-7.392660
923.202000	-8.201923
923.407000	-8.046286
923.613000	-5.621839
923.819000	-3.251172
924.024000	-3.799783
924.230000	-0.546251
924.436000	-3.219711
924.642000	5.406428
924.847000	0.696204
925.053000	-6.018540
925.259000	-10.071346
925.464000	-4.718057
925.670000	-5.253005
925.876000	-8.417936
926.081000	-7.942691
926.287000	-2.113473
926.493000	-1.284865
926.698000	-4.196764
926.904000	-2.085514
927.110000	-4.895381
927.316000	-4.466565
927.521000	2.781036
927.727000	-3.542969
927.933000	-5.814842
928.138000	-4.184088
928.344000	-10.581644
928.550000	-6.829363
928.755000	-1.518522
928.961000	-6.567210
929.167000	-6.487656
929.372000	1.860971
929.578000	0.424088
929.784000	-5.553501
929.990000	-8.889699
930.195000	-5.839699
930.401000	-4.985206
930.607000	-3.848793
930.812000	-3.040176
931.018000	-6.797950
931.224000	-12.821231
931.429000	-8.457857
931.635000	-11.604396
931.841000	-11.265998
932.046000	-6.735009
932.252000	-2.246398
932.458000	4.730509
932.664000	-0.265764
932.869000	-6.019204
933.075000	-8.470881
933.281000	-8.048109
933.486000	-0.378470
933.692000	-4.112815
933.898000	-8.097323
934.103000	-0.592528
934.309000	-5.444788
934.515000	-3.183127
934.720000	-1.597032
934.926000	1.647026
935.132000	1.904763
935.338000	-2.295669
935.543000	-9.877786
935.749000	-11.411031
935.955000	-12.529910
936.160000	-10.594667
936.366000	-1.706073
936.572000	-2.767696
936.777000	-1.129738
936.983000	0.930178
937.189000	-3.627609
937.394000	-8.799141
937.600000	0.539530
937.806000	4.347678
938.012000	-5.095765
938.217000	4.192538
938.423000	1.378757
938.629000	-7.498078
938.834000	-13.367503
939.040000	-11.838886
939.246000	-5.660737
939.451000	-9.807265
939.657000	-5.833996
939.863000	-10.365309
940.068000	-1.389275
940.274000	-5.921478
940.480000	-3.448964
940.686000	-1.635710
940.891000	-4.818153
941.097000	15.325894
941.303000	3.455996
941.508000	-6.071132
941.714000	-1.624492
941.920000	-13.216117
942.125000	-4.310813
942.331000	-2.215801
942.537000	3.270865
942.742000	2.033290
942.948000	-7.829299
943.154000	-11.221855
943.360000	-22.426937
943.565000	-8.244617
943.771000	2.198542
943.977000	5.510786
944.182000	-12.871078
944.388000	-14.699193
944.594000	0.264109
944.799000	9.817813
945.005000	1.206678
945.211000	3.999116
945.416000	1.122067
945.622000	-12.856177
945.828000	-10.450055
946.034000	0.000000
946.239000	-0.332027
946.445000	-6.864984
946.651000	-17.190268
946.856000	-15.440034
947.062000	-0.545596
947.268000	1.153784
947.473000	-14.618810
947.679000	-18.426398
947.885000	-4.064166
948.090000	0.504139
948.296000	14.411625
948.502000	1.684280
948.708000	-8.494930
948.913000	-10.429607
949.119000	0.916552
949.325000	-5.961369
949.530000	-20.018090
949.736000	-23.950433
949.942000	-13.152476
950.147000	-14.280528
950.353000	-11.657248
950.559000	-6.771294
950.764000	14.128424
950.970000	6.187190
951.176000	-8.657288
951.382000	-14.225030
951.587000	-2.285258
951.793000	3.147866
951.999000	1.969283
952.204000	-10.726033
952.410000	-23.470610
952.616000	-11.377290
952.821000	-6.918391
953.027000	-14.040064
953.233000	-16.664334
953.438000	-15.559256
953.644000	0.428618
953.850000	-4.043952
954.056000	-9.659571
954.261000	-10.093432
954.467000	-0.811865
954.673000	7.852379
954.878000	-2.438850
955.084000	-4.194996
955.290000	-19.802261
955.495000	-21.373294
955.701000	-16.914662
955.907000	3.521737
956.112000	0.192114
956.318000	6.981556
956.524000	8.024984
956.730000	-6.977435
956.935000	-11.315400
957.141000	-13.837020
957.347000	-1.582057
957.552000	-7.309362
957.758000	-21.877252
957.964000	-30.153854
958.169000	5.752324
958.375000	4.965006
958.581000	-10.585318
958.786000	-23.098051
958.992000	-28.962509
959.198000	-9.098454
959.404000	-3.777564
959.609000	-12.849723
959.815000	-16.084888
960.021000	2.937478
960.226000	-4.304107
960.432000	-28.173975
960.638000	-18.165391
960.843000	-12.087036
961.049000	-14.309530
961.255000	-1.157767
961.460000	-11.442378
961.666000	-31.880571
961.872000	-19.152842
962.078000	-16.131918
962.283000	-25.492092
962.489000	-26.269871
962.695000	-18.348055
962.900000	-12.809963
963.106000	-10.979777
963.312000	-15.418007
963.517000	-19.000243
963.723000	-21.491840
963.929000	1.944556
964.134000	10.247161
964.340000	-14.993189
964.546000	-17.608361
964.752000	-22.054136
964.957000	-28.427648
965.163000	-2.913932
965.369000	-4.428271
965.574000	-2.402715
965.780000	-7.214161
966.000000	-15.103988
966.220000	-9.350361
966.440000	-11.162308
966.661000	-0.591043
966.881000	-18.463337
967.101000	-35.900834
967.321000	-35.716228
967.541000	-10.211115
967.761000	-15.884594
967.981000	-7.373042
968.202000	-6.303968
968.422000	1.248028
968.642000	1.155318
968.862000	-1.542375
969.082000	-10.875877
969.302000	-3.586039
969.522000	-9.182583
969.743000	6.503169
969.963000	-14.585506
970.183000	-25.423505
970.403000	-23.320003
970.623000	-22.714315
970.843000	1.430527
971.063000	2.808369
971.284000	-19.972869
971.504000	-31.875786
971.724000	-9.501216
971.944000	-23.688106
972.164000	-35.330466
972.384000	-25.198164
972.604000	-40.510092
972.825000	-47.499988
973.045000	-31.539059
973.265000	21.686160
973.485000	9.735302
973.705000	-7.052929
973.925000	-12.075187
974.145000	-46.064857
974.365000	-11.929521
974.586000	-11.559088
974.806000	-30.680269
975.026000	-0.110527
975.246000	-11.700297
975.466000	-26.815748
975.686000	-11.550470
975.906000	-19.490073
976.127000	-42.672586
976.347000	-38.113249
976.567000	-11.491747
976.787000	-11.757760
977.007000	-17.525483
977.227000	-23.734323
977.447000	-26.524059
977.668000	-48.477235
977.888000	-29.301686
978.108000	-28.797303
978.328000	-17.500003
978.548000	10.757612
978.768000	17.059828
978.988000	1.561079
979.209000	-16.575893
979.429000	-19.536653
979.649000	-4.329019
979.869000	-26.338183
980.089000	-40.923400
980.309000	-44.465835
980.529000	-52.731429
980.750000	-30.876810
980.970000	-42.694265
981.190000	-30.458857
981.410000	-28.537249
981.630000	-34.072615
981.850000	-22.832924
982.070000	-16.999325
982.291000	-44.602727
982.511000	-39.483588
982.731000	-4.769376
982.951000	-25.620326
983.171000	-27.815256
983.391000	-21.489085
983.611000	4.990054
983.832000	-26.110898
984.052000	-48.712004
984.272000	-24.968785
984.492000	-14.429006
984.712000	-29.490260
984.932000	-48.312742
985.152000	-55.262083
985.373000	-41.793619
985.593000	-16.171790
985.813000	-24.738200
986.033000	-35.141244
986.253000	2.239302
986.473000	11.301938
986.693000	-24.623420
986.914000	-34.949996
987.134000	10.590262
987.354000	-26.036995
987.574000	137.617949
987.794000	81.559327
988.014000	-39.220882
988.234000	-18.878152
988.455000	-4.576165
988.675000	-11.497687
988.895000	-23.202535
989.115000	-36.938532
989.335000	-19.521250
989.555000	-3.897224
989.775000	-41.348014
989.995000	-35.002326
990.216000	-20.008507
990.436000	-14.770035
990.656000	12.032707
990.876000	-30.663505
991.096000	-13.904164
991.316000	12.731190
991.536000	-18.666547
991.757000	-27.883747
991.977000	-67.219532
992.197000	-12.710551
992.417000	-33.674407
992.637000	-79.191446
992.857000	-80.985958
993.077000	-72.856513
993.298000	-35.127625
993.518000	-32.128153
993.738000	-80.779611
993.958000	-36.103804
994.178000	-43.357263
994.398000	-37.312635
994.618000	-73.303220
994.839000	-127.247885
995.059000	-32.909302
995.279000	42.635561
995.499000	-12.266027
995.719000	-6.679773
995.939000	-24.458963
996.159000	-27.220831
996.380000	-15.722558
996.600000	-68.904157
996.820000	-35.263159
997.040000	14.291876
997.260000	-54.986316
997.480000	-40.256172
997.700000	-96.000952
997.921000	-58.411392
998.141000	39.024708
998.361000	4.569488
998.581000	-43.641767
998.801000	-84.269335
999.021000	-54.727492
999.241000	-28.022952
999.462000	-58.166948
999.682000	-108.887977
999.902000	-65.171859
1000.122000	-80.403961
1000.342000	-132.071545
1000.562000	-55.490795
1000.782000	-65.118659
1001.003000	-1059.916526
