Wavelength	Irradiance
(nm)	(mW/cm2/nm)

294.396000	0.000000
294.577000	0.000000
294.757000	0.000000
294.938000	-0.000000
295.118000	-0.000000
295.299000	0.000000
295.479000	0.000000
295.660000	-0.000000
295.840000	-0.000000
296.021000	-0.000000
296.202000	-0.000000
296.382000	-0.000000
296.563000	-0.000000
296.743000	-0.000000
296.924000	0.000000
297.104000	-0.000000
297.285000	-0.000000
297.465000	-0.000000
297.646000	-0.000000
297.826000	0.000000
298.007000	0.000000
298.187000	0.000000
298.368000	-0.000000
298.548000	0.000000
298.729000	0.000000
298.909000	-0.000000
299.090000	-0.000000
299.270000	-0.000000
299.451000	-0.000000
299.631000	-0.000000
299.812000	-0.000000
299.992000	0.000000
300.173000	0.000000
300.353000	-0.000000
300.534000	0.000000
300.714000	0.000000
300.895000	0.000000
301.075000	-0.000000
301.256000	0.000000
301.436000	-0.000000
301.617000	-0.000000
301.797000	-0.000000
301.978000	-0.000000
302.159000	0.000000
302.339000	0.000000
302.520000	-0.000000
302.700000	-0.000000
302.881000	0.000000
303.061000	0.000000
303.242000	0.000000
303.422000	0.000000
303.603000	-0.000000
303.783000	-0.000000
303.964000	0.000000
304.144000	-0.000000
304.325000	-0.000000
304.505000	0.000000
304.686000	0.000000
304.866000	0.000000
305.047000	-0.000000
305.227000	-0.000000
305.408000	-0.000000
305.588000	-0.000000
305.769000	-0.000000
305.949000	-0.000000
306.130000	-0.000000
306.310000	-0.000000
306.491000	-0.000000
306.671000	0.000000
306.852000	-0.000000
307.032000	-0.000000
307.213000	-0.000000
307.393000	-0.000000
307.574000	0.000000
307.755000	0.000000
307.935000	0.000000
308.116000	-0.000000
308.296000	-0.000000
308.477000	0.000000
308.657000	0.000000
308.838000	0.000000
309.018000	0.000000
309.199000	-0.000000
309.379000	-0.000000
309.560000	0.000000
309.740000	-0.000000
309.921000	-0.000000
310.101000	0.000000
310.282000	-0.000000
310.462000	-0.000000
310.643000	-0.000000
310.823000	-0.000000
311.004000	-0.000000
311.184000	-0.000000
311.365000	0.000000
311.545000	0.000000
311.726000	0.000000
311.906000	0.000000
312.087000	0.000000
312.267000	-0.000000
312.448000	-0.000000
312.628000	-0.000000
312.809000	-0.000000
312.989000	-0.000000
313.170000	-0.000000
313.344000	-0.000000
313.518000	-0.000000
313.691000	-0.000000
313.865000	-0.000000
314.039000	-0.000000
314.213000	-0.000000
314.387000	-0.000000
314.560000	-0.000000
314.734000	-0.000000
314.908000	-0.000000
315.082000	-0.000000
315.255000	0.000000
315.429000	0.000000
315.603000	0.000000
315.777000	-0.000000
315.951000	0.000000
316.124000	-0.000000
316.298000	-0.000000
316.472000	-0.000000
316.646000	-0.000000
316.820000	-0.000000
316.993000	-0.000000
317.167000	-0.000000
317.341000	-0.000000
317.515000	-0.000000
317.688000	-0.000000
317.862000	-0.000000
318.036000	-0.000000
318.210000	-0.000000
318.384000	-0.000000
318.557000	-0.000000
318.731000	-0.000000
318.905000	0.000000
319.079000	0.000000
319.253000	-0.000000
319.426000	0.000000
319.600000	0.000000
319.774000	-0.000000
319.948000	-0.000000
320.122000	0.000000
320.295000	0.000000
320.469000	-0.000000
320.643000	-0.000000
320.817000	-0.000000
320.990000	-0.000000
321.164000	-0.000000
321.338000	-0.000000
321.512000	-0.000000
321.686000	-0.000000
321.859000	-0.000000
322.033000	0.000000
322.207000	-0.000000
322.381000	-0.000000
322.555000	0.000000
322.728000	-0.000000
322.902000	-0.000000
323.076000	-0.000000
323.250000	-0.000000
323.423000	-0.000000
323.597000	-0.000000
323.771000	-0.000000
323.945000	-0.000000
324.119000	-0.000000
324.292000	0.000000
324.466000	-0.000000
324.640000	0.000000
324.814000	0.000000
324.988000	-0.000000
325.161000	-0.000000
325.335000	-0.000000
325.509000	-0.000000
325.683000	-0.000000
325.856000	-0.000000
326.030000	-0.000000
326.204000	-0.000000
326.378000	-0.000000
326.552000	-0.000000
326.725000	-0.000000
326.899000	-0.000000
327.073000	-0.000000
327.247000	-0.000000
327.421000	0.000000
327.594000	0.000000
327.768000	-0.000000
327.942000	-0.000000
328.116000	0.000000
328.289000	0.000000
328.463000	0.000000
328.637000	0.000000
328.811000	-0.000000
328.985000	-0.000000
329.158000	0.000000
329.332000	-0.000000
329.506000	0.000000
329.680000	-0.000000
329.854000	-0.000000
330.027000	-0.000000
330.201000	0.000000
330.375000	0.000000
330.549000	0.000000
330.723000	-0.000000
330.896000	-0.000000
331.070000	-0.000000
331.244000	-0.000000
331.418000	-0.000000
331.591000	-0.000000
331.765000	-0.000000
331.939000	-0.000000
332.113000	-0.000000
332.287000	-0.000000
332.460000	0.000000
332.634000	0.000000
332.808000	-0.000000
332.982000	-0.000000
333.156000	-0.000000
333.329000	0.000000
333.503000	-0.000000
333.677000	-0.000000
333.851000	-0.000000
334.024000	0.000000
334.198000	-0.000000
334.372000	-0.000000
334.546000	-0.000000
334.720000	-0.000000
334.893000	-0.000000
335.067000	-0.000000
335.241000	0.000000
335.415000	-0.000000
335.589000	-0.000000
335.762000	-0.000000
335.936000	-0.000000
336.110000	-0.000000
336.284000	-0.000000
336.458000	-0.000000
336.631000	-0.000000
336.805000	-0.000000
336.979000	-0.000000
337.153000	-0.000000
337.326000	-0.000000
337.500000	-0.000000
337.674000	-0.000000
337.848000	-0.000000
338.022000	-0.000000
338.195000	-0.000000
338.369000	-0.000000
338.543000	-0.000000
338.717000	-0.000000
338.891000	0.000000
339.064000	0.000000
339.238000	-0.000000
339.412000	-0.000000
339.586000	-0.000000
339.759000	-0.000000
339.933000	-0.000000
340.107000	0.000000
340.281000	0.000000
340.455000	-0.000000
340.628000	-0.000000
340.802000	-0.000000
340.976000	-0.000000
341.150000	-0.000000
341.324000	-0.000000
341.497000	-0.000000
341.671000	-0.000000
341.845000	-0.000000
342.019000	-0.000000
342.192000	-0.000000
342.366000	-0.000000
342.540000	-0.000000
342.714000	-0.000000
342.888000	-0.000000
343.061000	-0.000000
343.235000	0.000000
343.409000	-0.000000
343.583000	-0.000000
343.757000	-0.000000
343.930000	-0.000000
344.104000	-0.000000
344.278000	0.000000
344.452000	0.000000
344.626000	-0.000000
344.799000	-0.000000
344.973000	-0.000000
345.147000	-0.000000
345.321000	-0.000000
345.494000	-0.000000
345.668000	0.000000
345.842000	0.000000
346.016000	-0.000000
346.190000	0.000000
346.363000	0.000000
346.537000	-0.000000
346.711000	-0.000000
346.885000	-0.000000
347.059000	-0.000000
347.232000	0.000000
347.406000	0.000000
347.580000	-0.000000
347.754000	-0.000000
347.927000	0.000000
348.101000	0.000000
348.275000	-0.000000
348.449000	-0.000000
348.623000	-0.000000
348.796000	0.000000
348.970000	0.000000
349.144000	-0.000000
349.318000	-0.000000
349.492000	-0.000000
349.665000	-0.000000
349.839000	-0.000000
350.013000	-0.000000
350.187000	-0.000000
350.361000	-0.000000
350.534000	-0.000000
350.708000	-0.000000
350.882000	-0.000000
351.056000	0.000000
351.229000	0.000000
351.403000	-0.000000
351.577000	-0.000000
351.751000	-0.000000
351.925000	-0.000000
352.098000	-0.000000
352.272000	-0.000000
352.446000	-0.000000
352.620000	-0.000000
352.794000	-0.000000
352.967000	-0.000000
353.141000	0.000000
353.315000	0.000000
353.489000	-0.000000
353.662000	-0.000000
353.836000	-0.000000
354.010000	-0.000000
354.184000	0.000000
354.358000	-0.000000
354.531000	-0.000000
354.705000	-0.000000
354.879000	-0.000000
355.053000	-0.000000
355.227000	0.000000
355.400000	-0.000000
355.574000	0.000000
355.748000	0.000000
355.922000	-0.000000
356.095000	-0.000000
356.269000	-0.000000
356.443000	-0.000000
356.617000	-0.000000
356.791000	-0.000000
356.964000	-0.000000
357.138000	-0.000000
357.312000	-0.000000
357.486000	-0.000000
357.660000	0.000000
357.833000	-0.000000
358.007000	-0.000000
358.181000	-0.000000
358.355000	-0.000000
358.529000	-0.000000
358.702000	-0.000000
358.876000	-0.000000
359.050000	-0.000000
359.224000	-0.000000
359.397000	-0.000000
359.571000	-0.000000
359.745000	-0.000000
359.919000	0.000000
360.093000	-0.022096
360.266000	0.048574
360.440000	0.136564
360.614000	0.150079
360.788000	0.044768
360.962000	-0.182142
361.135000	-0.032951
361.309000	-0.161751
361.483000	-0.293162
361.657000	-0.263586
361.830000	-0.202338
362.004000	-0.067650
362.178000	-0.394696
362.352000	-0.258799
362.526000	-0.043270
362.699000	-0.065863
362.873000	-0.442188
363.047000	-0.405191
363.221000	-0.275908
363.395000	-0.158074
363.568000	-0.230761
363.742000	-0.301325
363.916000	-0.261062
364.090000	-0.355574
364.263000	-0.279053
364.437000	-0.276442
364.611000	-0.018923
364.785000	-0.040616
364.959000	-0.173926
365.132000	-0.193160
365.306000	-0.273998
365.480000	-0.124245
365.656000	-0.184080
365.831000	-0.194198
366.007000	-0.203835
366.183000	-0.169012
366.358000	-0.323402
366.534000	-0.162405
366.710000	-0.359767
366.886000	-0.330110
367.061000	-0.116374
367.237000	-0.044292
367.413000	-0.152943
367.588000	-0.279936
367.764000	-0.274509
367.940000	-0.373107
368.115000	-0.268080
368.291000	-0.321982
368.467000	-0.153582
368.643000	0.112221
368.818000	-0.302762
368.994000	-0.430885
369.170000	-0.244490
369.345000	-0.132975
369.521000	-0.261413
369.697000	-0.167628
369.872000	-0.278437
370.048000	-0.334797
370.224000	-0.264950
370.399000	-0.433665
370.575000	-0.300837
370.751000	-0.377952
370.927000	-0.401142
371.102000	-0.418613
371.278000	-0.344539
371.454000	-0.242402
371.629000	-0.101730
371.805000	-0.059421
371.981000	0.143579
372.156000	0.250239
372.332000	0.078881
372.508000	0.008774
372.683000	-0.007429
372.859000	-0.137608
373.035000	-0.155526
373.211000	0.266254
373.386000	-0.000987
373.562000	-0.397787
373.738000	-0.488239
373.913000	-0.617622
374.089000	-0.445913
374.265000	-0.040404
374.440000	0.038774
374.616000	0.068452
374.792000	-0.177903
374.968000	0.227775
375.143000	0.005513
375.319000	-0.313193
375.495000	-0.364049
375.670000	-0.243343
375.846000	-0.124828
376.022000	-0.264452
376.197000	-0.281872
376.373000	-0.405656
376.549000	-0.353051
376.724000	-0.397565
376.900000	-0.294888
377.076000	-0.161244
377.252000	0.118471
377.427000	0.233064
377.603000	-0.183430
377.779000	-0.221927
377.954000	-0.306857
378.130000	-0.186571
378.306000	-0.185205
378.481000	-0.184445
378.657000	-0.233867
378.833000	-0.236616
379.009000	-0.166654
379.184000	-0.010468
379.360000	-0.063829
379.536000	-0.111914
379.711000	-0.158896
379.887000	-0.239128
380.063000	-0.296287
380.238000	-0.352161
380.414000	-0.067011
380.590000	-0.302724
380.765000	-0.327120
380.941000	-0.098011
381.117000	-0.084940
381.293000	-0.168552
381.468000	-0.271038
381.644000	-0.228352
381.820000	-0.128774
381.995000	-0.019836
382.171000	0.192021
382.347000	0.204428
382.522000	-0.211449
382.698000	0.105349
382.874000	0.083341
383.050000	-0.315152
383.225000	0.049252
383.401000	0.257138
383.577000	-0.092872
383.752000	-0.218531
383.928000	-0.214939
384.104000	-0.140843
384.279000	-0.242774
384.455000	-0.146249
384.631000	-0.146463
384.806000	-0.306129
384.982000	-0.090833
385.158000	-0.144773
385.334000	-0.044030
385.509000	-0.155521
385.685000	-0.424914
385.861000	-0.211379
386.036000	-0.323077
386.212000	-0.529961
386.388000	-0.258924
386.563000	-0.236973
386.739000	-0.304538
386.915000	-0.558621
387.090000	-0.290902
387.266000	0.023925
387.442000	0.126339
387.618000	-0.010163
387.793000	-0.317754
387.969000	-0.491444
388.145000	-0.332159
388.320000	-0.317706
388.496000	-0.345832
388.672000	-0.509653
388.847000	-0.083669
389.023000	-0.084208
389.199000	-0.369905
389.375000	-0.193472
389.550000	-0.331534
389.726000	-0.159041
389.902000	-0.390883
390.077000	-0.205359
390.253000	-0.114088
390.429000	-0.225516
390.604000	-0.120074
390.780000	-0.116437
390.956000	-0.233186
391.131000	-0.280914
391.307000	0.089486
391.483000	-0.130413
391.659000	-0.303077
391.834000	-0.091165
392.010000	-0.235264
392.186000	-0.262581
392.361000	-0.233005
392.537000	-0.400925
392.713000	0.120610
392.888000	0.316663
393.064000	0.037826
393.240000	-0.158349
393.416000	-0.275481
393.591000	-0.348845
393.767000	-0.418571
393.943000	-0.354398
394.118000	-0.038964
394.294000	0.125011
394.470000	-0.038838
394.645000	0.074809
394.821000	0.300679
394.997000	-0.105615
395.172000	-0.160047
395.348000	-0.244457
395.524000	-0.441093
395.700000	-0.316174
395.875000	-0.135889
396.051000	-0.164403
396.227000	-0.208987
396.402000	-0.294367
396.578000	-0.108113
396.754000	-0.240133
396.929000	-0.284978
397.105000	0.042124
397.281000	-0.038100
397.457000	-0.140817
397.632000	-0.147812
397.808000	-0.438865
397.984000	-0.534277
398.159000	-0.435202
398.335000	-0.291680
398.511000	0.127215
398.686000	-0.074770
398.862000	-0.271930
399.038000	-0.355725
399.213000	-0.166233
399.389000	-0.475234
399.565000	-0.178240
399.741000	0.091974
399.916000	0.053105
400.092000	0.239357
400.268000	-0.121356
400.443000	-0.227739
400.619000	0.126537
400.795000	0.024719
400.970000	-0.169059
401.146000	-0.180979
401.322000	0.084158
401.497000	0.457859
401.673000	0.175606
401.849000	-0.154033
402.025000	0.016101
402.200000	-0.110708
402.376000	-0.178238
402.552000	0.228172
402.727000	-0.026172
402.903000	-0.382765
403.079000	-0.200363
403.254000	0.066658
403.430000	0.110913
403.606000	0.010354
403.782000	-0.067916
403.957000	-0.365210
404.133000	-0.512277
404.309000	-0.284574
404.484000	-0.062422
404.660000	-0.096280
404.841000	-0.200262
405.023000	0.110897
405.204000	0.080407
405.385000	-0.318878
405.566000	-0.362273
405.748000	-0.173542
405.929000	0.050359
406.110000	-0.023342
406.292000	-0.142829
406.473000	-0.028748
406.654000	-0.296236
406.835000	-0.129808
407.017000	-0.143284
407.198000	-0.091971
407.379000	-0.053158
407.560000	-0.114108
407.742000	-0.190170
407.923000	-0.110031
408.104000	-0.326855
408.286000	-0.176027
408.467000	-0.047989
408.648000	-0.267958
408.829000	-0.316924
409.011000	-0.164629
409.192000	-0.338066
409.373000	-0.134432
409.555000	-0.009186
409.736000	-0.022950
409.917000	-0.142377
410.098000	-0.157976
410.280000	-0.050088
410.461000	-0.033606
410.642000	-0.009033
410.823000	0.182506
411.005000	0.141643
411.186000	-0.088552
411.367000	-0.135275
411.549000	-0.140661
411.730000	0.095118
411.911000	0.168844
412.092000	-0.066299
412.274000	-0.103709
412.455000	0.031747
412.636000	0.072514
412.818000	-0.184759
412.999000	-0.320536
413.180000	-0.168399
413.361000	-0.063215
413.543000	-0.146534
413.724000	-0.256519
413.905000	-0.304979
414.087000	-0.281340
414.268000	-0.240907
414.449000	-0.198592
414.630000	-0.263761
414.812000	-0.402471
414.993000	-0.032654
415.174000	0.134662
415.355000	-0.107700
415.537000	-0.336038
415.718000	-0.000799
415.899000	-0.107014
416.081000	-0.191198
416.262000	0.059907
416.443000	-0.077131
416.624000	-0.055942
416.806000	0.049208
416.987000	0.163137
417.168000	0.057032
417.350000	-0.126913
417.531000	-0.170550
417.712000	-0.071296
417.893000	0.176739
418.075000	0.267107
418.256000	0.035735
418.437000	0.101351
418.618000	0.202755
418.800000	0.228490
418.981000	0.030331
419.162000	0.133166
419.344000	0.318117
419.525000	0.205143
419.706000	0.114037
419.887000	0.264857
420.069000	0.433680
420.250000	0.295719
420.431000	0.209381
420.613000	0.207766
420.794000	0.035781
420.975000	0.371433
421.156000	0.170148
421.338000	0.138958
421.519000	0.188085
421.700000	0.141936
421.882000	0.090024
422.063000	0.296842
422.244000	0.800024
422.425000	0.593714
422.607000	0.247336
422.788000	0.191596
422.969000	0.120565
423.150000	0.156891
423.332000	0.084276
423.513000	0.306894
423.694000	0.389076
423.876000	0.426764
424.057000	0.507169
424.238000	0.581910
424.419000	0.609692
424.601000	0.434845
424.782000	0.486523
424.963000	0.764173
425.145000	0.654833
425.326000	0.613318
425.507000	0.661366
425.688000	0.656960
425.870000	0.474989
426.051000	0.409771
426.232000	0.531083
426.413000	0.554983
426.595000	0.564994
426.776000	0.549241
426.957000	0.585324
427.139000	0.693892
427.320000	0.766993
427.501000	0.923615
427.682000	0.913918
427.864000	0.972965
428.045000	1.206963
428.226000	1.125264
428.408000	0.751806
428.589000	0.971612
428.770000	1.036673
428.951000	0.975511
429.133000	0.859299
429.314000	1.045809
429.495000	1.091032
429.677000	1.115473
429.858000	1.108956
430.039000	1.290705
430.220000	1.378591
430.402000	1.420543
430.583000	1.238380
430.764000	1.284768
430.945000	1.480092
431.127000	1.643106
431.308000	1.495819
431.489000	1.711056
431.671000	1.856600
431.852000	1.747349
432.033000	1.673633
432.214000	1.774639
432.396000	1.894260
432.577000	1.753520
432.758000	1.686795
432.940000	1.909083
433.121000	2.016442
433.302000	2.057936
433.483000	2.309421
433.665000	2.422058
433.846000	2.373483
434.027000	2.290707
434.208000	2.222393
434.390000	2.270932
434.571000	2.857082
434.752000	3.346762
434.934000	3.146665
435.115000	3.149533
435.296000	3.373112
435.477000	3.203973
435.659000	2.916682
435.840000	3.051545
436.026000	3.141001
436.211000	3.120341
436.397000	2.912510
436.582000	3.093958
436.768000	3.429271
436.953000	3.370830
437.139000	3.461074
437.325000	3.836924
437.510000	3.911661
437.696000	4.024823
437.881000	4.136967
438.067000	3.942558
438.252000	4.039350
438.438000	4.099013
438.624000	4.236265
438.809000	4.439302
438.995000	4.565681
439.180000	4.592135
439.366000	4.718370
439.551000	4.795330
439.737000	4.944682
439.923000	5.096157
440.108000	5.091827
440.294000	5.322405
440.479000	5.525226
440.665000	5.648670
440.850000	5.698859
441.036000	5.819286
441.222000	5.933043
441.407000	5.905785
441.593000	6.217812
441.778000	6.451925
441.964000	6.710336
442.149000	6.457142
442.335000	6.537940
442.521000	6.800846
442.706000	7.150383
442.892000	7.183150
443.077000	7.343035
443.263000	7.541768
443.448000	7.558033
443.634000	7.595353
443.820000	8.034905
444.005000	8.118126
444.191000	8.137280
444.376000	8.311618
444.562000	8.721604
444.747000	9.002166
444.933000	9.064338
445.119000	8.999902
445.304000	9.066191
445.490000	9.395287
445.675000	9.606305
445.861000	9.591395
446.046000	9.864498
446.232000	10.133349
446.418000	10.433304
446.603000	10.669460
446.789000	10.812259
446.974000	10.977259
447.160000	10.948946
447.345000	11.213881
447.531000	11.352907
447.717000	11.797875
447.902000	12.174764
448.088000	12.348870
448.273000	12.383066
448.459000	12.549658
448.644000	12.720297
448.830000	12.961229
449.016000	13.017063
449.201000	13.269230
449.387000	13.681400
449.572000	14.023851
449.758000	14.194088
449.943000	14.303086
450.129000	14.478017
450.315000	14.671290
450.500000	14.878253
450.686000	15.265927
450.871000	15.362467
451.057000	15.758140
451.243000	15.885596
451.428000	16.249481
451.614000	16.506405
451.799000	16.648585
451.985000	17.077320
452.170000	17.353667
452.356000	17.413775
452.542000	17.659140
452.727000	17.943699
452.913000	18.096383
453.098000	18.582433
453.284000	18.814793
453.469000	18.775462
453.655000	19.272066
453.841000	19.336045
454.026000	19.181573
454.212000	19.531401
454.397000	19.684133
454.583000	19.822752
454.768000	19.701605
454.954000	19.943621
455.140000	20.282879
455.325000	20.197592
455.511000	20.297862
455.696000	20.421593
455.882000	20.534284
456.067000	20.989220
456.253000	20.979751
456.439000	20.811632
456.624000	20.758309
456.810000	20.908383
456.995000	21.025209
457.181000	20.864102
457.366000	21.015245
457.552000	20.933263
457.738000	20.941901
457.923000	20.923210
458.109000	21.293219
458.294000	21.151960
458.480000	21.053706
458.665000	20.884222
458.851000	20.580724
459.037000	20.314535
459.222000	20.417756
459.408000	20.221124
459.593000	20.034921
459.779000	20.040164
459.964000	20.153386
460.150000	20.262990
460.336000	19.983100
460.521000	19.415796
460.707000	19.074065
460.892000	18.828589
461.078000	18.904012
461.263000	18.867289
461.449000	18.527597
461.635000	18.261677
461.820000	18.106515
462.006000	17.903005
462.191000	17.548174
462.377000	17.121925
462.562000	17.325281
462.748000	17.172149
462.934000	16.493355
463.119000	16.047802
463.305000	15.971216
463.490000	15.609012
463.676000	15.497837
463.861000	15.287067
464.047000	14.940622
464.233000	14.730898
464.418000	14.423202
464.604000	14.019637
464.789000	13.977350
464.975000	13.737331
465.160000	13.309969
465.346000	13.108607
465.532000	12.850691
465.717000	12.597704
465.903000	12.577618
466.088000	12.284296
466.274000	11.887250
466.459000	11.702513
466.645000	11.819098
466.831000	11.559376
467.016000	11.397001
467.202000	11.183993
467.387000	10.843235
467.573000	10.392137
467.758000	10.552076
467.944000	10.222899
468.130000	10.037135
468.315000	9.976911
468.501000	9.965146
468.686000	9.693768
468.872000	9.451817
469.057000	9.421616
469.243000	9.266517
469.429000	8.966768
469.614000	8.818962
469.800000	8.598140
469.985000	8.541854
470.171000	8.502119
470.356000	8.266075
470.542000	8.339260
470.728000	8.178624
470.913000	7.871535
471.099000	7.844643
471.284000	7.756566
471.470000	7.621745
471.655000	7.569592
471.841000	7.376326
472.027000	7.170482
472.212000	7.243203
472.398000	7.227668
472.583000	7.075984
472.769000	7.026109
472.954000	6.816353
473.140000	6.555897
473.326000	6.430864
473.511000	6.623472
473.697000	6.562633
473.882000	6.353404
474.068000	6.146533
474.253000	5.892327
474.439000	5.903660
474.625000	5.916435
474.810000	5.792918
474.996000	5.710368
475.181000	5.513051
475.367000	5.608903
475.552000	5.682260
475.738000	5.309232
475.924000	5.236696
476.109000	5.216916
476.295000	5.015357
476.480000	4.977254
476.666000	4.899002
476.851000	4.812001
477.037000	4.795743
477.223000	4.580376
477.408000	4.428308
477.594000	4.267018
477.779000	4.344647
477.965000	4.285141
478.151000	4.053975
478.336000	4.112874
478.522000	3.965482
478.707000	3.876641
478.893000	3.957519
479.078000	3.744235
479.264000	3.618823
479.450000	3.592621
479.635000	3.727812
479.821000	3.530809
480.006000	3.468888
480.192000	3.432065
480.377000	3.411854
480.563000	3.317653
480.749000	3.102397
480.934000	3.018130
481.120000	3.052306
481.305000	3.069701
481.491000	3.030921
481.676000	3.010072
481.862000	2.953621
482.048000	2.742584
482.233000	2.753113
482.419000	2.710019
482.604000	2.542962
482.790000	2.464026
482.975000	2.474214
483.161000	2.563380
483.347000	2.523853
483.532000	2.488935
483.718000	2.208883
483.903000	2.196169
484.089000	2.202707
484.274000	2.077133
484.460000	2.146424
484.646000	2.172258
484.831000	2.005953
485.017000	2.027224
485.202000	1.968355
485.388000	2.179137
485.573000	2.202283
485.759000	1.948502
485.945000	2.045203
486.130000	1.884591
486.316000	1.832277
486.501000	1.850942
486.687000	1.660505
486.872000	1.540595
487.058000	1.708186
487.244000	1.768068
487.429000	1.579157
487.615000	1.708508
487.800000	1.731685
487.986000	1.557590
488.171000	1.672470
488.357000	1.565642
488.543000	1.577387
488.728000	1.630257
488.914000	1.478022
489.099000	1.401500
489.285000	1.394686
489.470000	1.505250
489.656000	1.487028
489.842000	1.425438
490.027000	1.476837
490.213000	1.319575
490.398000	1.066274
490.584000	1.318246
490.769000	1.285561
490.955000	1.337080
491.141000	1.345619
491.326000	1.232143
491.512000	1.340289
491.697000	1.261410
491.883000	1.117205
492.068000	1.069731
492.254000	1.088808
492.440000	1.168242
492.625000	1.071619
492.811000	1.006844
492.996000	1.094508
493.182000	1.094797
493.367000	0.893370
493.553000	0.800788
493.739000	0.947131
493.924000	1.031541
494.110000	1.052816
494.295000	0.923519
494.481000	0.984957
494.666000	0.996970
494.852000	1.121517
495.038000	0.950122
495.223000	0.840525
495.409000	0.894868
495.594000	0.828658
495.780000	0.828376
495.965000	0.797299
496.151000	1.053221
496.337000	1.100945
496.522000	0.785051
496.708000	0.849706
496.893000	0.978876
497.079000	0.836305
497.264000	0.851488
497.450000	0.877931
497.636000	0.917933
497.821000	0.772172
498.007000	0.950952
498.192000	0.984391
498.378000	0.846468
498.563000	0.759023
498.749000	0.784084
498.935000	0.805285
499.120000	0.896372
499.306000	0.741120
499.491000	0.727966
499.677000	0.796484
499.862000	0.827479
500.048000	0.886849
500.234000	0.746709
500.419000	0.751805
500.605000	0.974834
500.790000	0.841231
500.976000	0.670589
501.161000	0.580697
501.347000	0.778779
501.533000	0.889614
501.718000	0.726486
501.904000	0.677598
502.089000	0.834330
502.275000	0.916370
502.460000	0.738288
502.646000	0.821328
502.832000	0.894658
503.017000	0.815938
503.203000	0.631424
503.388000	0.608502
503.574000	0.824398
503.759000	0.871036
503.945000	0.881910
504.131000	0.803048
504.316000	0.770659
504.502000	0.791601
504.687000	0.784304
504.873000	0.683048
505.058000	0.624589
505.244000	0.569845
505.430000	0.650135
505.615000	0.792596
505.801000	0.845110
505.986000	0.703591
506.172000	0.760535
506.358000	0.773598
506.543000	0.784502
506.729000	1.000241
506.914000	0.936204
507.100000	0.996372
507.285000	0.826860
507.471000	0.736638
507.657000	0.958825
507.842000	0.805730
508.028000	0.631616
508.213000	0.753095
508.399000	0.792798
508.584000	0.898582
508.770000	0.855073
508.956000	0.842394
509.141000	0.853077
509.327000	0.910209
509.512000	0.876178
509.698000	0.925127
509.883000	0.920067
510.069000	0.832533
510.255000	0.861643
510.440000	0.904912
510.626000	0.804739
510.811000	0.757893
510.997000	0.857926
511.182000	1.092855
511.368000	1.036432
511.554000	0.746892
511.739000	0.757930
511.925000	0.983219
512.110000	0.978455
512.296000	1.092524
512.481000	1.133482
512.667000	0.988468
512.853000	0.784636
513.038000	0.843554
513.224000	0.861109
513.409000	0.812832
513.595000	0.924187
513.780000	0.738472
513.966000	0.813689
514.152000	0.809940
514.337000	0.752487
514.523000	0.835380
514.708000	0.897935
514.894000	0.933281
515.079000	0.796750
515.265000	0.801421
515.451000	0.879088
515.636000	0.768322
515.822000	0.862128
516.007000	0.732643
516.193000	0.849820
516.378000	0.965501
516.564000	0.894501
516.750000	0.896744
516.935000	0.951374
517.121000	0.918306
517.306000	0.984977
517.492000	0.920526
517.677000	0.706417
517.863000	0.716235
518.049000	0.865679
518.234000	0.814679
518.420000	0.875798
518.605000	1.059627
518.791000	1.024228
518.976000	0.827963
519.162000	0.721610
519.348000	0.834386
519.533000	0.825418
519.719000	1.035873
519.904000	0.910741
520.090000	0.848781
520.275000	1.008468
520.461000	0.963802
520.647000	0.730345
520.832000	0.515959
521.018000	0.644879
521.203000	0.685400
521.389000	0.533864
521.574000	0.648776
521.760000	0.721448
521.946000	0.713906
522.131000	0.644377
522.317000	0.633655
522.502000	0.549762
522.688000	0.672574
522.873000	0.622579
523.059000	0.613275
523.245000	0.638012
523.430000	0.512110
523.616000	0.539251
523.801000	0.434587
523.987000	0.515520
524.172000	0.626885
524.358000	0.658442
524.544000	0.614413
524.729000	0.743245
524.915000	0.770399
525.100000	0.608156
525.286000	0.644227
525.471000	0.632329
525.657000	0.672212
525.843000	0.437344
526.028000	0.549669
526.214000	0.512138
526.399000	0.381618
526.585000	0.273315
526.770000	0.255550
526.956000	0.431984
527.142000	0.368710
527.327000	0.519400
527.513000	0.423042
527.698000	0.370006
527.884000	0.395222
528.069000	0.317011
528.255000	0.448611
528.441000	0.407357
528.626000	0.394635
528.812000	0.623688
528.997000	0.465065
529.183000	0.309044
529.368000	0.404807
529.554000	0.421977
529.740000	0.431238
529.925000	0.397018
530.111000	0.403519
530.296000	0.440541
530.482000	0.538995
530.667000	0.441802
530.853000	0.494113
531.039000	0.395216
531.224000	0.444519
531.410000	0.542815
531.595000	0.420166
531.781000	0.463342
531.967000	0.333809
532.152000	0.467384
532.338000	0.410216
532.523000	0.238447
532.709000	0.176732
532.894000	0.282443
533.080000	0.354116
533.266000	0.192631
533.451000	0.165937
533.637000	0.189745
533.822000	0.383761
534.008000	0.253990
534.193000	0.274100
534.379000	0.386230
534.565000	0.282632
534.750000	0.249216
534.936000	0.498812
535.121000	0.305002
535.307000	0.327246
535.492000	0.364748
535.678000	0.137188
535.864000	0.265398
536.049000	0.514619
536.235000	0.284938
536.420000	0.292914
536.606000	0.229070
536.791000	0.104781
536.977000	0.084800
537.163000	0.340290
537.348000	0.324111
537.534000	0.376585
537.719000	0.205611
537.905000	0.079849
538.090000	0.313499
538.276000	0.423570
538.462000	0.399363
538.647000	0.403316
538.833000	0.288116
539.018000	0.402700
539.204000	0.365207
539.389000	0.182309
539.575000	0.463172
539.761000	0.379416
539.946000	0.131392
540.132000	0.274176
540.317000	0.146793
540.503000	0.331299
540.688000	0.423621
540.874000	0.610825
541.060000	0.776912
541.245000	0.561893
541.431000	0.354396
541.616000	0.441921
541.802000	0.422499
541.987000	0.508101
542.173000	0.534958
542.359000	0.395891
542.544000	0.494954
542.730000	0.314361
542.915000	0.295065
543.101000	0.541057
543.286000	0.331040
543.472000	0.239523
543.658000	0.401688
543.843000	0.339244
544.029000	0.515973
544.214000	0.371356
544.400000	0.052819
544.585000	0.234499
544.771000	0.337891
544.957000	0.526316
545.142000	0.570495
545.328000	0.657137
545.513000	0.681626
545.699000	0.643031
545.884000	0.505787
546.070000	0.383867
546.261000	0.356574
546.451000	0.158823
546.642000	-0.063692
546.833000	0.088482
547.023000	-0.006037
547.214000	0.020294
547.405000	0.215288
547.595000	0.458309
547.786000	0.377965
547.977000	0.166524
548.167000	-0.051302
548.358000	-0.011480
548.549000	0.406507
548.740000	0.248406
548.930000	-0.110709
549.121000	-0.014248
549.312000	-0.006207
549.502000	-0.071145
549.693000	0.045139
549.884000	0.126265
550.074000	0.194542
550.265000	-0.055210
550.456000	0.097330
550.646000	0.157682
550.837000	0.089393
551.028000	-0.011771
551.218000	0.138750
551.409000	0.004673
551.600000	0.032187
551.790000	0.189739
551.981000	-0.100250
552.172000	-0.067235
552.362000	0.308925
552.553000	0.396666
552.744000	0.174172
552.934000	0.049211
553.125000	-0.048184
553.316000	-0.070511
553.506000	0.292401
553.697000	0.130907
553.888000	0.105493
554.079000	0.298805
554.269000	0.271072
554.460000	-0.071101
554.651000	-0.144317
554.841000	-0.288113
555.032000	-0.192652
555.223000	-0.020620
555.413000	0.114453
555.604000	0.066930
555.795000	0.001982
555.985000	0.027522
556.176000	-0.009346
556.367000	-0.281168
556.557000	-0.159945
556.748000	-0.066323
556.939000	-0.088958
557.129000	-0.165554
557.320000	-0.034950
557.511000	-0.049066
557.701000	-0.048988
557.892000	-0.049185
558.083000	0.183745
558.273000	0.104246
558.464000	-0.066187
558.655000	-0.077483
558.845000	-0.017828
559.036000	0.078443
559.227000	0.089837
559.418000	0.206408
559.608000	0.183622
559.799000	-0.202101
559.990000	-0.201027
560.180000	-0.108126
560.371000	-0.292075
560.562000	-0.260574
560.752000	-0.082793
560.943000	-0.204393
561.134000	-0.409662
561.324000	-0.186702
561.515000	0.131264
561.706000	-0.028983
561.896000	-0.247930
562.087000	-0.163511
562.278000	-0.163447
562.468000	-0.306733
562.659000	-0.227532
562.850000	0.105578
563.040000	0.139183
563.231000	-0.325950
563.422000	-0.157271
563.612000	-0.227358
563.803000	-0.090164
563.994000	-0.156404
564.185000	-0.275398
564.375000	-0.048035
564.566000	-0.070163
564.757000	-0.117634
564.947000	-0.206379
565.138000	-0.083878
565.329000	-0.169351
565.519000	-0.279713
565.710000	-0.210895
565.901000	-0.031255
566.091000	0.079324
566.282000	-0.097341
566.473000	-0.050307
566.663000	-0.033774
566.854000	-0.287988
567.045000	-0.161760
567.235000	-0.041728
567.426000	-0.068976
567.617000	-0.033413
567.807000	-0.074193
567.998000	-0.068617
568.189000	-0.182483
568.379000	-0.111700
568.570000	-0.071032
568.761000	-0.070883
568.951000	-0.086915
569.142000	-0.151700
569.333000	-0.124753
569.524000	-0.258503
569.714000	-0.363160
569.905000	-0.467038
570.096000	-0.065099
570.286000	0.066082
570.477000	0.180632
570.668000	-0.043450
570.858000	-0.067437
571.049000	-0.184070
571.240000	-0.295776
571.430000	-0.035298
571.621000	-0.101287
571.812000	-0.006058
572.002000	-0.016622
572.193000	-0.177280
572.384000	-0.111378
572.574000	-0.048223
572.765000	-0.090222
572.956000	-0.105672
573.146000	0.112134
573.337000	-0.050582
573.528000	-0.094971
573.718000	0.035749
573.909000	0.134716
574.100000	0.043360
574.290000	-0.140536
574.481000	-0.158298
574.672000	-0.104188
574.863000	0.012103
575.053000	-0.139558
575.244000	-0.044358
575.435000	-0.182639
575.625000	-0.141029
575.816000	-0.166325
576.007000	-0.102649
576.197000	-0.074748
576.388000	-0.036339
576.579000	0.100853
576.769000	0.133722
576.960000	-0.163032
577.155000	-0.412901
577.350000	-0.127026
577.545000	0.021930
577.740000	-0.151546
577.935000	0.174809
578.130000	0.109685
578.326000	-0.180917
578.521000	0.066780
578.716000	0.093859
578.911000	-0.189749
579.106000	-0.067637
579.301000	0.038779
579.496000	-0.136160
579.691000	-0.374674
579.886000	-0.221568
580.081000	-0.035034
580.276000	-0.037392
580.471000	-0.144899
580.666000	-0.242218
580.861000	-0.222625
581.057000	-0.247170
581.252000	-0.130081
581.447000	-0.197972
581.642000	-0.178792
581.837000	-0.176115
582.032000	-0.148896
582.227000	0.083795
582.422000	0.045074
582.617000	-0.173478
582.812000	-0.285514
583.007000	-0.235128
583.202000	-0.313485
583.397000	-0.060194
583.592000	0.189290
583.788000	-0.111980
583.983000	-0.078761
584.178000	0.018183
584.373000	-0.177284
584.568000	-0.202757
584.763000	-0.247636
584.958000	-0.297001
585.153000	-0.153568
585.348000	-0.151133
585.543000	-0.012470
585.738000	-0.040686
585.933000	-0.259467
586.128000	-0.005409
586.324000	-0.057292
586.519000	-0.083166
586.714000	0.041734
586.909000	0.093773
587.104000	0.094086
587.299000	-0.021977
587.494000	-0.012508
587.689000	-0.074011
587.884000	-0.014942
588.079000	-0.048149
588.274000	-0.112395
588.469000	-0.159599
588.664000	-0.033957
588.859000	0.020689
589.055000	0.008809
589.250000	-0.036443
589.445000	-0.220114
589.640000	-0.194038
589.835000	0.044738
590.030000	0.133217
590.225000	0.200222
590.420000	-0.015091
590.615000	-0.168551
590.810000	-0.142018
591.005000	-0.142600
591.200000	-0.195584
591.395000	-0.205176
591.591000	-0.120781
591.786000	0.001679
591.981000	-0.130662
592.176000	-0.077882
592.371000	-0.015196
592.566000	-0.106780
592.761000	0.107729
592.956000	0.037902
593.151000	0.045167
593.346000	0.016227
593.541000	0.067020
593.736000	0.018688
593.931000	-0.197397
594.126000	-0.146626
594.322000	-0.095559
594.517000	-0.195211
594.712000	-0.338789
594.907000	-0.298514
595.102000	-0.149820
595.297000	-0.047139
595.492000	0.023742
595.687000	-0.194488
595.882000	-0.263293
596.077000	-0.121207
596.272000	-0.015486
596.467000	0.077946
596.662000	-0.049964
596.857000	-0.082287
597.053000	-0.065099
597.248000	-0.008165
597.443000	-0.010653
597.638000	-0.139817
597.833000	-0.321414
598.028000	-0.095086
598.223000	0.019154
598.418000	-0.117869
598.613000	-0.157719
598.808000	-0.040645
599.003000	-0.083124
599.198000	-0.240690
599.393000	-0.200640
599.589000	-0.075915
599.784000	-0.243948
599.979000	-0.166471
600.174000	0.069599
600.369000	-0.149153
600.564000	-0.126680
600.759000	0.100101
600.954000	0.215724
601.149000	0.019442
601.344000	-0.268671
601.539000	-0.104507
601.734000	-0.172603
601.929000	-0.378250
602.124000	-0.330390
602.320000	-0.115062
602.515000	0.123718
602.710000	0.050149
602.905000	-0.270565
603.100000	-0.326036
603.295000	-0.260443
603.490000	-0.107999
603.685000	-0.036516
603.880000	-0.046788
604.075000	-0.239145
604.270000	-0.190848
604.465000	-0.154770
604.660000	-0.375806
604.856000	-0.242053
605.051000	-0.021346
605.246000	-0.018759
605.441000	-0.242497
605.636000	-0.294011
605.831000	-0.145085
606.026000	-0.278974
606.221000	-0.333524
606.416000	-0.186733
606.611000	0.001810
606.806000	0.071549
607.001000	0.221647
607.196000	-0.024075
607.391000	-0.218533
607.587000	0.012209
607.782000	-0.024189
607.977000	-0.205773
608.172000	0.147589
608.367000	0.157998
608.562000	-0.099891
608.757000	-0.157220
608.952000	-0.209854
609.147000	0.255009
609.342000	0.192664
609.537000	-0.026975
609.732000	-0.019149
609.927000	-0.045290
610.122000	-0.019143
610.318000	0.295833
610.513000	0.445687
610.708000	0.317342
610.903000	0.380868
611.098000	0.450263
611.293000	0.389701
611.488000	0.379199
611.683000	0.326995
611.878000	0.247767
612.073000	0.216097
612.268000	0.229572
612.463000	0.301739
612.658000	0.293782
612.854000	0.180044
613.049000	0.100306
613.244000	0.225485
613.439000	0.302804
613.634000	-0.006141
613.829000	0.089999
614.024000	-0.030249
614.219000	-0.113217
614.414000	0.189355
614.609000	-0.024945
614.804000	-0.193980
614.999000	-0.201844
615.194000	-0.094869
615.389000	-0.051930
615.585000	-0.243413
615.780000	-0.038579
615.975000	-0.122457
616.170000	-0.100904
616.365000	0.123753
616.560000	0.245847
616.755000	0.137843
616.950000	0.061743
617.145000	0.110805
617.340000	-0.093470
617.535000	-0.306020
617.730000	-0.066308
617.925000	-0.230406
618.120000	-0.257819
618.316000	0.092338
618.511000	-0.022763
618.706000	-0.289808
618.901000	-0.182378
619.096000	-0.003590
619.291000	-0.053246
619.486000	-0.000830
619.681000	-0.308276
619.876000	-0.371821
620.071000	-0.225284
620.266000	0.085277
620.461000	0.146650
620.656000	0.054922
620.852000	0.004733
621.047000	-0.212969
621.242000	-0.302687
621.437000	0.041183
621.632000	0.198494
621.827000	0.024448
622.022000	-0.273631
622.217000	-0.110819
622.412000	0.058434
622.607000	0.041537
622.802000	-0.221362
622.997000	-0.188090
623.192000	-0.066095
623.387000	-0.100157
623.583000	-0.270931
623.778000	0.127430
623.973000	0.027671
624.168000	0.007720
624.363000	0.150460
624.558000	0.133557
624.753000	-0.224649
624.948000	-0.020984
625.143000	0.013520
625.338000	-0.055611
625.533000	-0.150743
625.728000	-0.084542
625.923000	0.062653
626.119000	-0.029808
626.314000	-0.261575
626.509000	-0.271096
626.704000	-0.222286
626.899000	-0.184572
627.094000	-0.187748
627.289000	-0.179400
627.484000	-0.200357
627.679000	-0.159431
627.874000	-0.194915
628.069000	0.178712
628.264000	0.063831
628.459000	-0.095234
628.654000	-0.148441
628.850000	-0.261496
629.045000	-0.128374
629.240000	-0.217533
629.435000	-0.256447
629.630000	-0.105095
629.825000	-0.122954
630.020000	-0.081595
630.215000	-0.284680
630.410000	-0.174843
630.605000	-0.202000
630.800000	-0.177961
630.995000	0.002105
631.190000	0.185977
631.385000	0.050368
631.581000	-0.034139
631.776000	-0.019046
631.971000	-0.225344
632.166000	-0.137496
632.361000	-0.234844
632.556000	-0.174326
632.751000	0.011293
632.946000	-0.083351
633.141000	-0.224478
633.336000	-0.218695
633.531000	-0.148605
633.726000	-0.154568
633.921000	-0.299807
634.117000	-0.473405
634.312000	-0.492428
634.507000	-0.356801
634.702000	-0.245837
634.897000	-0.230665
635.092000	-0.175245
635.287000	-0.128814
635.482000	-0.229221
635.677000	-0.060374
635.872000	0.074146
636.067000	0.155846
636.262000	-0.035572
636.457000	-0.367760
636.652000	-0.412268
636.848000	-0.387996
637.043000	-0.313769
637.238000	-0.289245
637.433000	-0.409943
637.628000	-0.352860
637.823000	-0.073978
638.018000	-0.000954
638.213000	-0.185874
638.408000	-0.233915
638.603000	-0.307754
638.798000	-0.378611
638.993000	-0.276728
639.188000	-0.344185
639.383000	-0.331635
639.579000	0.185045
639.774000	-0.036341
639.969000	-0.287307
640.164000	-0.355682
640.359000	-0.352838
640.554000	-0.091475
640.749000	-0.114416
640.944000	-0.062692
641.139000	-0.130639
641.334000	-0.277010
641.529000	-0.615971
641.724000	-0.460348
641.919000	-0.298078
642.115000	-0.004254
642.310000	-0.043464
642.505000	-0.180656
642.700000	-0.151529
642.895000	-0.270168
643.090000	-0.122407
643.285000	0.061376
643.480000	0.031909
643.675000	-0.010865
643.870000	0.276106
644.065000	0.160962
644.260000	-0.222380
644.455000	-0.183069
644.650000	-0.256534
644.846000	-0.173571
645.041000	-0.359270
645.236000	-0.456582
645.431000	-0.463898
645.626000	-0.659983
645.821000	-0.423516
646.016000	-0.234566
646.211000	0.179515
646.406000	0.065980
646.601000	0.019072
646.796000	-0.191681
646.991000	-0.439296
647.186000	-0.282671
647.381000	-0.054692
647.577000	-0.105122
647.772000	-0.034595
647.967000	-0.108699
648.162000	-0.078474
648.357000	-0.179755
648.552000	-0.048208
648.747000	0.015854
648.942000	0.036116
649.137000	-0.068728
649.332000	-0.295950
649.527000	-0.272105
649.722000	-0.041666
649.917000	0.083915
650.113000	-0.197829
650.308000	-0.306849
650.503000	-0.282910
650.698000	-0.133860
650.893000	-0.195308
651.088000	-0.096524
651.283000	0.033156
651.478000	-0.277901
651.673000	-0.089808
651.868000	-0.243960
652.063000	-0.049026
652.258000	0.095039
652.453000	0.313790
652.648000	-0.021588
652.844000	-0.069611
653.039000	-0.059424
653.234000	-0.516428
653.429000	-0.668804
653.624000	-0.334670
653.819000	-0.052741
654.014000	-0.204454
654.209000	-0.374377
654.404000	-0.156433
654.599000	-0.246845
654.794000	-0.284437
654.989000	0.005893
655.184000	-0.021863
655.380000	-0.431021
655.575000	-0.410262
655.770000	-0.310204
655.965000	-0.251213
656.160000	-0.310446
656.355000	-0.133121
656.550000	-0.168393
656.745000	-0.011513
656.940000	-0.130238
657.135000	-0.116243
657.330000	-0.151212
657.525000	-0.329549
657.720000	-0.046561
657.915000	0.026931
658.111000	-0.123511
658.306000	0.125010
658.501000	-0.092306
658.696000	-0.365920
658.891000	-0.092312
659.086000	-0.187005
659.281000	-0.166225
659.476000	-0.335385
659.671000	-0.750588
659.866000	-0.388309
660.061000	-0.082082
660.256000	-0.029253
660.451000	-0.092776
660.646000	-0.318961
660.842000	-0.209704
661.037000	-0.312375
661.232000	-0.362421
661.427000	-0.153278
661.622000	-0.288325
661.817000	-0.437157
662.012000	-0.185893
662.207000	-0.314066
662.402000	-0.457487
662.597000	-0.286527
662.792000	-0.525114
662.987000	-0.496187
663.182000	-0.208104
663.378000	-0.211843
663.573000	-0.556155
663.768000	-0.597886
663.963000	-0.423235
664.158000	-0.401403
664.353000	0.092237
664.548000	0.271592
664.743000	-0.072914
664.938000	-0.353038
665.133000	-0.321218
665.328000	0.074570
665.523000	-0.011911
665.718000	-0.163527
665.913000	-0.243310
666.109000	-0.236607
666.304000	-0.019198
666.499000	-0.211041
666.694000	0.027953
666.889000	0.300186
667.084000	-0.135847
667.279000	-0.281359
667.474000	-0.186828
667.669000	-0.084835
667.864000	-0.230748
668.059000	-0.263957
668.254000	-0.099795
668.449000	-0.238974
668.644000	-0.239192
668.840000	0.009877
669.035000	-0.246546
669.230000	-0.548803
669.425000	-0.258586
669.620000	-0.420401
669.815000	-0.458837
670.010000	-0.369902
670.205000	-0.185659
670.400000	-0.174275
670.595000	-0.130457
670.790000	-0.212046
670.985000	-0.253018
671.180000	-0.019656
671.376000	-0.390866
671.571000	-0.462415
671.766000	-0.422469
671.961000	-0.471123
672.156000	-0.430626
672.351000	-0.266355
672.546000	-0.349275
672.741000	-0.191626
672.936000	-0.143253
673.131000	0.388920
673.326000	0.092894
673.521000	-0.403891
673.716000	-0.482927
673.911000	-0.637708
674.107000	-0.053966
674.302000	0.183912
674.497000	-0.046503
674.692000	-0.394612
674.887000	-0.502255
675.082000	-0.305307
675.277000	-0.084905
675.472000	-0.214638
675.667000	-0.211149
675.862000	-0.287661
676.057000	-0.291676
676.252000	-0.253984
676.447000	-0.300689
676.643000	-0.146960
676.838000	0.152621
677.033000	-0.143597
677.228000	0.130062
677.423000	0.145588
677.618000	-0.245111
677.813000	-0.473294
678.008000	-0.307873
678.203000	-0.152740
678.398000	-0.347696
678.593000	-0.141385
678.788000	-0.079323
678.983000	-0.348517
679.178000	-0.192503
679.374000	-0.274901
679.569000	-0.173604
679.764000	-0.331337
679.959000	-0.466087
680.154000	-0.493766
680.349000	-0.637833
680.544000	-0.475068
680.739000	-0.348883
680.934000	-0.475798
681.129000	-0.489028
681.324000	-0.573023
681.519000	-0.280046
681.714000	-0.276159
681.909000	-0.454929
682.105000	-0.667751
682.300000	-0.137434
682.495000	0.062875
682.690000	0.014851
682.885000	-0.037359
683.080000	-0.202621
683.275000	-0.259147
683.470000	0.043176
683.665000	0.249517
683.860000	0.537569
684.055000	0.156864
684.250000	-0.439405
684.445000	-0.426553
684.641000	0.205995
684.836000	-0.180291
685.031000	-0.311646
685.226000	-0.230267
685.421000	0.043886
685.616000	-0.214508
685.811000	-0.284916
686.006000	0.002878
686.201000	-0.120612
686.396000	-0.435124
686.591000	-0.373889
686.786000	0.052668
686.981000	-0.109079
687.176000	-0.113502
687.372000	-0.280120
687.567000	0.007079
687.762000	-0.051360
687.957000	-0.134867
688.152000	-0.223025
688.347000	-0.160549
688.542000	-0.459312
688.737000	-0.816146
688.932000	-0.859609
689.127000	-0.485810
689.322000	-0.106904
689.517000	-0.351905
689.712000	-0.637197
689.908000	-0.506284
690.103000	-0.434982
690.298000	-0.201154
690.493000	-0.231528
690.688000	-0.547730
690.883000	-0.352558
691.078000	0.101561
691.273000	0.127286
691.468000	-0.177345
691.663000	-0.109053
691.858000	0.102174
692.053000	-0.091824
692.248000	-0.100548
692.443000	-0.001295
692.639000	-0.131022
692.834000	-0.048984
693.029000	0.445361
693.224000	0.312405
693.419000	-0.219366
693.614000	-0.355233
693.809000	-0.416709
694.004000	-0.505113
694.199000	-0.535639
694.394000	-0.177101
694.589000	-0.511631
694.784000	-0.498939
694.979000	-0.230321
695.174000	-0.310375
695.370000	0.267537
695.565000	0.095877
695.760000	-0.302458
695.955000	0.038620
696.150000	0.083037
696.345000	-0.357954
696.540000	-0.104047
696.740000	-0.219996
696.940000	0.070113
697.140000	0.092918
697.340000	-0.275640
697.539000	-0.086830
697.739000	-0.154376
697.939000	-0.055398
698.139000	-0.465735
698.339000	-0.888352
698.539000	-0.725020
698.739000	-0.686153
698.939000	-0.452298
699.138000	-0.544294
699.338000	0.085026
699.538000	0.313558
699.738000	-0.257716
699.938000	-0.372467
700.138000	-0.400633
700.338000	-0.457019
700.538000	-0.264373
700.737000	-0.250450
700.937000	-0.649791
701.137000	-0.701452
701.337000	-0.093982
701.537000	-0.122027
701.737000	-0.311868
701.937000	-0.289351
702.137000	-0.233629
702.337000	-0.406164
702.536000	-0.649417
702.736000	-0.533509
702.936000	-0.627786
703.136000	-0.165498
703.336000	-0.179522
703.536000	-0.391533
703.736000	-0.736646
703.936000	-0.603429
704.135000	-0.631332
704.335000	-0.208833
704.535000	-0.450477
704.735000	-0.611819
704.935000	-0.067521
705.135000	-0.139021
705.335000	-0.429881
705.535000	-0.201505
705.735000	-0.187182
705.934000	-0.239451
706.134000	-0.430014
706.334000	-0.383300
706.534000	-0.417313
706.734000	-0.408077
706.934000	-0.594620
707.134000	-0.661765
707.334000	-0.380257
707.533000	-0.323311
707.733000	-0.361482
707.933000	-0.462756
708.133000	-0.183822
708.333000	-0.030394
708.533000	-0.262455
708.733000	-0.044944
708.933000	-0.233625
709.132000	-0.321314
709.332000	-0.360694
709.532000	-0.526910
709.732000	-0.438694
709.932000	-0.756283
710.132000	-0.575738
710.332000	-0.808972
710.532000	-0.322817
710.732000	-0.099112
710.931000	-0.338600
711.131000	-0.472361
711.331000	-0.384365
711.531000	-0.527616
711.731000	-0.415564
711.931000	-0.352063
712.131000	-0.425618
712.331000	-0.218551
712.530000	-0.188720
712.730000	-0.530105
712.930000	-0.544744
713.130000	-0.457444
713.330000	-0.438161
713.530000	-0.250516
713.730000	0.307434
713.930000	-0.031381
714.129000	-0.509039
714.329000	-0.695373
714.529000	-0.335700
714.729000	0.093470
714.929000	-0.046486
715.129000	-0.592308
715.329000	-0.427478
715.529000	-0.353750
715.729000	0.365139
715.928000	0.159614
716.128000	-0.318923
716.328000	-0.254177
716.528000	-0.284822
716.728000	-0.214047
716.928000	-0.441801
717.128000	-0.295699
717.328000	-0.321007
717.527000	-0.433098
717.727000	-0.413191
717.927000	-0.302350
718.127000	-0.384148
718.327000	-0.844817
718.527000	-0.691146
718.727000	-0.267408
718.927000	-0.339604
719.127000	-0.608398
719.326000	-0.385685
719.526000	0.085694
719.726000	-0.202087
719.926000	-0.780914
720.126000	-0.698446
720.326000	-0.409301
720.526000	-0.522950
720.726000	-0.358834
720.925000	-0.162174
721.125000	-0.615217
721.325000	-0.292432
721.525000	-0.220246
721.725000	-0.340039
721.925000	-0.299221
722.125000	-0.393249
722.325000	-0.027676
722.524000	-0.362975
722.724000	-0.720034
722.924000	-0.803893
723.124000	-0.526619
723.324000	-0.143484
723.524000	-0.112051
723.724000	-0.696607
723.924000	-0.450746
724.124000	-0.260603
724.323000	-0.133911
724.523000	-0.292443
724.723000	0.162700
724.923000	0.019615
725.123000	0.046169
725.323000	-0.044125
725.523000	-0.278574
725.723000	-0.570929
725.922000	-0.550266
726.122000	-0.316239
726.322000	-0.413342
726.522000	-0.504739
726.722000	0.201556
726.922000	-0.076400
727.122000	-0.242865
727.322000	0.057439
727.521000	-0.087715
727.721000	-0.443532
727.921000	-0.443553
728.121000	-0.330291
728.321000	-0.665578
728.521000	-0.548221
728.721000	-0.316048
728.921000	0.036308
729.121000	0.606316
729.320000	-0.039669
729.520000	-0.403789
729.720000	-0.649415
729.920000	-0.482954
730.120000	-0.334427
730.320000	-0.335247
730.520000	-0.756667
730.720000	-0.649282
730.919000	-0.544900
731.119000	-0.111598
731.319000	-0.601853
731.519000	-0.678851
731.719000	-0.315715
731.919000	-0.508832
732.119000	-0.940388
732.319000	-0.887947
732.519000	-0.439500
732.718000	-0.689804
732.918000	-0.601528
733.118000	-0.385872
733.318000	-0.074269
733.518000	-0.448444
733.718000	-0.941196
733.918000	-0.919363
734.118000	-0.616983
734.317000	-0.349906
734.517000	-0.601812
734.717000	-0.480726
734.917000	0.032196
735.117000	-0.024314
735.317000	-0.210858
735.517000	0.293057
735.717000	0.509961
735.916000	-0.439531
736.116000	-0.649350
736.316000	-0.373265
736.516000	-0.333148
736.716000	-0.436227
736.916000	-0.960399
737.116000	-0.642038
737.316000	0.107854
737.516000	0.079172
737.715000	0.015613
737.915000	-0.603408
738.115000	-0.669164
738.315000	-0.338605
738.515000	-0.599847
738.715000	-0.404778
738.915000	0.097675
739.115000	-0.470434
739.314000	-0.592926
739.514000	0.086351
739.714000	0.239683
739.914000	0.015947
740.114000	-0.321310
740.314000	-0.203114
740.514000	0.188006
740.714000	-0.454051
740.913000	-0.877840
741.113000	-0.640459
741.313000	-0.228608
741.513000	-0.348965
741.713000	-0.373909
741.913000	-0.279195
742.113000	-0.326938
742.313000	-0.888779
742.513000	-0.539321
742.712000	-0.468360
742.912000	-0.753331
743.112000	-0.634256
743.312000	-0.976416
743.512000	-0.502436
743.712000	-0.332561
743.912000	-1.044689
744.112000	-1.155848
744.311000	-1.072803
744.511000	-0.636954
744.711000	-0.156390
744.911000	-0.571362
745.111000	-0.609260
745.311000	-0.237839
745.511000	-0.661023
745.711000	-0.761235
745.911000	-0.444371
746.110000	-0.937178
746.310000	-1.068152
746.510000	-0.746655
746.710000	-0.171645
746.910000	-0.096282
747.110000	-0.651108
747.310000	-1.005835
747.510000	-0.743464
747.709000	-0.407873
747.909000	-0.434357
748.109000	-0.123154
748.309000	-0.385563
748.509000	-0.725585
748.709000	-0.715418
748.909000	-0.503144
749.109000	-0.511795
749.308000	-0.014859
749.508000	-0.339122
749.708000	-0.546799
749.908000	-0.280921
750.108000	-0.255728
750.308000	-0.785532
750.508000	-0.119801
750.708000	-0.669929
750.908000	-1.084835
751.107000	-0.271880
751.307000	0.326791
751.507000	-0.266106
751.707000	-0.272362
751.907000	-0.444916
752.107000	-0.320389
752.307000	-0.707493
752.507000	-0.549192
752.706000	-0.588830
752.906000	0.378908
753.106000	-0.565304
753.306000	-1.158966
753.506000	-0.170643
753.706000	-0.623786
753.906000	-0.333233
754.106000	0.025043
754.305000	-0.117243
754.505000	-0.185497
754.705000	-0.316317
754.905000	-0.262049
755.105000	-0.235029
755.305000	-1.003868
755.505000	-0.772789
755.705000	-0.298340
755.905000	-0.306148
756.104000	-0.887420
756.304000	-1.298988
756.504000	-1.475407
756.704000	-0.512054
756.904000	-0.330237
757.104000	-0.455265
757.304000	-0.434765
757.504000	-0.107425
757.703000	-0.409263
757.903000	-0.009148
758.103000	0.216474
758.303000	-0.214254
758.503000	-0.583488
758.703000	-0.684338
758.903000	-0.713082
759.103000	-0.472663
759.303000	-0.560892
759.502000	-0.505175
759.702000	-0.045254
759.902000	-0.327062
760.102000	-0.371269
760.302000	-0.510489
760.502000	-0.154210
760.702000	-0.183433
760.902000	-0.612496
761.101000	-0.781849
761.301000	-1.024097
761.501000	-0.776169
761.701000	-1.004536
761.901000	-0.722943
762.101000	-0.061173
762.301000	-0.260171
762.501000	-0.702966
762.700000	-0.743255
762.900000	-0.847302
763.100000	-0.432668
763.300000	-0.203432
763.500000	-0.576589
763.703000	-0.678741
763.905000	-0.912657
764.108000	-0.174494
764.311000	-0.481607
764.513000	-0.549680
764.716000	-0.288377
764.919000	-0.477250
765.121000	-0.929980
765.324000	-1.121903
765.527000	-1.006202
765.729000	-0.755198
765.932000	0.005332
766.135000	-0.131747
766.337000	-0.505162
766.540000	-0.812597
766.743000	-0.418175
766.945000	-0.840074
767.148000	-1.219440
767.351000	-1.065223
767.553000	-0.249714
767.756000	-0.451202
767.958000	-0.861298
768.161000	-0.598707
768.364000	-0.896315
768.566000	-1.202117
768.769000	-0.557336
768.972000	-0.260262
769.174000	-0.762783
769.377000	-1.291717
769.580000	-1.436286
769.782000	-0.451057
769.985000	-1.013183
770.188000	-1.894242
770.390000	-0.893338
770.593000	0.545822
770.796000	0.196388
770.998000	-0.424032
771.201000	-0.790819
771.404000	-0.353300
771.606000	-0.690990
771.809000	-0.562696
772.012000	-0.419427
772.214000	-1.262482
772.417000	-1.415128
772.620000	-0.482521
772.822000	-0.752372
773.025000	-1.099325
773.228000	-0.996330
773.430000	-0.722795
773.633000	-0.561978
773.836000	-0.578987
774.038000	-0.206223
774.241000	-0.360997
774.444000	-0.615499
774.646000	0.291575
774.849000	-0.076128
775.052000	-0.452597
775.254000	-0.371489
775.457000	-0.870935
775.659000	-0.823745
775.862000	-0.848585
776.065000	-0.734786
776.267000	-0.018958
776.470000	0.353524
776.673000	-0.441589
776.875000	-0.027421
777.078000	-0.118634
777.281000	-0.876895
777.483000	-0.361733
777.686000	-0.061099
777.889000	-0.245497
778.091000	0.106776
778.294000	-0.984807
778.497000	-0.969260
778.699000	-0.978448
778.902000	-0.829836
779.105000	-0.585062
779.307000	0.175008
779.510000	-0.815989
779.713000	-0.461896
779.915000	-0.762127
780.118000	0.287893
780.321000	0.484973
780.523000	-0.396938
780.726000	-0.946016
780.929000	-1.005691
781.131000	-0.998660
781.334000	-1.459166
781.537000	-1.523749
781.739000	-0.357280
781.942000	-0.877037
782.145000	-1.368918
782.347000	-1.378490
782.550000	-0.961119
782.753000	-1.060443
782.955000	-0.852939
783.158000	-0.756066
783.361000	-0.599847
783.563000	-0.670218
783.766000	-0.821670
783.968000	1.152811
784.171000	1.069492
784.374000	-0.374843
784.576000	-0.693653
784.779000	-0.250313
784.982000	0.068499
785.184000	-0.745052
785.387000	-0.128097
785.590000	0.632982
785.792000	0.419694
785.995000	0.024302
786.198000	-0.192029
786.400000	-0.401070
786.603000	-0.447470
786.806000	-0.672300
787.008000	-0.310331
787.211000	-0.229729
787.414000	-0.922971
787.616000	-0.560632
787.819000	-0.644458
788.022000	-1.287902
788.224000	-0.775768
788.427000	-1.439160
788.630000	-0.741971
788.832000	-0.538107
789.035000	-0.896647
789.238000	-1.687527
789.440000	-1.315626
789.643000	-0.086412
789.846000	-0.748239
790.048000	-0.357746
790.251000	-0.096232
790.454000	-0.515626
790.656000	0.100137
790.859000	-0.631290
791.062000	-0.989479
791.264000	-0.303265
791.467000	-1.030561
791.669000	-1.617502
791.872000	-0.799980
792.075000	-1.197163
792.277000	-0.931910
792.480000	-0.469917
792.683000	-1.010462
792.885000	-1.363493
793.088000	-1.120197
793.291000	-1.352769
793.493000	-1.479920
793.696000	-0.473031
793.899000	-0.176072
794.101000	-0.658666
794.304000	-0.689151
794.507000	-0.215861
794.709000	-0.148513
794.912000	-1.006738
795.115000	-1.203965
795.317000	-0.656971
795.520000	-0.493167
795.723000	-0.810165
795.925000	-1.156394
796.128000	-1.499512
796.331000	-1.000656
796.533000	-1.329791
796.736000	-0.669728
796.939000	-0.551629
797.141000	-0.953145
797.344000	-0.123136
797.547000	0.107165
797.749000	-0.293873
797.952000	-0.890126
798.155000	-1.109473
798.357000	-1.591760
798.560000	-1.163161
798.763000	-0.328359
798.965000	-0.531174
799.168000	-0.695698
799.371000	-0.614927
799.573000	-0.811383
799.776000	-1.447922
799.978000	-1.442666
800.181000	-0.713957
800.384000	0.729507
800.586000	0.234777
800.789000	-1.357396
800.992000	-1.284159
801.194000	-1.525135
801.397000	-1.830118
801.600000	-1.482228
801.802000	0.122051
802.005000	-0.139184
802.208000	-1.598368
802.410000	-0.621812
802.613000	-0.614024
802.816000	-0.562018
803.018000	-1.303590
803.221000	-1.062402
803.424000	0.325858
803.626000	-0.226435
803.829000	-0.888364
804.032000	0.039563
804.234000	0.787818
804.437000	-0.668828
804.640000	-0.528821
804.842000	-0.368764
805.045000	-0.964853
805.248000	-0.858410
805.450000	-0.792687
805.653000	-0.808594
805.856000	-0.938163
806.058000	0.105772
806.261000	-0.943263
806.464000	-0.725387
806.666000	-0.211495
806.869000	-0.709135
807.072000	-2.208777
807.274000	-2.563334
807.477000	-1.231502
807.679000	-0.634536
807.882000	-1.401850
808.085000	-0.908462
808.287000	-0.104023
808.490000	-1.493855
808.693000	-1.393977
808.895000	-0.924000
809.098000	-0.688562
809.301000	-0.611973
809.503000	-0.603309
809.706000	0.121775
809.909000	0.144513
810.111000	0.019371
810.314000	-0.517370
810.517000	-0.948274
810.719000	-1.090994
810.922000	-0.923167
811.125000	0.203050
811.327000	0.134987
811.530000	-0.559463
811.735000	-0.859325
811.940000	-1.220584
812.146000	-1.039475
812.351000	-0.445857
812.556000	-0.645824
812.761000	-1.303947
812.967000	-0.262385
813.172000	-0.156325
813.377000	-0.451564
813.582000	0.103010
813.788000	-0.456611
813.993000	-1.501965
814.198000	-0.967770
814.403000	-1.645366
814.609000	-0.674020
814.814000	-0.412489
815.019000	0.464552
815.224000	-0.039593
815.429000	-0.897356
815.635000	-0.306520
815.840000	-0.440266
816.045000	-0.466640
816.250000	-0.076882
816.456000	-1.323896
816.661000	-2.312401
816.866000	-1.812881
817.071000	-1.799440
817.277000	-2.281445
817.482000	-1.194155
817.687000	-0.561379
817.892000	-0.676721
818.097000	0.071257
818.303000	0.546299
818.508000	0.582663
818.713000	2.011911
818.918000	0.722903
819.124000	0.347936
819.329000	-0.634495
819.534000	-0.952681
819.739000	-1.269082
819.945000	-1.211506
820.150000	-0.885986
820.355000	-0.682754
820.560000	-0.131584
820.766000	-0.477735
820.971000	-0.532017
821.176000	-2.108703
821.381000	-2.553273
821.586000	-1.597103
821.792000	-0.224870
821.997000	-0.771518
822.202000	-1.123903
822.407000	-1.662883
822.613000	-1.797276
822.818000	-1.027634
823.023000	-0.385011
823.228000	-0.625551
823.434000	0.035680
823.639000	0.088728
823.844000	-0.933439
824.049000	-0.229878
824.255000	-0.070653
824.460000	-0.566523
824.665000	-0.728251
824.870000	0.022877
825.075000	-0.138783
825.281000	-0.098657
825.486000	0.906775
825.691000	-1.529008
825.896000	-2.868919
826.102000	-1.027884
826.307000	-0.660925
826.512000	-0.993035
826.717000	-1.092539
826.923000	-1.192375
827.128000	-0.807275
827.333000	-1.537187
827.538000	-0.353912
827.744000	0.136019
827.949000	-1.319825
828.154000	-1.016012
828.359000	-0.032305
828.564000	-0.738275
828.770000	-0.712979
828.975000	0.123598
829.180000	-0.375529
829.385000	-1.688525
829.591000	-1.509294
829.796000	-0.695757
830.001000	-0.697086
830.206000	-1.510053
830.412000	-1.551902
830.617000	-1.236692
830.822000	0.199615
831.027000	-0.571345
831.232000	-1.584021
831.438000	-1.551021
831.643000	-1.079583
831.848000	-1.274167
832.053000	-0.982616
832.259000	-0.909637
832.464000	-2.846690
832.669000	-2.468680
832.874000	-1.778795
833.080000	-1.651874
833.285000	0.040501
833.490000	-0.079559
833.695000	-1.409764
833.901000	-1.264586
834.106000	-1.722643
834.311000	-1.273173
834.516000	-0.846511
834.721000	-1.451652
834.927000	0.088108
835.132000	-0.593186
835.337000	0.894983
835.542000	-0.472777
835.748000	-1.935717
835.953000	-0.051568
836.158000	0.057961
836.363000	-0.319279
836.569000	-0.401003
836.774000	-1.259108
836.979000	-1.737552
837.184000	-2.203904
837.390000	-1.952490
837.595000	-1.141337
837.800000	-0.903293
838.005000	-0.957253
838.210000	-1.248360
838.416000	-1.561227
838.621000	-0.866431
838.826000	-0.833410
839.031000	-1.098956
839.237000	-1.682963
839.442000	-2.542487
839.647000	-2.933561
839.852000	-2.219160
840.058000	-1.829172
840.263000	-1.771497
840.468000	-2.590689
840.673000	-1.406420
840.878000	-1.040364
841.084000	-1.953698
841.289000	-1.352336
841.494000	1.080254
841.699000	1.134872
841.905000	0.404306
842.110000	0.252127
842.315000	-1.844275
842.520000	-1.035397
842.726000	-1.313261
842.931000	-2.103297
843.136000	-1.079176
843.341000	-2.326275
843.547000	-1.520391
843.752000	-1.365211
843.957000	-2.026793
844.162000	-1.930441
844.367000	-1.439039
844.573000	-0.414194
844.778000	-0.466288
844.983000	-0.840668
845.188000	-0.237594
845.394000	-1.934147
845.599000	-1.569772
845.804000	-1.466871
846.009000	-0.786649
846.215000	-2.031402
846.420000	-1.853876
846.625000	-0.446159
846.830000	0.067689
847.036000	-1.126882
847.241000	-1.630109
847.446000	0.197509
847.651000	-0.635801
847.856000	-2.100501
848.062000	-2.106732
848.267000	-0.230814
848.472000	-1.097818
848.677000	-2.214985
848.883000	-0.740544
849.088000	0.850828
849.293000	-0.827430
849.498000	-1.437091
849.704000	-0.522477
849.909000	-1.176221
850.114000	-1.982178
850.319000	-1.025038
850.524000	-1.050012
850.730000	-0.705924
850.935000	-0.864960
851.140000	-0.201638
851.345000	-0.319052
851.551000	-0.339645
851.756000	-0.065136
851.961000	-1.351711
852.166000	-1.530622
852.372000	-0.760347
852.577000	-0.805898
852.782000	-1.416484
852.987000	0.014064
853.193000	0.014115
853.398000	-0.530477
853.603000	-1.744579
853.808000	-2.635433
854.013000	-1.593761
854.219000	-0.332382
854.424000	1.467745
854.629000	1.163248
854.834000	-1.245363
855.040000	-0.962350
855.245000	-0.234087
855.450000	-2.484421
855.655000	-3.865808
855.861000	-3.618894
856.066000	-2.258862
856.271000	-2.599870
856.476000	-0.239089
856.682000	-1.132081
856.887000	-4.080818
857.092000	-2.770900
857.297000	-0.049108
857.502000	-0.541247
857.708000	-1.163912
857.913000	-0.843851
858.118000	-1.089999
858.323000	-0.723730
858.529000	-0.722611
858.734000	-1.137999
858.939000	-0.617597
859.144000	-1.451775
859.350000	-3.028790
859.555000	-3.170072
859.760000	-0.669279
859.965000	0.236277
860.171000	-2.069157
860.376000	-1.031103
860.581000	-2.418301
860.786000	-4.424144
860.991000	-3.745279
861.197000	-2.325023
861.402000	-0.932225
861.607000	-1.881450
861.812000	-3.137147
862.018000	-3.149181
862.223000	-2.060062
862.428000	-1.039545
862.633000	-0.213513
862.839000	-0.584491
863.044000	-1.847337
863.249000	-2.655456
863.454000	-0.704639
863.659000	-1.196624
863.865000	-1.835506
864.070000	-2.075356
864.275000	-2.526141
864.480000	-1.804533
864.686000	-3.900133
864.891000	-3.428229
865.096000	-1.009561
865.301000	-0.294109
865.507000	-0.488256
865.712000	-0.608475
865.917000	-1.386948
866.122000	-0.589781
866.328000	-3.619776
866.533000	-3.495292
866.738000	0.261321
866.943000	-0.301031
867.148000	0.312567
867.354000	-1.619752
867.559000	-3.332245
867.764000	-2.401068
867.969000	-1.085084
868.175000	-1.830674
868.380000	-2.062659
868.585000	-3.269921
868.790000	-1.266652
868.996000	-1.173630
869.201000	-3.108229
869.406000	-4.372331
869.611000	-2.947129
869.817000	-2.254486
870.022000	1.735069
870.227000	-0.341700
870.432000	-2.305565
870.637000	-0.809034
870.843000	-1.645668
871.048000	-1.958588
871.253000	0.096294
871.458000	-0.452527
871.664000	-3.403681
871.869000	-2.947161
872.074000	-2.371737
872.279000	-1.282191
872.485000	-2.038544
872.690000	-2.557215
872.895000	-2.810282
873.100000	-3.029413
873.306000	-2.229570
873.511000	-1.099364
873.716000	0.210513
873.921000	-2.216885
874.126000	-2.630083
874.332000	-1.414877
874.537000	-0.590370
874.742000	-0.616092
874.947000	-1.340065
875.153000	0.887755
875.358000	-0.317197
875.563000	-1.859352
875.768000	-4.289107
875.974000	-4.108786
876.179000	-0.858493
876.384000	-0.919606
876.589000	-2.795308
876.794000	-2.395829
877.000000	-2.714442
877.205000	-3.515965
877.410000	-1.568740
877.615000	-3.383095
877.821000	-4.693375
878.026000	-2.541433
878.231000	-3.792366
878.436000	-3.944502
878.642000	-2.738849
878.847000	-1.509279
879.052000	-0.655145
879.257000	-2.735229
879.463000	-3.273156
879.668000	-2.739837
879.873000	-0.575182
880.078000	-2.876981
880.283000	-4.807640
880.489000	-5.167426
880.694000	-4.587456
880.899000	-2.436977
881.104000	-0.770932
881.310000	0.844043
881.515000	-0.283053
881.720000	1.119682
881.925000	3.150950
882.131000	4.409151
882.336000	0.609106
882.541000	-3.374872
882.746000	-2.921779
882.952000	-3.543974
883.157000	-2.956929
883.362000	-2.961472
883.567000	-4.298391
883.772000	-4.370130
883.978000	-3.705772
884.183000	-1.957696
884.388000	-2.494768
884.593000	-4.408247
884.799000	1.175028
885.004000	0.217545
885.209000	-1.374043
885.414000	-0.721895
885.620000	-3.563849
885.825000	-0.502458
886.030000	-1.353658
886.235000	-3.208713
886.440000	-2.503885
886.646000	-5.114486
886.851000	-4.939027
887.056000	-0.447383
887.261000	-0.952713
887.467000	-3.762138
887.672000	-0.861012
887.877000	-2.780923
888.082000	-5.509346
888.288000	-5.283781
888.493000	-7.135249
888.698000	-5.863160
888.903000	-2.475587
889.109000	-3.128787
889.314000	0.474958
889.519000	-1.840806
889.724000	0.646765
889.929000	-0.772177
890.135000	-2.406089
890.340000	-2.633920
890.545000	-4.625615
890.750000	-5.687036
890.956000	-3.737181
891.161000	-0.888185
891.366000	-3.108633
891.571000	-1.845562
891.777000	-2.059209
891.982000	-0.117128
892.187000	-1.115706
892.392000	-0.508519
892.598000	-0.189548
892.803000	-0.948902
893.008000	-2.605995
893.213000	-3.030499
893.418000	-3.486287
893.624000	-4.049539
893.829000	-6.490074
894.034000	-3.476290
894.239000	-1.477268
894.445000	-3.887591
894.650000	-3.796917
894.855000	-4.169673
895.060000	-3.721826
895.266000	-3.080051
895.471000	-5.264705
895.676000	-1.607573
895.881000	-0.235910
896.087000	-2.333335
896.292000	-3.818691
896.497000	0.784156
896.702000	-1.671444
896.907000	-3.563440
897.113000	1.126460
897.318000	0.633076
897.523000	0.216650
897.728000	-2.071816
897.934000	-2.635620
898.139000	-3.253078
898.344000	-0.550482
898.549000	-1.482767
898.755000	-3.229488
898.960000	-3.678526
899.165000	-5.553442
899.370000	-2.245651
899.575000	1.166947
899.781000	-3.479258
899.986000	-4.149320
900.191000	-2.946474
900.396000	-3.188110
900.602000	-2.128846
900.807000	-1.982999
901.012000	-1.550579
901.217000	-0.539788
901.423000	-4.461244
901.628000	-5.166071
901.833000	0.354821
902.038000	-0.341138
902.244000	-4.602974
902.449000	-3.846717
902.654000	-3.887260
902.859000	-1.716699
903.064000	0.781021
903.270000	-0.180239
903.475000	-4.920517
903.680000	-6.801237
903.885000	-5.714989
904.091000	-5.065089
904.296000	-6.022985
904.501000	-4.549072
904.706000	-4.306116
904.912000	-0.273394
905.117000	-1.930491
905.322000	-5.241021
905.527000	-4.342162
905.733000	-3.426129
905.938000	-3.843843
906.143000	-3.756356
906.348000	-5.186414
906.553000	-1.989735
906.759000	-0.237901
906.964000	-1.141277
907.169000	-2.916896
907.374000	-5.490341
907.580000	-3.699438
907.785000	-2.930010
907.990000	27.315291
908.195000	18.890396
908.401000	-0.341541
908.606000	-7.870393
908.811000	-9.554458
909.016000	-2.220007
909.221000	-1.285372
909.427000	-3.186742
909.632000	-4.791035
909.837000	-4.487724
910.042000	-5.610226
910.248000	-6.947007
910.453000	-3.960302
910.658000	-5.315747
910.863000	-4.868914
911.069000	-4.935868
911.274000	-1.700334
911.479000	-0.713248
911.684000	-6.842117
911.890000	-3.428302
912.095000	-3.231502
912.300000	-6.139603
912.506000	-5.636418
912.711000	-5.193927
912.917000	-2.119454
913.123000	-1.864526
913.328000	-2.134455
913.534000	-2.519125
913.740000	7.337273
913.946000	2.728953
914.151000	-6.009108
914.357000	-6.722327
914.563000	-1.970589
914.768000	-6.192468
914.974000	-7.926090
915.180000	-6.970869
915.385000	-5.471392
915.591000	-8.106603
915.797000	-3.274244
916.002000	1.039352
916.208000	-2.119147
916.414000	-5.330880
916.620000	-7.192179
916.825000	-3.953188
917.031000	-4.181303
917.237000	-9.000071
917.442000	-5.213931
917.648000	-6.405968
917.854000	-8.012239
918.059000	-1.696863
918.265000	-0.769284
918.471000	-3.738003
918.676000	-7.185705
918.882000	-9.657971
919.088000	-7.483373
919.294000	-12.377333
919.499000	-7.533052
919.705000	-0.924846
919.911000	-2.194147
920.116000	-1.544561
920.322000	-7.314197
920.528000	-5.072750
920.733000	-8.205948
920.939000	-9.557653
921.145000	-7.908063
921.350000	-6.360645
921.556000	-3.599698
921.762000	-3.909547
921.968000	-5.199889
922.173000	-6.200549
922.379000	-9.115005
922.585000	-4.795641
922.790000	-6.639282
922.996000	-7.351505
923.202000	-8.777344
923.407000	-7.957802
923.613000	-4.465864
923.819000	-3.401506
924.024000	-3.783756
924.230000	-0.831862
924.436000	-3.627541
924.642000	5.836293
924.847000	1.232281
925.053000	-5.515123
925.259000	-8.517251
925.464000	-2.053838
925.670000	-3.663096
925.876000	-7.812608
926.081000	-8.851444
926.287000	-4.660071
926.493000	-2.490962
926.698000	-4.095482
926.904000	-2.335219
927.110000	-4.531165
927.316000	-3.892934
927.521000	2.412690
927.727000	-5.564477
927.933000	-7.845119
928.138000	-7.048444
928.344000	-12.403450
928.550000	-6.069302
928.755000	-2.500500
928.961000	-7.440262
929.167000	-7.952013
929.372000	-0.335575
929.578000	-0.653702
929.784000	-8.195380
929.990000	-11.102314
930.195000	-8.574522
930.401000	-6.786693
930.607000	-4.866240
930.812000	-4.017420
931.018000	-8.698229
931.224000	-13.956006
931.429000	-8.854479
931.635000	-12.076883
931.841000	-13.286130
932.046000	-7.265391
932.252000	-1.802979
932.458000	5.184507
932.664000	-2.271620
932.869000	-7.375354
933.075000	-8.557264
933.281000	-10.356592
933.486000	-3.068361
933.692000	-4.699668
933.898000	-8.590710
934.103000	-0.842783
934.309000	-6.597090
934.515000	-3.790091
934.720000	-0.688901
934.926000	1.494036
935.132000	-1.647620
935.338000	-4.072221
935.543000	-12.626289
935.749000	-14.617492
935.955000	-16.467119
936.160000	-11.349008
936.366000	-1.038378
936.572000	-2.600844
936.777000	-1.395226
936.983000	-0.136696
937.189000	-6.602248
937.394000	-12.813697
937.600000	-1.974680
937.806000	3.771611
938.012000	-5.111902
938.217000	4.749546
938.423000	0.414489
938.629000	-6.083785
938.834000	-14.703385
939.040000	-16.635630
939.246000	-8.083356
939.451000	-11.212525
939.657000	-6.502418
939.863000	-8.502305
940.068000	-0.156525
940.274000	-7.552448
940.480000	-6.915882
940.686000	-4.040203
940.891000	-6.486855
941.097000	19.759734
941.303000	4.264991
941.508000	-9.840131
941.714000	-4.262077
941.920000	-13.264991
942.125000	-5.903808
942.331000	-5.276628
942.537000	0.745757
942.742000	2.603628
942.948000	-7.706268
943.154000	-14.826050
943.360000	-27.074410
943.565000	-11.769579
943.771000	3.906077
943.977000	6.988301
944.182000	-13.129537
944.388000	-15.490448
944.594000	-1.963916
944.799000	5.368850
945.005000	-1.404993
945.211000	6.115490
945.416000	1.347550
945.622000	-13.412207
945.828000	-11.726802
946.034000	-0.186004
946.239000	0.820107
946.445000	-6.558784
946.651000	-19.358303
946.856000	-16.156582
947.062000	-1.319250
947.268000	-0.614253
947.473000	-16.537460
947.679000	-18.658393
947.885000	-1.780439
948.090000	1.121429
948.296000	13.136795
948.502000	2.291744
948.708000	-9.615128
948.913000	-14.050170
949.119000	1.146836
949.325000	-1.535053
949.530000	-17.940568
949.736000	-25.606957
949.942000	-15.588247
950.147000	-15.850813
950.353000	-13.942069
950.559000	-10.992258
950.764000	10.557264
950.970000	7.772730
951.176000	-5.064514
951.382000	-14.778685
951.587000	-5.206779
951.793000	1.211929
951.999000	2.901410
952.204000	-9.760690
952.410000	-25.667173
952.616000	-13.604158
952.821000	-7.954956
953.027000	-16.512310
953.233000	-17.915984
953.438000	-13.904094
953.644000	6.797877
953.850000	-1.003635
954.056000	-8.741912
954.261000	-8.634246
954.467000	0.925526
954.673000	6.270686
954.878000	-7.365327
955.084000	-3.955818
955.290000	-19.008914
955.495000	-21.195499
955.701000	-17.051740
955.907000	2.780251
956.112000	0.116549
956.318000	6.221201
956.524000	4.289835
956.730000	-11.410388
956.935000	-13.145486
957.141000	-16.940930
957.347000	-6.906996
957.552000	-8.098246
957.758000	-20.268088
957.964000	-31.723452
958.169000	3.252070
958.375000	3.785482
958.581000	-12.674065
958.786000	-24.540304
958.992000	-29.029928
959.198000	-9.731210
959.404000	-4.339391
959.609000	-9.421770
959.815000	-15.376321
960.021000	-2.418523
960.226000	-7.026279
960.432000	-29.756483
960.638000	-19.749077
960.843000	-11.213050
961.049000	-12.585086
961.255000	-0.620852
961.460000	-13.889735
961.666000	-34.817404
961.872000	-23.798520
962.078000	-18.786557
962.283000	-26.839319
962.489000	-29.445165
962.695000	-17.531075
962.900000	-14.471513
963.106000	-13.249941
963.312000	-12.424919
963.517000	-21.748327
963.723000	-27.695557
963.929000	-0.262904
964.134000	11.242378
964.340000	-16.592986
964.546000	-23.058109
964.752000	-24.902862
964.957000	-27.414210
965.163000	-0.273586
965.369000	-4.967864
965.574000	-3.080446
965.780000	-6.101356
966.000000	-17.973746
966.220000	-15.476517
966.440000	-14.030937
966.661000	-0.285389
966.881000	-20.104711
967.101000	-38.423272
967.321000	-37.784546
967.541000	-9.660230
967.761000	-19.476422
967.981000	-17.433340
968.202000	-15.997872
968.422000	1.552903
968.642000	3.627697
968.862000	2.995837
969.082000	-12.665370
969.302000	-9.397308
969.522000	-15.265349
969.743000	-3.827837
969.963000	-18.073104
970.183000	-32.879183
970.403000	-30.882888
970.623000	-24.900452
970.843000	2.405192
971.063000	1.686958
971.284000	-20.594463
971.504000	-36.710113
971.724000	-12.428779
971.944000	-29.721201
972.164000	-40.846386
972.384000	-27.267800
972.604000	-37.901686
972.825000	-44.129606
973.045000	-30.468947
973.265000	24.771556
973.485000	12.438157
973.705000	-12.672112
973.925000	-15.364340
974.145000	-46.645253
974.365000	-15.166908
974.586000	-14.397119
974.806000	-30.808194
975.026000	3.362218
975.246000	-11.495542
975.466000	-30.590065
975.686000	-13.528350
975.906000	-24.707246
976.127000	-46.218903
976.347000	-41.279404
976.567000	-9.949555
976.787000	-5.484649
977.007000	-19.670504
977.227000	-27.054630
977.447000	-30.286319
977.668000	-54.200676
977.888000	-38.345086
978.108000	-38.836293
978.328000	-28.493976
978.548000	7.214935
978.768000	15.119739
978.988000	-1.454405
979.209000	-22.996462
979.429000	-25.499240
979.649000	-11.685804
979.869000	-34.172829
980.089000	-54.311568
980.309000	-55.124242
980.529000	-57.406949
980.750000	-30.520434
980.970000	-46.358856
981.190000	-35.654461
981.410000	-40.006642
981.630000	-42.136468
981.850000	-31.138216
982.070000	-23.737506
982.291000	-54.204425
982.511000	-49.713830
982.731000	-9.416537
982.951000	-25.437537
983.171000	-31.285247
983.391000	-25.336228
983.611000	4.206767
983.832000	-30.248471
984.052000	-50.619761
984.272000	-24.933797
984.492000	-27.443341
984.712000	-45.225758
984.932000	-51.725541
985.152000	-51.943009
985.373000	-43.764830
985.593000	-17.965388
985.813000	-27.005303
986.033000	-46.713738
986.253000	-2.821520
986.473000	9.667252
986.693000	-26.003006
986.914000	-37.770708
987.134000	9.958376
987.354000	-21.149222
987.574000	197.964500
987.794000	107.271791
988.014000	-51.840885
988.234000	-27.143007
988.455000	-9.072248
988.675000	-5.630034
988.895000	-13.560593
989.115000	-31.995996
989.335000	-20.454366
989.555000	-5.725023
989.775000	-57.105292
989.995000	-50.298552
990.216000	-22.083899
990.436000	-16.243047
990.656000	2.579644
990.876000	-30.405508
991.096000	-17.691995
991.316000	8.519462
991.536000	-23.581340
991.757000	-32.969211
991.977000	-75.984780
992.197000	-9.450406
992.417000	-33.713767
992.637000	-81.964231
992.857000	-79.288456
993.077000	-68.953817
993.298000	-45.233937
993.518000	-43.920189
993.738000	-97.259590
993.958000	-46.513734
994.178000	-49.117585
994.398000	-48.381248
994.618000	-79.334883
994.839000	-121.587088
995.059000	-24.650634
995.279000	40.416393
995.499000	-9.220852
995.719000	-12.891961
995.939000	-40.365012
996.159000	-39.533445
996.380000	-29.307914
996.600000	-75.896060
996.820000	-31.015051
997.040000	20.182371
997.260000	-62.155120
997.480000	-43.459163
997.700000	-107.631612
997.921000	-65.097511
998.141000	18.895877
998.361000	-1.707846
998.581000	-60.639384
998.801000	-105.407149
999.021000	-69.435132
999.241000	-18.255851
999.462000	-68.141257
999.682000	-127.439963
999.902000	-75.369338
1000.122000	-95.189698
1000.342000	-125.964453
1000.562000	-64.924231
1000.782000	-83.922677
1001.003000	-1013.914213
