Wavelength	Irradiance
(nm)	(mW/cm2/nm)

294.396000	0.000000
294.577000	0.000000
294.757000	0.000000
294.938000	-0.000000
295.118000	-0.000000
295.299000	0.000000
295.479000	-0.000000
295.660000	-0.000000
295.840000	-0.000000
296.021000	-0.000000
296.202000	-0.000000
296.382000	-0.000000
296.563000	-0.000000
296.743000	-0.000000
296.924000	0.000000
297.104000	0.000000
297.285000	-0.000000
297.465000	-0.000000
297.646000	-0.000000
297.826000	-0.000000
298.007000	0.000000
298.187000	0.000000
298.368000	0.000000
298.548000	0.000000
298.729000	0.000000
298.909000	-0.000000
299.090000	-0.000000
299.270000	-0.000000
299.451000	-0.000000
299.631000	-0.000000
299.812000	-0.000000
299.992000	0.000000
300.173000	0.000000
300.353000	-0.000000
300.534000	0.000000
300.714000	0.000000
300.895000	0.000000
301.075000	-0.000000
301.256000	0.000000
301.436000	0.000000
301.617000	-0.000000
301.797000	-0.000000
301.978000	-0.000000
302.159000	-0.000000
302.339000	-0.000000
302.520000	-0.000000
302.700000	-0.000000
302.881000	0.000000
303.061000	0.000000
303.242000	0.000000
303.422000	0.000000
303.603000	-0.000000
303.783000	-0.000000
303.964000	-0.000000
304.144000	0.000000
304.325000	-0.000000
304.505000	-0.000000
304.686000	-0.000000
304.866000	0.000000
305.047000	-0.000000
305.227000	-0.000000
305.408000	-0.000000
305.588000	-0.000000
305.769000	0.000000
305.949000	-0.000000
306.130000	-0.000000
306.310000	-0.000000
306.491000	-0.000000
306.671000	0.000000
306.852000	-0.000000
307.032000	-0.000000
307.213000	-0.000000
307.393000	-0.000000
307.574000	0.000000
307.755000	0.000000
307.935000	-0.000000
308.116000	-0.000000
308.296000	-0.000000
308.477000	0.000000
308.657000	0.000000
308.838000	0.000000
309.018000	0.000000
309.199000	0.000000
309.379000	0.000000
309.560000	0.000000
309.740000	-0.000000
309.921000	-0.000000
310.101000	-0.000000
310.282000	-0.000000
310.462000	-0.000000
310.643000	-0.000000
310.823000	-0.000000
311.004000	0.000000
311.184000	-0.000000
311.365000	0.000000
311.545000	0.000000
311.726000	-0.000000
311.906000	-0.000000
312.087000	0.000000
312.267000	-0.000000
312.448000	-0.000000
312.628000	-0.000000
312.809000	-0.000000
312.989000	-0.000000
313.170000	-0.000000
313.344000	-0.000000
313.518000	-0.000000
313.691000	-0.000000
313.865000	-0.000000
314.039000	-0.000000
314.213000	-0.000000
314.387000	-0.000000
314.560000	-0.000000
314.734000	-0.000000
314.908000	-0.000000
315.082000	-0.000000
315.255000	-0.000000
315.429000	0.000000
315.603000	0.000000
315.777000	-0.000000
315.951000	-0.000000
316.124000	-0.000000
316.298000	-0.000000
316.472000	-0.000000
316.646000	-0.000000
316.820000	-0.000000
316.993000	-0.000000
317.167000	-0.000000
317.341000	-0.000000
317.515000	-0.000000
317.688000	-0.000000
317.862000	-0.000000
318.036000	-0.000000
318.210000	-0.000000
318.384000	-0.000000
318.557000	-0.000000
318.731000	-0.000000
318.905000	0.000000
319.079000	0.000000
319.253000	0.000000
319.426000	0.000000
319.600000	0.000000
319.774000	-0.000000
319.948000	-0.000000
320.122000	0.000000
320.295000	0.000000
320.469000	-0.000000
320.643000	-0.000000
320.817000	-0.000000
320.990000	-0.000000
321.164000	-0.000000
321.338000	-0.000000
321.512000	-0.000000
321.686000	-0.000000
321.859000	-0.000000
322.033000	0.000000
322.207000	0.000000
322.381000	0.000000
322.555000	0.000000
322.728000	-0.000000
322.902000	-0.000000
323.076000	-0.000000
323.250000	-0.000000
323.423000	-0.000000
323.597000	-0.000000
323.771000	-0.000000
323.945000	-0.000000
324.119000	-0.000000
324.292000	0.000000
324.466000	-0.000000
324.640000	-0.000000
324.814000	0.000000
324.988000	-0.000000
325.161000	-0.000000
325.335000	-0.000000
325.509000	-0.000000
325.683000	0.000000
325.856000	-0.000000
326.030000	-0.000000
326.204000	-0.000000
326.378000	-0.000000
326.552000	-0.000000
326.725000	-0.000000
326.899000	-0.000000
327.073000	-0.000000
327.247000	0.000000
327.421000	0.000000
327.594000	-0.000000
327.768000	-0.000000
327.942000	-0.000000
328.116000	-0.000000
328.289000	-0.000000
328.463000	-0.000000
328.637000	0.000000
328.811000	-0.000000
328.985000	-0.000000
329.158000	0.000000
329.332000	-0.000000
329.506000	0.000000
329.680000	0.000000
329.854000	0.000000
330.027000	0.000000
330.201000	0.000000
330.375000	0.000000
330.549000	0.000000
330.723000	0.000000
330.896000	-0.000000
331.070000	-0.000000
331.244000	-0.000000
331.418000	-0.000000
331.591000	-0.000000
331.765000	-0.000000
331.939000	0.000000
332.113000	0.000000
332.287000	-0.000000
332.460000	0.000000
332.634000	0.000000
332.808000	-0.000000
332.982000	-0.000000
333.156000	0.000000
333.329000	-0.000000
333.503000	-0.000000
333.677000	-0.000000
333.851000	-0.000000
334.024000	0.000000
334.198000	-0.000000
334.372000	-0.000000
334.546000	-0.000000
334.720000	0.000000
334.893000	-0.000000
335.067000	0.000000
335.241000	0.000000
335.415000	-0.000000
335.589000	-0.000000
335.762000	-0.000000
335.936000	-0.000000
336.110000	-0.000000
336.284000	-0.000000
336.458000	0.000000
336.631000	-0.000000
336.805000	-0.000000
336.979000	-0.000000
337.153000	-0.000000
337.326000	-0.000000
337.500000	0.000000
337.674000	-0.000000
337.848000	0.000000
338.022000	-0.000000
338.195000	-0.000000
338.369000	-0.000000
338.543000	-0.000000
338.717000	0.000000
338.891000	0.000000
339.064000	0.000000
339.238000	-0.000000
339.412000	-0.000000
339.586000	-0.000000
339.759000	-0.000000
339.933000	-0.000000
340.107000	0.000000
340.281000	0.000000
340.455000	-0.000000
340.628000	-0.000000
340.802000	-0.000000
340.976000	-0.000000
341.150000	0.000000
341.324000	-0.000000
341.497000	-0.000000
341.671000	-0.000000
341.845000	-0.000000
342.019000	-0.000000
342.192000	-0.000000
342.366000	-0.000000
342.540000	-0.000000
342.714000	-0.000000
342.888000	-0.000000
343.061000	-0.000000
343.235000	-0.000000
343.409000	-0.000000
343.583000	-0.000000
343.757000	-0.000000
343.930000	-0.000000
344.104000	-0.000000
344.278000	0.000000
344.452000	0.000000
344.626000	-0.000000
344.799000	-0.000000
344.973000	-0.000000
345.147000	-0.000000
345.321000	-0.000000
345.494000	-0.000000
345.668000	-0.000000
345.842000	0.000000
346.016000	-0.000000
346.190000	-0.000000
346.363000	-0.000000
346.537000	-0.000000
346.711000	0.000000
346.885000	-0.000000
347.059000	-0.000000
347.232000	-0.000000
347.406000	-0.000000
347.580000	-0.000000
347.754000	-0.000000
347.927000	-0.000000
348.101000	0.000000
348.275000	-0.000000
348.449000	-0.000000
348.623000	-0.000000
348.796000	0.000000
348.970000	0.000000
349.144000	-0.000000
349.318000	0.000000
349.492000	0.000000
349.665000	-0.000000
349.839000	-0.000000
350.013000	-0.000000
350.187000	-0.000000
350.361000	-0.000000
350.534000	-0.000000
350.708000	0.000000
350.882000	-0.000000
351.056000	0.000000
351.229000	-0.000000
351.403000	-0.000000
351.577000	-0.000000
351.751000	-0.000000
351.925000	-0.000000
352.098000	-0.000000
352.272000	-0.000000
352.446000	-0.000000
352.620000	-0.000000
352.794000	-0.000000
352.967000	-0.000000
353.141000	0.000000
353.315000	0.000000
353.489000	-0.000000
353.662000	-0.000000
353.836000	-0.000000
354.010000	-0.000000
354.184000	0.000000
354.358000	-0.000000
354.531000	-0.000000
354.705000	-0.000000
354.879000	-0.000000
355.053000	-0.000000
355.227000	0.000000
355.400000	-0.000000
355.574000	0.000000
355.748000	0.000000
355.922000	-0.000000
356.095000	-0.000000
356.269000	0.000000
356.443000	-0.000000
356.617000	-0.000000
356.791000	-0.000000
356.964000	-0.000000
357.138000	-0.000000
357.312000	-0.000000
357.486000	0.000000
357.660000	0.000000
357.833000	0.000000
358.007000	-0.000000
358.181000	-0.000000
358.355000	-0.000000
358.529000	-0.000000
358.702000	-0.000000
358.876000	-0.000000
359.050000	-0.000000
359.224000	-0.000000
359.397000	0.000000
359.571000	0.000000
359.745000	0.000000
359.919000	-0.000000
360.093000	0.063226
360.266000	0.050868
360.440000	-0.024371
360.614000	0.083450
360.788000	0.130686
360.962000	-0.347794
361.135000	-0.070322
361.309000	-0.260421
361.483000	-0.504313
361.657000	-0.488750
361.830000	-0.253036
362.004000	0.124118
362.178000	-0.290352
362.352000	-0.199947
362.526000	-0.074239
362.699000	-0.180205
362.873000	-0.390042
363.047000	-0.373982
363.221000	-0.305197
363.395000	0.020248
363.568000	-0.015566
363.742000	-0.172137
363.916000	-0.139203
364.090000	-0.165169
364.263000	-0.125667
364.437000	-0.190933
364.611000	-0.041301
364.785000	-0.283754
364.959000	-0.413933
365.132000	-0.274851
365.306000	-0.067008
365.480000	0.046379
365.656000	-0.053803
365.831000	-0.172742
366.007000	-0.162465
366.183000	-0.042798
366.358000	-0.280567
366.534000	-0.301469
366.710000	-0.454993
366.886000	-0.121479
367.061000	0.126098
367.237000	-0.003872
367.413000	-0.339959
367.588000	-0.387039
367.764000	-0.095643
367.940000	-0.029972
368.115000	-0.344397
368.291000	-0.436705
368.467000	-0.068795
368.643000	0.179438
368.818000	-0.149581
368.994000	-0.286880
369.170000	-0.057411
369.345000	-0.121815
369.521000	-0.248228
369.697000	-0.208309
369.872000	-0.057806
370.048000	-0.314649
370.224000	-0.285714
370.399000	-0.400176
370.575000	-0.347352
370.751000	-0.386529
370.927000	-0.518239
371.102000	-0.661789
371.278000	-0.358554
371.454000	-0.097916
371.629000	0.307412
371.805000	0.185351
371.981000	0.598247
372.156000	0.512496
372.332000	0.049234
372.508000	0.171951
372.683000	-0.232840
372.859000	-0.559811
373.035000	-0.195914
373.211000	0.435784
373.386000	0.037030
373.562000	-0.359364
373.738000	-0.192273
373.913000	-0.439100
374.089000	-0.317613
374.265000	0.105390
374.440000	-0.045568
374.616000	-0.128140
374.792000	-0.111256
374.968000	0.412110
375.143000	-0.004054
375.319000	-0.236894
375.495000	-0.368749
375.670000	0.103682
375.846000	0.308267
376.022000	-0.209948
376.197000	-0.085737
376.373000	-0.298434
376.549000	-0.444114
376.724000	-0.436755
376.900000	-0.203674
377.076000	-0.124219
377.252000	0.048446
377.427000	0.233222
377.603000	-0.164063
377.779000	-0.084063
377.954000	-0.385016
378.130000	0.035395
378.306000	0.101921
378.481000	0.141049
378.657000	-0.017050
378.833000	-0.265788
379.009000	-0.402295
379.184000	-0.255087
379.360000	0.009171
379.536000	-0.136061
379.711000	-0.098034
379.887000	-0.321537
380.063000	-0.409764
380.238000	-0.293995
380.414000	0.100935
380.590000	-0.308389
380.765000	-0.215072
380.941000	0.061322
381.117000	-0.055745
381.293000	0.099590
381.468000	-0.016627
381.644000	-0.276483
381.820000	-0.029881
381.995000	0.205969
382.171000	0.286028
382.347000	0.048711
382.522000	-0.449028
382.698000	0.061219
382.874000	0.100145
383.050000	-0.305045
383.225000	0.048363
383.401000	0.127205
383.577000	-0.202069
383.752000	-0.457217
383.928000	-0.417421
384.104000	-0.030468
384.279000	-0.083523
384.455000	-0.094047
384.631000	-0.029674
384.806000	-0.440593
384.982000	-0.094294
385.158000	-0.199337
385.334000	0.034639
385.509000	-0.145575
385.685000	-0.357236
385.861000	-0.291837
386.036000	-0.468508
386.212000	-0.606190
386.388000	-0.451760
386.563000	-0.246527
386.739000	-0.029690
386.915000	-0.135218
387.090000	-0.211759
387.266000	-0.016830
387.442000	-0.055616
387.618000	-0.298980
387.793000	-0.508624
387.969000	-0.456621
388.145000	-0.132853
388.320000	-0.181496
388.496000	-0.296333
388.672000	-0.501838
388.847000	-0.195381
389.023000	-0.029560
389.199000	-0.468971
389.375000	-0.271258
389.550000	-0.294477
389.726000	0.072222
389.902000	0.185163
390.077000	0.033826
390.253000	-0.067545
390.429000	-0.055123
390.604000	0.072564
390.780000	-0.016467
390.956000	-0.318004
391.131000	-0.380122
391.307000	0.008788
391.483000	0.134278
391.659000	-0.180043
391.834000	-0.078979
392.010000	-0.241624
392.186000	-0.417332
392.361000	-0.418233
392.537000	-0.302261
392.713000	-0.077789
392.888000	0.132314
393.064000	0.021097
393.240000	-0.077986
393.416000	-0.212836
393.591000	-0.511768
393.767000	-0.364223
393.943000	-0.077331
394.118000	0.191644
394.294000	0.301305
394.470000	0.069353
394.645000	0.069133
394.821000	0.581888
394.997000	0.323681
395.172000	0.068736
395.348000	-0.209030
395.524000	-0.602847
395.700000	-0.380742
395.875000	0.044291
396.051000	-0.075315
396.227000	-0.003613
396.402000	-0.076280
396.578000	0.105070
396.754000	-0.183775
396.929000	-0.123165
397.105000	0.342675
397.281000	0.008355
397.457000	-0.420118
397.632000	-0.191948
397.808000	-0.430190
397.984000	-0.645382
398.159000	-0.348857
398.335000	-0.122365
398.511000	0.375905
398.686000	0.138595
398.862000	-0.274142
399.038000	-0.402526
399.213000	0.008176
399.389000	-0.250606
399.565000	0.160735
399.741000	0.406662
399.916000	0.268599
400.092000	0.432133
400.268000	0.019852
400.443000	-0.050814
400.619000	0.126207
400.795000	-0.121936
400.970000	-0.178731
401.146000	-0.038701
401.322000	0.244400
401.497000	0.881315
401.673000	0.316632
401.849000	-0.322675
402.025000	-0.368387
402.200000	-0.250009
402.376000	-0.308561
402.552000	0.267426
402.727000	0.195820
402.903000	-0.097119
403.079000	-0.026931
403.254000	0.031641
403.430000	0.159479
403.606000	0.171402
403.782000	-0.050075
403.957000	-0.120288
404.133000	-0.413316
404.309000	-0.062037
404.484000	0.241430
404.660000	0.277192
404.841000	0.253955
405.023000	0.380597
405.204000	0.253314
405.385000	-0.144241
405.566000	-0.096896
405.748000	0.008257
405.929000	0.316523
406.110000	0.371455
406.292000	0.263338
406.473000	0.275619
406.654000	0.172312
406.835000	0.335268
407.017000	0.043060
407.198000	0.065595
407.379000	0.065414
407.560000	-0.061014
407.742000	0.031324
407.923000	0.451465
408.104000	0.263555
408.286000	0.205087
408.467000	0.100556
408.648000	-0.281731
408.829000	-0.361612
409.011000	0.181610
409.192000	0.031354
409.373000	0.042909
409.555000	0.182104
409.736000	0.284574
409.917000	0.262504
410.098000	0.157379
410.280000	0.099218
410.461000	0.007969
410.642000	0.270301
410.823000	0.623631
411.005000	0.533102
411.186000	0.213612
411.367000	0.008003
411.549000	0.087970
411.730000	0.270689
411.911000	0.486875
412.092000	0.405845
412.274000	0.075593
412.455000	0.166197
412.636000	0.313460
412.818000	0.086789
412.999000	0.086202
413.180000	0.255662
413.361000	0.211396
413.543000	0.176534
413.724000	0.142436
413.905000	-0.025796
414.087000	0.064064
414.268000	0.107826
414.449000	0.375311
414.630000	0.287329
414.812000	0.018968
414.993000	0.328530
415.174000	0.616426
415.355000	0.453204
415.537000	0.295995
415.718000	0.462760
415.899000	0.361802
416.081000	0.305220
416.262000	0.469535
416.443000	0.380610
416.624000	0.565764
416.806000	0.577817
416.987000	0.547536
417.168000	0.489503
417.350000	0.478440
417.531000	0.486447
417.712000	0.671395
417.893000	0.758167
418.075000	0.928719
418.256000	0.822728
418.437000	1.066107
418.618000	1.062267
418.800000	0.908620
418.981000	0.763685
419.162000	0.790966
419.344000	1.217459
419.525000	1.310927
419.706000	1.236268
419.887000	1.331449
420.069000	1.525166
420.250000	1.524761
420.431000	1.348087
420.613000	1.202407
420.794000	0.932623
420.975000	1.536870
421.156000	1.313230
421.338000	1.236688
421.519000	1.387353
421.700000	1.283350
421.882000	1.402029
422.063000	1.625040
422.244000	2.045979
422.425000	1.903014
422.607000	1.759691
422.788000	1.859850
422.969000	1.707146
423.150000	1.558352
423.332000	1.339090
423.513000	1.914317
423.694000	1.946032
423.876000	2.048097
424.057000	2.210389
424.238000	2.348753
424.419000	2.388198
424.601000	2.170528
424.782000	2.374636
424.963000	2.731803
425.145000	2.588104
425.326000	2.630748
425.507000	2.809368
425.688000	2.802069
425.870000	2.704909
426.051000	2.686404
426.232000	2.653909
426.413000	2.940043
426.595000	2.903121
426.776000	2.858746
426.957000	2.892690
427.139000	3.074137
427.320000	3.368725
427.501000	3.772446
427.682000	3.840383
427.864000	3.730305
428.045000	4.011739
428.226000	4.297614
428.408000	4.304372
428.589000	4.480555
428.770000	4.308690
428.951000	4.172243
429.133000	4.191991
429.314000	4.368252
429.495000	4.738186
429.677000	4.958585
429.858000	5.135604
430.039000	5.442381
430.220000	5.378878
430.402000	5.694037
430.583000	5.535614
430.764000	5.577722
430.945000	5.845683
431.127000	6.144310
431.308000	6.211404
431.489000	6.692927
431.671000	6.720351
431.852000	7.004557
432.033000	7.175231
432.214000	7.150572
432.396000	7.078846
432.577000	7.380489
432.758000	7.538151
432.940000	7.689257
433.121000	7.956683
433.302000	8.257817
433.483000	8.547201
433.665000	9.026493
433.846000	9.520382
434.027000	9.314040
434.208000	9.270436
434.390000	9.766873
434.571000	10.401598
434.752000	10.794290
434.934000	10.662563
435.115000	10.949228
435.296000	11.559175
435.477000	11.556355
435.659000	11.403998
435.840000	11.922477
436.026000	12.082115
436.211000	12.150851
436.397000	12.084412
436.582000	12.860865
436.768000	13.492945
436.953000	13.566326
437.139000	13.994209
437.325000	14.560208
437.510000	14.689675
437.696000	15.185633
437.881000	15.725931
438.067000	15.736048
438.252000	16.098728
438.438000	16.407953
438.624000	16.939732
438.809000	17.269739
438.995000	17.678148
439.180000	18.060800
439.366000	18.379456
439.551000	18.741483
439.737000	19.356402
439.923000	19.708570
440.108000	20.276180
440.294000	20.983386
440.479000	21.282392
440.665000	21.651829
440.850000	21.686942
441.036000	22.699779
441.222000	23.382207
441.407000	23.390069
441.593000	23.968143
441.778000	24.609472
441.964000	25.365563
442.149000	25.598093
442.335000	26.037620
442.521000	26.537969
442.706000	27.043586
442.892000	27.425047
443.077000	28.169175
443.263000	28.873583
443.448000	29.399769
443.634000	30.200875
443.820000	30.869077
444.005000	31.217528
444.191000	31.793766
444.376000	32.332196
444.562000	32.930534
444.747000	33.912255
444.933000	34.566517
445.119000	34.783383
445.304000	35.214220
445.490000	36.154209
445.675000	36.913315
445.861000	37.527138
446.046000	38.417864
446.232000	39.102805
446.418000	39.647054
446.603000	40.547506
446.789000	41.444904
446.974000	42.186938
447.160000	42.640514
447.345000	43.176417
447.531000	44.036469
447.717000	45.525942
447.902000	46.679056
448.088000	47.353847
448.273000	47.720876
448.459000	48.278342
448.644000	48.996408
448.830000	49.985323
449.016000	50.656278
449.201000	51.730524
449.387000	52.624829
449.572000	53.455354
449.758000	54.075641
449.943000	55.539135
450.129000	55.971232
450.315000	56.692849
450.500000	58.011106
450.686000	58.992678
450.871000	59.768562
451.057000	60.927372
451.243000	61.693769
451.428000	62.752755
451.614000	63.338995
451.799000	63.907114
451.985000	65.071952
452.170000	65.871677
452.356000	66.648888
452.542000	67.920970
452.727000	68.731298
452.913000	69.412474
453.098000	70.495139
453.284000	71.621556
453.469000	72.256107
453.655000	73.045740
453.841000	73.369390
454.026000	73.057354
454.212000	73.863627
454.397000	75.052836
454.583000	76.916105
454.768000	76.679115
454.954000	77.158747
455.140000	77.307909
455.325000	77.419920
455.511000	78.539026
455.696000	78.573660
455.882000	79.048759
456.067000	79.891754
456.253000	79.924178
456.439000	80.391768
456.624000	80.578103
456.810000	80.455383
456.995000	80.636036
457.181000	80.306437
457.366000	80.058611
457.552000	80.228300
457.738000	80.538731
457.923000	80.680515
458.109000	80.979009
458.294000	81.013783
458.480000	81.310214
458.665000	80.658726
458.851000	79.707623
459.037000	78.903649
459.222000	78.927056
459.408000	78.655192
459.593000	78.038215
459.779000	77.762076
459.964000	77.293402
460.150000	76.762301
460.336000	76.157240
460.521000	75.150981
460.707000	74.227797
460.892000	73.076202
461.078000	72.899064
461.263000	71.688950
461.449000	71.336059
461.635000	71.007613
461.820000	69.642910
462.006000	68.802387
462.191000	67.422637
462.377000	66.057888
462.562000	66.122542
462.748000	65.577128
462.934000	64.176743
463.119000	62.366895
463.305000	61.888114
463.490000	60.952415
463.676000	59.850015
463.861000	58.908470
464.047000	58.007537
464.233000	56.730565
464.418000	55.799652
464.604000	54.995170
464.789000	54.335962
464.975000	53.365087
465.160000	52.360686
465.346000	51.355186
465.532000	50.065164
465.717000	49.201737
465.903000	48.921750
466.088000	48.173561
466.274000	46.809916
466.459000	45.786404
466.645000	45.448222
466.831000	44.414821
467.016000	43.595017
467.202000	42.848432
467.387000	42.054357
467.573000	41.023641
467.758000	40.314541
467.944000	39.752259
468.130000	39.319749
468.315000	38.611621
468.501000	38.251063
468.686000	37.408377
468.872000	36.621743
469.057000	36.208275
469.243000	35.764019
469.429000	34.888188
469.614000	34.286476
469.800000	33.884488
469.985000	33.467418
470.171000	32.835995
470.356000	32.220021
470.542000	31.676922
470.728000	31.436498
470.913000	31.035207
471.099000	30.712308
471.284000	29.961649
471.470000	29.626794
471.655000	29.540799
471.841000	28.938686
472.027000	28.204802
472.212000	28.098183
472.398000	27.797276
472.583000	27.515366
472.769000	27.008140
472.954000	26.342738
473.140000	25.903342
473.326000	25.323312
473.511000	25.182168
473.697000	24.966680
473.882000	24.692202
474.068000	24.106324
474.253000	23.724718
474.439000	23.459114
474.625000	22.990738
474.810000	22.769685
474.996000	22.343844
475.181000	21.673892
475.367000	21.688105
475.552000	21.655647
475.738000	20.749753
475.924000	20.608143
476.109000	20.616216
476.295000	19.923145
476.480000	19.492951
476.666000	19.013328
476.851000	18.766056
477.037000	18.527183
477.223000	17.971268
477.408000	17.755072
477.594000	17.411005
477.779000	17.299114
477.965000	17.091907
478.151000	16.645532
478.336000	16.431042
478.522000	15.990560
478.707000	15.612255
478.893000	15.299934
479.078000	15.058107
479.264000	14.494282
479.450000	14.368408
479.635000	14.677713
479.821000	14.349406
480.006000	13.968262
480.192000	13.650892
480.377000	13.466414
480.563000	13.148712
480.749000	12.860773
480.934000	12.493279
481.120000	12.357313
481.305000	12.315701
481.491000	11.872766
481.676000	11.710065
481.862000	11.687577
482.048000	11.328902
482.233000	10.962816
482.419000	10.806769
482.604000	10.735558
482.790000	10.571230
482.975000	10.375113
483.161000	10.196267
483.347000	9.901177
483.532000	9.550561
483.718000	9.129635
483.903000	9.307241
484.089000	9.243694
484.274000	8.876280
484.460000	8.820098
484.646000	8.812608
484.831000	8.572091
485.017000	8.323722
485.202000	8.135980
485.388000	8.392437
485.573000	8.359574
485.759000	7.774918
485.945000	7.825663
486.130000	7.877007
486.316000	7.454409
486.501000	7.361218
486.687000	7.171489
486.872000	7.088231
487.058000	7.166433
487.244000	6.917597
487.429000	6.856799
487.615000	6.874347
487.800000	6.856907
487.986000	6.717194
488.171000	6.683926
488.357000	6.628897
488.543000	6.540138
488.728000	6.404905
488.914000	6.287787
489.099000	5.863825
489.285000	5.859638
489.470000	6.143004
489.656000	6.066985
489.842000	5.883120
490.027000	5.961364
490.213000	5.754816
490.398000	5.286836
490.584000	5.460651
490.769000	5.556761
490.955000	5.803068
491.141000	5.558874
491.326000	5.277045
491.512000	5.600433
491.697000	5.446220
491.883000	5.218350
492.068000	5.099965
492.254000	4.965964
492.440000	5.256962
492.625000	5.360152
492.811000	5.072640
492.996000	5.128829
493.182000	5.025926
493.367000	4.835065
493.553000	4.702206
493.739000	4.852777
493.924000	5.079271
494.110000	4.984531
494.295000	4.796862
494.481000	4.849882
494.666000	4.735466
494.852000	4.884791
495.038000	4.827798
495.223000	4.584128
495.409000	4.471682
495.594000	4.541759
495.780000	4.615896
495.965000	4.612736
496.151000	4.888438
496.337000	4.868266
496.522000	4.445111
496.708000	4.586107
496.893000	4.734105
497.079000	4.480875
497.264000	4.495622
497.450000	4.536224
497.636000	4.680363
497.821000	4.520784
498.007000	4.629535
498.192000	4.802497
498.378000	4.685239
498.563000	4.562319
498.749000	4.590327
498.935000	4.505670
499.120000	4.533501
499.306000	4.633167
499.491000	4.729051
499.677000	4.743078
499.862000	4.706672
500.048000	4.909555
500.234000	4.819506
500.419000	4.789403
500.605000	4.926021
500.790000	4.959442
500.976000	4.764887
501.161000	4.802543
501.347000	5.004813
501.533000	5.195028
501.718000	5.075151
501.904000	4.977699
502.089000	4.985122
502.275000	4.964373
502.460000	5.027492
502.646000	5.367958
502.832000	5.394204
503.017000	5.241236
503.203000	5.209513
503.388000	5.135861
503.574000	5.325527
503.759000	5.644304
503.945000	5.677403
504.131000	5.520913
504.316000	5.470642
504.502000	5.550938
504.687000	5.644183
504.873000	5.647340
505.058000	5.748627
505.244000	5.558985
505.430000	5.718778
505.615000	6.001437
505.801000	6.122646
505.986000	5.842074
506.172000	6.010465
506.358000	6.417541
506.543000	6.390475
506.729000	6.276293
506.914000	6.376826
507.100000	6.548959
507.285000	6.298458
507.471000	6.346860
507.657000	6.591487
507.842000	6.432215
508.028000	6.412824
508.213000	6.523997
508.399000	6.545463
508.584000	6.742866
508.770000	6.834196
508.956000	6.958759
509.141000	6.841414
509.327000	6.903262
509.512000	6.994814
509.698000	7.203842
509.883000	7.160266
510.069000	7.115728
510.255000	6.959218
510.440000	7.127681
510.626000	7.131981
510.811000	6.982240
510.997000	7.031750
511.182000	7.566893
511.368000	7.471101
511.554000	7.195268
511.739000	7.190609
511.925000	7.347244
512.110000	7.364328
512.296000	7.511060
512.481000	7.646086
512.667000	7.510038
512.853000	7.190570
513.038000	7.345205
513.224000	7.419283
513.409000	7.362297
513.595000	7.510906
513.780000	7.426688
513.966000	7.352621
514.152000	7.193099
514.337000	7.340453
514.523000	7.381246
514.708000	7.396828
514.894000	7.578357
515.079000	7.227786
515.265000	7.389521
515.451000	7.521481
515.636000	7.363010
515.822000	7.493087
516.007000	7.333045
516.193000	7.366103
516.378000	7.386786
516.564000	7.384093
516.750000	7.354419
516.935000	7.487131
517.121000	7.421216
517.306000	7.427987
517.492000	7.261402
517.677000	6.825438
517.863000	6.842852
518.049000	7.014546
518.234000	6.791412
518.420000	7.187636
518.605000	7.629333
518.791000	7.359159
518.976000	7.129032
519.162000	6.881377
519.348000	6.955641
519.533000	6.824356
519.719000	7.049609
519.904000	6.919944
520.090000	6.825121
520.275000	6.821599
520.461000	6.851317
520.647000	6.558429
520.832000	6.291926
521.018000	6.194588
521.203000	6.238910
521.389000	6.105289
521.574000	6.224626
521.760000	6.305638
521.946000	6.186896
522.131000	6.159770
522.317000	6.004354
522.502000	5.726284
522.688000	5.801773
522.873000	5.766691
523.059000	5.860086
523.245000	5.797824
523.430000	5.683347
523.616000	5.819800
523.801000	5.461607
523.987000	5.259625
524.172000	5.511550
524.358000	5.627979
524.544000	5.431671
524.729000	5.352354
524.915000	5.169990
525.100000	5.281770
525.286000	5.370997
525.471000	5.231036
525.657000	5.154706
525.843000	5.005298
526.028000	4.951509
526.214000	4.900539
526.399000	4.791567
526.585000	4.570850
526.770000	4.726295
526.956000	4.952085
527.142000	4.679647
527.327000	4.643855
527.513000	4.501132
527.698000	4.464880
527.884000	4.456278
528.069000	4.422499
528.255000	4.486278
528.441000	4.309219
528.626000	4.181060
528.812000	4.385465
528.997000	4.211131
529.183000	4.151055
529.368000	4.120154
529.554000	4.089141
529.740000	3.966135
529.925000	3.832426
530.111000	3.845085
530.296000	3.985675
530.482000	4.130707
530.667000	3.929439
530.853000	3.984425
531.039000	3.865612
531.224000	3.741080
531.410000	3.739930
531.595000	3.743420
531.781000	3.709777
531.967000	3.515458
532.152000	3.699004
532.338000	3.602615
532.523000	3.401567
532.709000	3.388057
532.894000	3.518312
533.080000	3.452120
533.266000	3.244647
533.451000	3.177642
533.637000	3.249667
533.822000	3.342244
534.008000	3.162499
534.193000	3.085490
534.379000	3.078763
534.565000	3.019645
534.750000	2.985957
534.936000	3.186491
535.121000	3.032140
535.307000	3.145967
535.492000	2.996972
535.678000	2.604634
535.864000	2.910698
536.049000	3.360577
536.235000	3.133689
536.420000	2.758814
536.606000	2.460026
536.791000	2.353092
536.977000	2.480819
537.163000	2.876207
537.348000	2.732157
537.534000	2.655190
537.719000	2.298888
537.905000	2.288666
538.090000	2.480616
538.276000	2.682570
538.462000	2.594384
538.647000	2.614623
538.833000	2.413683
539.018000	2.523265
539.204000	2.387302
539.389000	2.076828
539.575000	2.544433
539.761000	2.417671
539.946000	1.908630
540.132000	1.966297
540.317000	1.931647
540.503000	2.269047
540.688000	2.242689
540.874000	2.402408
541.060000	2.218205
541.245000	2.136480
541.431000	1.939069
541.616000	1.841338
541.802000	1.884167
541.987000	1.982635
542.173000	2.062880
542.359000	1.992554
542.544000	1.865107
542.730000	1.955898
542.915000	1.803938
543.101000	1.742276
543.286000	1.620220
543.472000	1.514408
543.658000	1.789710
543.843000	1.635535
544.029000	1.746850
544.214000	1.834052
544.400000	1.240731
544.585000	1.296734
544.771000	1.557542
544.957000	1.689464
545.142000	1.744466
545.328000	1.673803
545.513000	1.623074
545.699000	1.467826
545.884000	1.317289
546.070000	1.263747
546.261000	1.409644
546.451000	1.294092
546.642000	0.957776
546.833000	1.276685
547.023000	1.101396
547.214000	1.149778
547.405000	1.446016
547.595000	1.876638
547.786000	1.795577
547.977000	1.413154
548.167000	0.971323
548.358000	1.008983
548.549000	1.280662
548.740000	1.314157
548.930000	1.013048
549.121000	1.139174
549.312000	1.199753
549.502000	1.033581
549.693000	0.953911
549.884000	0.897871
550.074000	0.968865
550.265000	0.903174
550.456000	0.984888
550.646000	1.158022
550.837000	1.420408
551.028000	1.194195
551.218000	0.977228
551.409000	0.935687
551.600000	1.131347
551.790000	1.227871
551.981000	0.802048
552.172000	0.884243
552.362000	1.206521
552.553000	1.224234
552.744000	0.853037
552.934000	0.923281
553.125000	0.878508
553.316000	0.762941
553.506000	1.276522
553.697000	1.129434
553.888000	0.824310
554.079000	0.964977
554.269000	1.094428
554.460000	0.968385
554.651000	0.840444
554.841000	0.665364
555.032000	0.783911
555.223000	0.867395
555.413000	1.039314
555.604000	0.761317
555.795000	0.574552
555.985000	0.693952
556.176000	0.680888
556.367000	0.456580
556.557000	0.635661
556.748000	0.696202
556.939000	0.458288
557.129000	0.327748
557.320000	0.470026
557.511000	0.729130
557.701000	0.692582
557.892000	0.624286
558.083000	1.085099
558.273000	0.966948
558.464000	0.540908
558.655000	0.741481
558.845000	0.751092
559.036000	0.881421
559.227000	0.693140
559.418000	0.658926
559.608000	0.682316
559.799000	0.492498
559.990000	0.372403
560.180000	0.290549
560.371000	0.349896
560.562000	0.596385
560.752000	0.573383
560.943000	0.232050
561.134000	-0.074010
561.324000	0.160747
561.515000	0.488374
561.706000	0.582717
561.896000	0.487857
562.087000	0.522366
562.278000	0.253488
562.468000	0.125116
562.659000	0.346336
562.850000	0.719954
563.040000	0.789965
563.231000	0.300118
563.422000	0.345689
563.612000	0.241201
563.803000	0.229131
563.994000	0.320633
564.185000	0.308540
564.375000	0.655972
564.566000	0.539625
564.757000	0.274619
564.947000	0.181704
565.138000	0.411775
565.329000	0.468502
565.519000	0.134610
565.710000	0.100196
565.901000	0.480581
566.091000	0.595389
566.282000	0.582531
566.473000	0.569275
566.663000	0.408441
566.854000	0.270074
567.045000	0.383032
567.235000	0.360235
567.426000	0.144268
567.617000	0.143749
567.807000	0.302342
567.998000	0.267825
568.189000	0.064398
568.379000	0.368503
568.570000	0.626821
568.761000	0.322296
568.951000	0.209664
569.142000	0.277308
569.333000	0.165034
569.524000	0.007829
569.714000	0.108483
569.905000	-0.092666
570.096000	0.309200
570.286000	0.308785
570.477000	0.341298
570.668000	0.229910
570.858000	0.196580
571.049000	0.140554
571.240000	-0.125122
571.430000	-0.025434
571.621000	0.018732
571.812000	0.062553
572.002000	0.304525
572.193000	0.040610
572.384000	0.128361
572.574000	0.293162
572.765000	0.325508
572.956000	0.258936
573.146000	0.314036
573.337000	0.182367
573.528000	0.214754
573.718000	0.279428
573.909000	0.235601
574.100000	0.288852
574.290000	0.072252
574.481000	0.201209
574.672000	0.179895
574.863000	0.265010
575.053000	0.082458
575.244000	0.092946
575.435000	0.082183
575.625000	0.188081
575.816000	0.145397
576.007000	-0.013797
576.197000	0.018070
576.388000	0.081530
576.579000	0.399050
576.769000	0.292860
576.960000	-0.129944
577.155000	-0.245474
577.350000	0.133634
577.545000	0.269923
577.740000	0.153934
577.935000	0.467118
578.130000	0.247859
578.326000	-0.201227
578.521000	0.205302
578.716000	0.245850
578.911000	-0.127453
579.106000	-0.013420
579.301000	0.233618
579.496000	-0.013337
579.691000	-0.249086
579.886000	-0.023515
580.081000	0.017354
580.276000	-0.003055
580.471000	-0.053960
580.666000	-0.145339
580.861000	-0.013208
581.057000	-0.104716
581.252000	0.108808
581.447000	0.067979
581.642000	0.118910
581.837000	0.179647
582.032000	0.088050
582.227000	0.188157
582.422000	0.298281
582.617000	0.076981
582.812000	-0.142598
583.007000	0.046842
583.202000	-0.082569
583.397000	0.086246
583.592000	0.214742
583.788000	-0.072010
583.983000	0.066029
584.178000	0.124961
584.373000	-0.110851
584.568000	-0.130198
584.763000	-0.061733
584.958000	-0.316480
585.153000	-0.267509
585.348000	-0.140047
585.543000	0.222540
585.738000	0.124448
585.933000	-0.208773
586.128000	0.006859
586.324000	0.114938
586.519000	0.183570
586.714000	0.321257
586.909000	0.272619
587.104000	0.174781
587.299000	0.095510
587.494000	0.085547
587.689000	-0.091627
587.884000	-0.161077
588.079000	-0.220385
588.274000	-0.062376
588.469000	0.085966
588.664000	-0.022756
588.859000	-0.082240
589.055000	-0.022816
589.250000	-0.062525
589.445000	-0.072537
589.640000	0.036795
589.835000	0.126598
590.030000	0.076733
590.225000	0.236223
590.420000	0.076854
590.615000	-0.032967
590.810000	-0.042909
591.005000	-0.013026
591.200000	-0.073174
591.395000	-0.013029
591.591000	0.197099
591.786000	0.246917
591.981000	0.057149
592.176000	0.218012
592.371000	0.087440
592.566000	-0.113489
592.761000	0.167698
592.956000	0.077453
593.151000	0.218385
593.346000	0.118073
593.541000	0.067545
593.736000	0.128426
593.931000	-0.063735
594.126000	-0.053698
594.322000	-0.023302
594.517000	0.007090
594.712000	-0.307051
594.907000	-0.287815
595.102000	-0.186358
595.297000	-0.003053
595.492000	0.058132
595.687000	-0.033723
595.882000	0.058278
596.077000	0.058391
596.272000	0.140315
596.467000	0.109624
596.662000	0.078966
596.857000	0.068985
597.053000	-0.044348
597.248000	0.151543
597.443000	0.254972
597.638000	0.265935
597.833000	-0.013465
598.028000	0.027930
598.223000	0.173089
598.418000	-0.003115
598.613000	0.048794
598.808000	0.215068
599.003000	-0.075927
599.198000	-0.273890
599.393000	-0.284219
599.589000	-0.003132
599.784000	0.090885
599.979000	0.017785
600.174000	0.153897
600.369000	0.059737
600.564000	-0.087098
600.759000	0.248992
600.954000	0.374433
601.149000	0.249334
601.344000	-0.213782
601.539000	-0.055880
601.734000	-0.150575
601.929000	-0.319853
602.124000	-0.193340
602.320000	-0.034925
602.515000	0.293205
602.710000	0.325632
602.905000	-0.247106
603.100000	-0.162002
603.295000	0.166543
603.490000	0.284040
603.685000	0.092568
603.880000	-0.056461
604.075000	-0.195442
604.270000	-0.249369
604.465000	-0.259874
604.660000	-0.484848
604.856000	-0.163636
605.051000	-0.035362
605.246000	-0.120988
605.441000	-0.163936
605.636000	-0.217572
605.831000	-0.089121
606.026000	-0.099817
606.221000	-0.175188
606.416000	-0.132366
606.611000	0.082947
606.806000	0.244307
607.001000	0.406266
607.196000	0.083054
607.391000	-0.035644
607.587000	0.072516
607.782000	-0.057439
607.977000	-0.187047
608.172000	0.137741
608.367000	0.018437
608.562000	-0.296675
608.757000	-0.101033
608.952000	-0.025045
609.147000	0.279500
609.342000	0.203687
609.537000	-0.068748
609.732000	-0.101645
609.927000	-0.188708
610.122000	-0.101618
610.318000	0.051405
610.513000	0.106147
610.708000	-0.200475
610.903000	-0.189732
611.098000	-0.168156
611.293000	-0.234164
611.488000	-0.146235
611.683000	0.051768
611.878000	-0.091447
612.073000	-0.069431
612.268000	-0.146737
612.463000	0.051971
612.658000	-0.025433
612.854000	-0.047648
613.049000	-0.136357
613.244000	-0.080974
613.439000	0.129830
613.634000	-0.236946
613.829000	-0.103485
614.024000	-0.148346
614.219000	-0.092563
614.414000	0.041290
614.609000	-0.137467
614.804000	-0.204578
614.999000	-0.103871
615.194000	-0.115339
615.389000	-0.093052
615.585000	-0.284162
615.780000	-0.340605
615.975000	-0.330021
616.170000	-0.161184
616.365000	0.267410
616.560000	0.470958
616.755000	0.438405
616.950000	0.087266
617.145000	0.121377
617.340000	-0.082888
617.535000	-0.480285
617.730000	-0.128478
617.925000	-0.253957
618.120000	-0.333779
618.316000	0.065075
618.511000	-0.094846
618.706000	-0.301597
618.901000	-0.232672
619.096000	0.054075
619.291000	-0.072420
619.486000	0.008072
619.681000	-0.361225
619.876000	-0.522570
620.071000	-0.315203
620.266000	0.204859
620.461000	0.216821
620.656000	0.042980
620.852000	-0.038286
621.047000	-0.143049
621.242000	-0.259692
621.437000	0.159922
621.632000	0.230453
621.827000	-0.026930
622.022000	-0.237868
622.217000	-0.027023
622.412000	0.125854
622.607000	0.208390
622.802000	-0.015313
622.997000	-0.133573
623.192000	-0.204479
623.387000	-0.310922
623.583000	-0.560293
623.778000	0.091463
623.973000	0.281701
624.168000	0.127483
624.363000	0.210558
624.558000	0.341996
624.753000	-0.194859
624.948000	-0.063478
625.143000	-0.039553
625.338000	-0.159677
625.533000	-0.315850
625.728000	-0.232034
625.923000	0.176844
626.119000	0.189313
626.314000	-0.039830
626.509000	-0.378944
626.704000	-0.428500
626.899000	-0.258780
627.094000	-0.307804
627.289000	-0.259735
627.484000	-0.223678
627.679000	-0.040371
627.874000	-0.077172
628.069000	0.388879
628.264000	0.388527
628.459000	-0.077396
628.654000	-0.409466
628.850000	-0.275168
629.045000	-0.077825
629.240000	-0.387039
629.435000	-0.399924
629.630000	0.157543
629.825000	0.182347
630.020000	0.145705
630.215000	-0.364687
630.410000	-0.216180
630.605000	-0.403950
630.800000	-0.391384
630.995000	-0.104018
631.190000	0.209739
631.385000	0.109331
631.581000	0.084342
631.776000	0.147377
631.971000	-0.269170
632.166000	-0.269377
632.361000	-0.294948
632.556000	-0.181272
632.751000	0.148793
632.946000	-0.054703
633.141000	-0.156951
633.336000	-0.221098
633.531000	-0.093583
633.726000	-0.259918
633.921000	-0.376171
634.117000	-0.441340
634.312000	-0.892584
634.507000	-0.764610
634.702000	-0.197631
634.897000	-0.133235
635.092000	-0.133587
635.287000	0.035089
635.482000	0.009121
635.677000	0.100362
635.872000	0.152515
636.067000	0.205130
636.262000	-0.148217
636.457000	-0.304377
636.652000	-0.213251
636.848000	-0.226829
637.043000	-0.043447
637.238000	0.114843
637.433000	-0.175697
637.628000	-0.439887
637.823000	-0.255324
638.018000	-0.242561
638.213000	-0.269672
638.408000	-0.442779
638.603000	-0.376836
638.798000	-0.297373
638.993000	-0.097533
639.188000	-0.257951
639.383000	-0.284923
639.579000	-0.057459
639.774000	-0.298818
639.969000	-0.298943
640.164000	-0.366807
640.359000	-0.353752
640.554000	-0.111785
640.749000	-0.125598
640.944000	-0.085267
641.139000	-0.328217
641.334000	-0.518243
641.529000	-0.776879
641.724000	-0.533488
641.919000	-0.072098
642.115000	0.077726
642.310000	0.077615
642.505000	-0.126590
642.700000	0.036819
642.895000	-0.168240
643.090000	-0.332271
643.285000	0.064275
643.480000	0.037008
643.675000	0.201660
643.870000	0.531925
644.065000	0.381473
644.260000	-0.169346
644.455000	-0.045519
644.650000	0.037335
644.846000	-0.017977
645.041000	-0.432639
645.236000	-0.419836
645.431000	-0.323308
645.626000	-0.739139
645.821000	-0.489333
646.016000	-0.143197
646.211000	-0.073823
646.406000	-0.185603
646.601000	0.023700
646.796000	-0.129627
646.991000	-0.729094
647.186000	-0.409364
647.381000	-0.143999
647.577000	0.135741
647.772000	0.331673
647.967000	0.121992
648.162000	-0.242775
648.357000	-0.257154
648.552000	0.023879
648.747000	0.136331
648.942000	-0.144856
649.137000	-0.131192
649.332000	-0.216114
649.527000	-0.201904
649.722000	0.108680
649.917000	0.165623
650.113000	-0.456680
650.308000	-0.528122
650.503000	-0.414630
650.698000	-0.245523
650.893000	-0.146282
651.088000	0.095217
651.283000	0.066940
651.478000	-0.374580
651.673000	-0.132322
651.868000	-0.146844
652.063000	0.052855
652.258000	-0.204432
652.453000	0.052755
652.648000	-0.147059
652.844000	-0.218606
653.039000	0.167451
653.234000	-0.304944
653.429000	-0.721411
653.624000	-0.577561
653.819000	-0.133576
654.014000	-0.119236
654.209000	-0.148357
654.404000	-0.033094
654.599000	-0.235132
654.794000	0.110883
654.989000	0.270084
655.184000	-0.221237
655.380000	-0.437782
655.575000	-0.380032
655.770000	-0.380663
655.965000	-0.235983
656.160000	-0.366474
656.355000	-0.192614
656.550000	-0.076991
656.745000	0.170077
656.940000	-0.018913
657.135000	-0.062543
657.330000	-0.469991
657.525000	-0.484888
657.720000	-0.150243
657.915000	0.068494
658.111000	-0.193898
658.306000	-0.018967
658.501000	-0.150626
658.696000	-0.472164
658.891000	-0.092136
659.086000	0.010233
659.281000	0.142035
659.476000	-0.283007
659.671000	-0.957442
659.866000	-0.488466
660.061000	0.039632
660.256000	-0.077832
660.451000	-0.224884
660.646000	-0.298769
660.842000	-0.137032
661.037000	-0.372928
661.232000	-0.343939
661.427000	-0.181420
661.622000	-0.462514
661.817000	-0.388525
662.012000	-0.078492
662.207000	-0.330487
662.402000	-0.182745
662.597000	-0.034195
662.792000	-0.450072
662.987000	-0.672329
663.182000	-0.465527
663.378000	-0.555210
663.573000	-0.705788
663.768000	-0.317169
663.963000	-0.153541
664.158000	-0.242760
664.353000	0.174964
664.548000	0.414086
664.743000	-0.079319
664.938000	-0.423490
665.133000	-0.424154
665.328000	-0.334723
665.523000	-0.230103
665.718000	-0.139883
665.913000	-0.230475
666.109000	-0.170601
666.304000	0.131305
666.499000	-0.185521
666.694000	-0.140671
666.889000	0.328196
667.084000	-0.186653
667.279000	-0.292703
667.474000	-0.095599
667.669000	0.056132
667.864000	0.041010
668.059000	-0.202319
668.254000	-0.187344
668.449000	-0.035071
668.644000	-0.187727
668.840000	0.056397
669.035000	-0.080900
669.230000	-0.709131
669.425000	-0.127209
669.620000	-0.203825
669.815000	-0.466035
670.010000	-0.450238
670.205000	-0.312199
670.400000	-0.480514
670.595000	-0.081612
670.790000	0.149567
670.985000	0.041676
671.180000	0.057174
671.376000	-0.267568
671.571000	-0.376665
671.766000	-0.299855
671.961000	-0.455394
672.156000	-0.253657
672.351000	-0.175889
672.546000	-0.004679
672.741000	-0.051362
672.936000	0.042078
673.131000	0.557877
673.326000	0.089321
673.521000	-0.224279
673.716000	-0.537945
673.911000	-0.836528
674.107000	-0.130511
674.302000	0.168366
674.497000	0.058286
674.692000	-0.162372
674.887000	-0.242016
675.082000	-0.321592
675.277000	-0.052352
675.472000	-0.274811
675.667000	-0.593419
675.862000	-0.705144
676.057000	-0.610047
676.252000	-0.308063
676.447000	-0.116807
676.643000	-0.100723
676.838000	-0.004805
677.033000	-0.389790
677.228000	0.027338
677.423000	-0.020918
677.618000	-0.214585
677.813000	-0.375707
678.008000	-0.231326
678.203000	-0.118214
678.398000	-0.507787
678.593000	-0.296986
678.788000	0.157930
678.983000	-0.134971
679.178000	-0.460432
679.374000	-0.949902
679.569000	-0.380454
679.764000	-0.250566
679.959000	-0.760068
680.154000	-0.349735
680.349000	-0.581615
680.544000	-0.696016
680.739000	-0.235420
680.934000	-0.482851
681.129000	-0.434625
681.324000	-0.600622
681.519000	-0.403338
681.714000	-0.270647
681.909000	-0.253734
682.105000	-0.570429
682.300000	-0.522558
682.495000	-0.238618
682.690000	0.028432
682.885000	-0.256090
683.080000	-0.240017
683.275000	-0.307308
683.470000	0.348033
683.665000	0.399349
683.860000	0.484434
684.055000	0.028711
684.250000	-0.529138
684.445000	-0.612689
684.641000	0.181143
684.836000	-0.072917
685.031000	-0.022124
685.226000	-0.158488
685.421000	0.114501
685.616000	-0.193112
685.811000	-0.347751
686.006000	0.046248
686.201000	-0.228120
686.396000	-0.556129
686.591000	-0.712515
686.786000	-0.091582
686.981000	-0.057028
687.176000	-0.057167
687.372000	-0.369400
687.567000	0.046846
687.762000	0.220958
687.957000	-0.231389
688.152000	-0.702621
688.347000	-0.406963
688.542000	-0.460502
688.737000	-1.125369
688.932000	-1.004560
689.127000	-0.409055
689.322000	-0.075706
689.517000	-0.022883
689.712000	-0.340926
689.908000	-0.447366
690.103000	-0.589968
690.298000	-0.341991
690.493000	-0.147459
690.688000	-0.805799
690.883000	-0.380189
691.078000	0.173196
691.273000	0.298216
691.468000	-0.166395
691.663000	-0.562149
691.858000	-0.113168
692.053000	0.030536
692.248000	0.138452
692.443000	0.282286
692.639000	-0.239631
692.834000	0.157140
693.029000	0.753471
693.224000	0.757047
693.419000	-0.168995
693.614000	-0.642667
693.809000	-0.825330
694.004000	-0.461815
694.199000	-0.644183
694.394000	-0.316776
694.589000	-0.500413
694.784000	-0.555967
694.979000	-0.354143
695.174000	-0.649373
695.370000	-0.152427
695.565000	-0.300074
695.760000	-0.540630
695.955000	0.031444
696.150000	-0.005551
696.345000	-0.525638
696.540000	0.068843
696.740000	0.031609
696.940000	-0.061405
697.140000	-0.173941
697.340000	-0.380336
697.539000	0.088105
697.739000	-0.305677
697.939000	-0.174525
698.139000	-0.287421
698.339000	-0.910754
698.539000	-0.740624
698.739000	-0.742614
698.939000	-0.594030
699.138000	-0.690062
699.338000	0.126932
699.538000	0.336607
699.738000	-0.310891
699.938000	-0.444777
700.138000	-0.751474
700.338000	-0.753644
700.538000	-0.524825
700.737000	-0.351690
700.937000	-0.695547
701.137000	-1.022855
701.337000	-0.160109
701.537000	0.380852
701.737000	-0.198875
701.937000	-0.528310
702.137000	-0.392866
702.337000	-0.626150
702.536000	-0.530303
702.736000	-0.530941
702.936000	-0.453817
703.136000	0.052744
703.336000	-0.201162
703.536000	-0.397565
703.736000	-0.948496
703.936000	-0.691772
704.135000	-0.730600
704.335000	-0.418374
704.535000	-0.931601
704.735000	-0.833976
704.935000	0.328555
705.135000	0.053378
705.335000	-0.660532
705.535000	-0.184594
705.735000	0.152810
705.934000	-0.085292
706.134000	-0.740103
706.334000	-0.881082
706.534000	-0.723008
706.734000	-0.584049
706.934000	-0.464422
707.134000	-0.444606
707.334000	-0.445552
707.533000	-0.546459
707.733000	-0.406047
707.933000	-0.486542
708.133000	-0.345966
708.333000	-0.166847
708.533000	-0.126877
708.733000	-0.106722
708.933000	-0.449434
709.132000	-0.329149
709.332000	-0.531979
709.532000	-0.675058
709.732000	-0.431164
709.932000	-0.594524
710.132000	-0.959158
710.332000	-1.141139
710.532000	-0.087237
710.732000	0.014240
710.931000	-0.759366
711.131000	-0.680583
711.331000	-0.272033
711.531000	-0.641286
711.731000	-0.478581
711.931000	-0.355931
712.131000	-0.745942
712.331000	-0.232282
712.530000	-0.334654
712.730000	-0.726651
712.930000	-0.500048
713.130000	-0.253998
713.330000	-0.564448
713.530000	-0.421262
713.730000	0.180624
713.930000	-0.151510
714.129000	-0.586746
714.329000	-0.859025
714.529000	-0.359560
714.729000	0.118711
714.929000	-0.110384
715.129000	-0.444356
715.329000	-0.340362
715.529000	-0.698190
715.729000	-0.257405
715.928000	0.056646
716.128000	-0.069276
716.328000	0.014739
716.528000	-0.301432
716.728000	-0.027410
716.928000	0.078019
717.128000	0.521996
717.328000	0.162701
717.527000	-0.598704
717.727000	-0.599288
717.927000	-0.346283
718.127000	-0.516533
718.327000	-0.687830
718.527000	-0.708769
718.727000	-0.176824
718.927000	-0.497284
719.127000	-1.034996
719.326000	-0.582624
719.526000	-0.284364
719.726000	-0.263536
719.926000	-0.759151
720.126000	-0.651728
720.326000	-0.156993
720.526000	-0.565712
720.726000	-0.459546
720.925000	-0.308718
721.125000	-1.089934
721.325000	-0.612480
721.525000	-0.483795
721.725000	-0.527243
721.925000	-0.746312
722.125000	-0.681092
722.325000	0.124019
722.524000	-0.333905
722.724000	-0.552831
722.924000	-0.574646
723.124000	-0.465976
723.324000	-0.313160
723.524000	-0.269606
723.724000	-0.642812
723.924000	-0.402923
724.124000	0.191620
724.323000	0.544730
724.523000	0.125597
724.723000	0.346687
724.923000	-0.492574
725.123000	-0.470981
725.323000	-0.050948
725.523000	-0.184207
725.723000	-0.583079
725.922000	-0.716908
726.122000	-0.095547
726.322000	-0.162645
726.522000	-0.631147
726.722000	0.193804
726.922000	0.082366
727.122000	-0.386458
727.322000	0.239328
727.521000	-0.051571
727.721000	-0.568112
727.921000	-0.455859
728.121000	-0.253690
728.321000	-0.703994
728.521000	-0.547950
728.721000	-0.390768
728.921000	-0.480949
729.121000	0.219385
729.320000	-0.391707
729.520000	-0.369099
729.720000	-0.664566
729.920000	-0.667731
730.120000	-0.393257
730.320000	-0.280284
730.520000	-0.941503
730.720000	-0.830126
730.919000	-0.372687
731.119000	-0.167214
731.319000	-0.764018
731.519000	-0.970377
731.719000	-0.764493
731.919000	-0.879752
732.119000	-1.571454
732.319000	-1.391745
732.519000	-0.376410
732.718000	-0.538765
732.918000	-0.423514
733.118000	-0.215765
733.318000	0.086089
733.518000	-0.123327
733.718000	-0.985655
733.918000	-1.126121
734.118000	-1.032501
734.317000	-0.475060
734.517000	-0.661358
734.717000	-0.265348
734.917000	0.275362
735.117000	0.322776
735.317000	-0.077729
735.517000	0.441665
735.717000	0.750918
735.916000	-0.172950
736.116000	-0.646225
736.316000	-0.554943
736.516000	-0.792868
736.716000	-0.435941
736.916000	-0.748667
737.116000	-0.391780
737.316000	0.112949
737.516000	-0.151699
737.715000	-0.392740
737.915000	-0.875028
738.115000	-1.047080
738.315000	-0.539657
738.515000	-0.394382
738.715000	-0.275011
738.915000	-0.056051
739.115000	-0.666399
739.314000	-0.397528
739.514000	0.212940
739.714000	0.238015
739.914000	-0.327304
740.114000	-0.525161
740.314000	0.017272
740.514000	-0.007413
740.714000	-1.123225
740.913000	-1.100031
741.113000	-0.479996
741.313000	-0.355646
741.513000	-0.481348
741.713000	-0.307590
741.913000	-0.082914
742.113000	-0.609621
742.313000	-1.063457
742.513000	-0.410178
742.712000	-0.058065
742.912000	-0.840906
743.112000	-1.021113
743.312000	-1.124330
743.512000	-0.618124
743.712000	-0.645626
743.912000	-0.902269
744.112000	-0.698235
744.311000	-1.213033
744.511000	-0.675697
744.711000	-0.316798
744.911000	-0.910486
745.111000	-0.679193
745.311000	-0.551128
745.511000	-0.655530
745.711000	-0.656148
745.911000	-0.397316
746.110000	-0.735255
746.310000	-0.922533
746.510000	-0.346833
746.710000	0.070733
746.910000	-0.689601
747.110000	-1.426070
747.310000	-1.165477
747.510000	-0.483283
747.709000	-0.853700
747.909000	-0.696901
748.109000	-0.061152
748.309000	-0.247770
748.509000	-0.595048
748.709000	-1.186472
748.909000	-0.677392
749.109000	-0.169415
749.308000	0.099599
749.508000	-0.710557
749.708000	-0.467557
749.908000	0.045955
750.108000	-0.035247
750.308000	-0.715555
750.508000	0.182756
750.708000	-0.526622
750.908000	-1.703600
751.107000	-0.447099
751.307000	0.731498
751.507000	0.184337
751.707000	-0.090677
751.907000	-0.008264
752.107000	-0.035930
752.307000	-0.673882
752.507000	-0.870277
752.706000	-0.980828
752.906000	0.548537
753.106000	-1.237790
753.306000	-1.830153
753.506000	0.216395
753.706000	-0.543475
753.906000	-0.402741
754.106000	0.047942
754.305000	-0.573223
754.505000	-0.008493
754.705000	0.247656
754.905000	-0.436178
755.105000	0.162739
755.305000	-0.637567
755.505000	-0.639403
755.705000	-0.439242
755.905000	-0.584537
756.104000	-1.334358
756.304000	-1.742503
756.504000	-1.861923
756.704000	-0.328912
756.904000	-0.008727
757.104000	-0.996401
757.304000	-0.706580
757.504000	-0.213563
757.703000	-0.769269
757.903000	-0.008796
758.103000	0.138088
758.303000	-0.539172
758.503000	-0.570135
758.703000	-0.571466
758.903000	-0.423607
759.103000	-0.484188
759.303000	-0.307428
759.502000	-0.278457
759.702000	-0.008979
759.902000	-0.309855
760.102000	-0.491527
760.302000	-0.826005
760.502000	-0.612375
760.702000	-0.431997
760.902000	-0.644828
761.101000	-0.312715
761.301000	-0.617403
761.501000	-0.435059
761.701000	-0.801751
761.901000	-0.775282
762.101000	-0.285595
762.301000	-0.316308
762.501000	-0.716121
762.700000	-0.997305
762.900000	-1.337423
763.100000	-0.596805
763.300000	-0.040364
763.500000	-0.568757
763.703000	-0.504905
763.905000	-0.755573
764.108000	-0.789465
764.311000	-0.602321
764.513000	-0.759278
764.716000	-0.354510
764.919000	-0.512058
765.121000	-1.077937
765.324000	-1.648560
765.527000	-1.403840
765.729000	-1.467174
765.932000	-0.453886
766.135000	-0.263366
766.337000	0.117465
766.540000	-0.423626
766.743000	-0.298421
766.945000	-1.226549
767.148000	-1.421909
767.351000	-1.678452
767.553000	-0.074090
767.756000	-1.041583
767.958000	-1.396159
768.161000	-0.267856
768.364000	-1.111001
768.566000	-1.697741
768.769000	-0.986868
768.972000	-0.856469
769.174000	-1.447040
769.377000	-1.582215
769.580000	-1.454276
769.782000	-0.633027
769.985000	-1.786693
770.188000	-2.384623
770.390000	-0.606563
770.593000	0.585944
770.796000	-0.308098
770.998000	-0.739205
771.201000	-0.939081
771.404000	-0.076429
771.606000	-0.810692
771.809000	-0.510269
772.012000	-0.277346
772.214000	-0.979835
772.417000	-1.247501
772.620000	-0.243394
772.822000	-0.782881
773.025000	-1.623177
773.228000	-0.885492
773.430000	-0.515993
773.633000	-0.077715
773.836000	-0.246996
774.038000	-0.146041
774.241000	-0.689263
774.444000	-1.304426
774.646000	-0.724853
774.849000	-1.101671
775.052000	-0.692264
775.254000	0.023919
775.457000	-0.556453
775.659000	-0.660447
775.862000	-1.071341
776.065000	-0.901683
776.267000	0.230101
776.470000	-0.320821
776.673000	-1.253103
776.875000	-0.321984
777.078000	-0.217772
777.281000	-0.877866
777.483000	-0.080060
777.686000	-0.324328
777.889000	-0.708702
778.091000	-0.395857
778.294000	-1.129912
778.497000	-0.781096
778.699000	-1.342596
778.902000	-1.347182
779.105000	-0.467852
779.307000	0.517839
779.510000	-0.646097
779.713000	-0.329622
779.915000	-0.970795
780.118000	0.808009
780.321000	0.274419
780.523000	-0.367932
780.726000	-1.225761
780.929000	-1.046702
781.131000	-0.797869
781.334000	-1.985920
781.537000	-1.451293
781.739000	-0.118949
781.942000	-0.696233
782.145000	-1.062442
782.347000	-1.861353
782.550000	-1.245330
782.753000	-1.285849
782.955000	-1.398920
783.158000	-1.690125
783.361000	-0.962420
783.563000	-1.072377
783.766000	-0.928378
783.968000	0.981256
784.171000	0.874999
784.374000	-1.192616
784.576000	-0.933877
784.779000	0.283776
784.982000	0.507810
785.184000	-0.719263
785.387000	-0.309792
785.590000	0.996028
785.792000	0.250887
785.995000	-0.611302
786.198000	-0.462042
786.400000	-0.728052
786.603000	-0.918993
786.806000	-0.878453
787.008000	-0.199800
787.211000	-0.087019
787.414000	-1.150298
787.616000	-0.468717
787.819000	-0.699003
788.022000	-1.694407
788.224000	-1.506904
788.427000	-1.507757
788.630000	-0.127050
788.832000	-0.011537
789.035000	-0.894650
789.238000	-1.747233
789.440000	-1.253088
789.643000	-0.437478
789.846000	-1.098753
790.048000	-0.167353
790.251000	0.260822
790.454000	-0.477864
790.656000	0.027296
790.859000	-0.441653
791.062000	-0.873116
791.264000	0.262110
791.467000	-0.758227
791.669000	-2.254399
791.872000	-1.039911
792.075000	-1.907594
792.277000	-1.354887
792.480000	-0.806230
792.683000	-0.883243
792.885000	-1.716656
793.088000	-1.802533
793.291000	-2.006495
793.493000	-1.051034
793.696000	-0.171909
793.899000	-0.172383
794.101000	-0.654969
794.304000	-0.978633
794.507000	-0.375094
794.709000	-0.295246
794.912000	-0.580685
795.115000	-0.988657
795.317000	-0.703665
795.520000	-0.543334
795.723000	-1.570945
795.925000	-1.737549
796.128000	-1.612246
796.331000	-1.823340
796.533000	-2.487788
796.736000	-1.463683
796.939000	-0.926863
797.141000	-1.387711
797.344000	-0.888483
797.547000	-0.388097
797.749000	-0.514027
797.952000	-1.524707
798.155000	-1.479465
798.357000	-0.813757
798.560000	-1.030359
798.763000	-0.478645
798.965000	-1.112959
799.168000	-1.328412
799.371000	-0.905055
799.573000	-0.396483
799.776000	-1.464488
799.978000	-2.283622
800.181000	-1.257753
800.384000	1.233902
800.586000	0.202542
800.789000	-1.779019
800.992000	-1.734768
801.194000	-1.350326
801.397000	-1.743093
801.600000	-1.488652
801.802000	-0.621558
802.005000	-0.536329
802.208000	-1.193791
802.410000	-1.149076
802.613000	-1.329684
802.816000	-0.364662
803.018000	-1.599092
803.221000	-0.631121
803.424000	1.003934
803.626000	0.119596
803.829000	-1.301974
804.032000	0.164848
804.234000	1.233750
804.437000	-0.997517
804.640000	-0.996680
804.842000	-0.819774
805.045000	-1.229026
805.248000	-1.186222
805.450000	-1.140005
805.653000	-1.328612
805.856000	-1.463049
806.058000	-0.558846
806.261000	-1.607627
806.464000	-0.834250
806.666000	-0.698592
806.869000	-1.714018
807.072000	-1.943570
807.274000	-1.485071
807.477000	-1.074199
807.679000	-0.844386
807.882000	-1.262553
808.085000	-0.246764
808.287000	-0.153797
808.490000	-1.508237
808.693000	-1.696210
808.895000	-1.557777
809.098000	-0.856490
809.301000	-1.047192
809.503000	-1.476201
809.706000	-0.725531
809.909000	-1.009887
810.111000	-0.394076
810.314000	-0.918437
810.517000	-1.626941
810.719000	-1.588410
810.922000	-1.595136
811.125000	-0.492330
811.327000	0.466301
811.530000	-0.352319
811.735000	-0.978258
811.940000	-1.366830
812.146000	-0.887570
812.351000	-0.451095
812.556000	-0.890489
812.761000	-2.113691
812.967000	-0.259836
813.172000	0.034282
813.377000	-0.653372
813.582000	-0.064134
813.788000	-1.008398
813.993000	-2.442823
814.198000	-0.907656
814.403000	-1.204579
814.609000	-0.513796
814.814000	-1.017193
815.019000	-0.965317
815.224000	-0.864838
815.429000	-1.826718
815.635000	-0.368510
815.840000	-0.419446
816.045000	-0.421357
816.250000	0.238985
816.456000	-1.594258
816.661000	-2.522601
816.866000	-2.374303
817.071000	-1.706577
817.277000	-2.594427
817.482000	-1.823887
817.687000	-0.738385
817.892000	-1.417625
818.097000	-1.109487
818.303000	0.609429
818.508000	1.388036
818.713000	1.862301
818.918000	0.506367
819.124000	-0.277386
819.329000	-2.118137
819.534000	-1.544575
819.739000	-0.701179
819.945000	-0.174798
820.150000	-0.495411
820.355000	-0.869989
820.560000	-1.187026
820.766000	-0.709771
820.971000	-1.518976
821.176000	-2.706363
821.381000	-2.805854
821.586000	-2.121052
821.792000	-0.666162
821.997000	-0.341523
822.202000	-0.233333
822.407000	-1.540311
822.613000	-1.434461
822.818000	-0.727306
823.023000	-1.330457
823.228000	-1.890099
823.434000	0.203726
823.639000	1.031854
823.844000	-0.016597
824.049000	0.149487
824.255000	0.872054
824.460000	0.485495
824.665000	-1.190281
824.870000	-0.016821
825.075000	-0.016843
825.281000	-0.636316
825.486000	0.266232
825.691000	-2.569904
825.896000	-2.915984
826.102000	0.096691
826.307000	-0.929355
826.512000	-1.619577
826.717000	-0.419059
826.923000	-1.053518
827.128000	-0.017309
827.333000	-0.481968
827.538000	-0.716916
827.744000	-0.192811
827.949000	-1.183830
828.154000	-1.130073
828.359000	0.216538
828.564000	-0.899905
828.770000	-0.844566
828.975000	0.514992
829.180000	-1.088749
829.385000	-2.099357
829.591000	-1.749854
829.796000	-0.798271
830.001000	-0.799796
830.206000	-1.103946
830.412000	-1.343873
830.617000	-1.286710
830.822000	-0.746737
831.027000	-1.835427
831.232000	-2.516932
831.438000	-1.245874
831.643000	-1.000296
831.848000	-0.879712
832.053000	-1.377095
832.259000	-1.626118
832.464000	-3.428776
832.669000	-3.192258
832.874000	-3.373448
833.080000	-2.265149
833.285000	-0.581270
833.490000	-0.769322
833.695000	-2.411306
833.901000	-2.106378
834.106000	-1.729485
834.311000	-0.592262
834.516000	-0.338043
834.721000	-1.237932
834.927000	-0.598982
835.132000	-0.729222
835.337000	1.143934
835.542000	0.175536
835.748000	-2.160746
835.953000	-0.540426
836.158000	-1.194465
836.363000	0.045873
836.569000	-0.482102
836.774000	-2.004570
836.979000	-2.404434
837.184000	-3.140656
837.390000	-2.281630
837.595000	-1.754158
837.800000	-0.153758
838.005000	0.585167
838.210000	-0.423926
838.416000	-1.438826
838.621000	-1.984555
838.826000	-1.374124
839.031000	-1.517256
839.237000	-1.802783
839.442000	-3.316108
839.647000	-2.899832
839.852000	-1.535346
840.058000	-1.402697
840.263000	-1.965090
840.468000	-2.523128
840.673000	-1.828235
840.878000	-2.317022
841.084000	-2.470821
841.289000	-1.845498
841.494000	0.614744
841.699000	2.034660
841.905000	0.191918
842.110000	0.621742
842.315000	-1.238970
842.520000	-2.740168
842.726000	-3.965887
842.931000	-2.529517
843.136000	-1.609525
843.341000	-3.439385
843.547000	-0.965120
843.752000	-0.675631
843.957000	-1.120625
844.162000	-1.052352
844.367000	-1.275901
844.573000	-0.762911
844.778000	-0.243782
844.983000	-0.466544
845.188000	-0.692239
845.394000	-1.825092
845.599000	-1.520923
845.804000	-1.300577
846.009000	-1.006777
846.215000	-2.000070
846.420000	-2.310482
846.625000	-0.405460
846.830000	0.282039
847.036000	0.206810
847.241000	-1.176890
847.446000	-1.099836
847.651000	-0.718288
847.856000	-1.504143
848.062000	-2.524764
848.267000	-1.118105
848.472000	-2.848112
848.677000	-3.092104
848.883000	-0.965722
849.088000	0.689989
849.293000	-1.377457
849.498000	-1.296181
849.704000	-0.342895
849.909000	-1.063332
850.114000	-2.582459
850.319000	-2.107449
850.524000	-0.749318
850.730000	1.515241
850.935000	0.707783
851.140000	-0.024471
851.345000	-1.084712
851.551000	0.302670
851.756000	-0.353644
851.961000	-2.003817
852.166000	-2.912406
852.372000	-2.506366
852.577000	-3.024617
852.782000	-1.872190
852.987000	0.226033
853.193000	-0.697345
853.398000	-0.529468
853.603000	-1.709876
853.808000	-3.986185
854.013000	-4.011542
854.219000	-0.875137
854.424000	0.997944
854.629000	0.401768
854.834000	-2.521362
855.040000	-1.671469
855.245000	0.146736
855.450000	-2.865448
855.655000	-4.262487
855.861000	-4.550591
856.066000	-2.833226
856.271000	-2.574216
856.476000	-0.026448
856.682000	-0.557545
856.887000	-3.917062
857.092000	-1.710104
857.297000	-0.382541
857.502000	-1.809504
857.708000	-2.348901
857.913000	-0.742574
858.118000	0.153496
858.323000	0.335060
858.529000	0.786626
858.734000	1.332743
858.939000	1.063881
859.144000	-2.490790
859.350000	-4.407404
859.555000	-3.871970
859.760000	-0.211681
859.965000	-0.947686
860.171000	-2.984717
860.376000	-1.605299
860.581000	-2.819118
860.786000	-5.260164
860.991000	-5.470779
861.197000	-2.747788
861.402000	-1.909217
861.607000	-3.416199
861.812000	-2.769294
862.018000	-1.736262
862.223000	-2.024701
862.428000	-0.602385
862.633000	-0.793979
862.839000	-1.857818
863.044000	-2.649868
863.249000	-4.385104
863.454000	-2.160814
863.659000	-2.750524
863.865000	-2.959549
864.070000	-2.085932
864.275000	-4.051321
864.480000	-3.084419
864.686000	-3.985985
864.891000	-3.197384
865.096000	-2.018725
865.301000	-3.218068
865.507000	-1.433099
865.712000	-0.931953
865.917000	-2.249050
866.122000	-0.333724
866.328000	-3.691781
866.533000	-4.807145
866.738000	-0.132289
866.943000	0.071383
867.148000	-0.235861
867.354000	-2.718190
867.559000	-3.752807
867.764000	-3.355595
867.969000	0.281921
868.175000	-2.424664
868.380000	-3.790731
868.585000	-5.154998
868.790000	-2.654597
868.996000	-3.200233
869.201000	-5.961886
869.406000	-4.498677
869.611000	-2.055492
869.817000	-2.478743
870.022000	2.103696
870.227000	-1.744896
870.432000	-2.291365
870.637000	-0.786202
870.843000	-1.874016
871.048000	-4.801098
871.253000	-3.068841
871.458000	-1.776538
871.664000	-3.542759
871.869000	-3.343029
872.074000	-2.135802
872.279000	-1.028673
872.485000	-2.259853
872.690000	-5.064789
872.895000	-2.952637
873.100000	-1.719725
873.306000	-2.178549
873.511000	0.193230
873.716000	-0.489829
873.921000	-4.578744
874.126000	-4.244640
874.332000	-2.792521
874.537000	-0.958542
874.742000	-0.840334
874.947000	-2.462335
875.153000	1.831987
875.358000	-0.970773
875.563000	-3.423770
875.768000	-5.432962
875.974000	-4.512689
876.179000	-1.097907
876.384000	-1.815012
876.589000	-3.986115
876.794000	-3.990652
877.000000	-4.833511
877.205000	-4.228454
877.410000	0.686143
877.615000	0.324466
877.821000	-4.400948
878.026000	-2.098453
878.231000	-3.553221
878.436000	-5.988666
878.642000	-3.706106
878.847000	-1.630394
879.052000	0.575333
879.257000	-2.506552
879.463000	-3.622827
879.668000	-3.994977
879.873000	-2.893295
880.078000	-6.261342
880.283000	-7.035510
880.489000	-6.285586
880.694000	-5.936382
880.899000	-4.084389
881.104000	-0.926845
881.310000	-0.292012
881.515000	-1.306205
881.720000	1.995801
881.925000	3.029759
882.131000	4.819793
882.336000	2.022624
882.541000	-2.765650
882.746000	-1.865909
882.952000	-2.385066
883.157000	-2.652247
883.362000	-3.179735
883.567000	-2.404639
883.772000	-2.824829
883.978000	-4.022818
884.183000	-1.370600
884.388000	-2.562209
884.593000	-6.016317
884.799000	0.360192
885.004000	1.177014
885.209000	-1.123381
885.414000	-1.389297
885.620000	-3.708946
885.825000	-0.177886
886.030000	-0.723808
886.235000	-2.789349
886.440000	-3.089677
886.646000	-6.853234
886.851000	-7.167121
887.056000	-1.583781
887.261000	1.641157
887.467000	-3.704111
887.672000	-0.893343
887.877000	-2.180613
888.082000	-6.773551
888.288000	-5.892746
888.493000	-9.078253
888.698000	-7.258243
888.903000	-2.936793
889.109000	-2.930711
889.314000	0.967829
889.519000	-4.072452
889.724000	-2.493099
889.929000	-3.217403
890.135000	-2.647392
890.340000	-3.541625
890.545000	-3.248652
890.750000	-3.547828
890.956000	-3.413151
891.161000	-2.823118
891.366000	-3.564543
891.571000	-5.484342
891.777000	-4.459265
891.982000	0.842969
892.187000	0.103966
892.392000	0.844568
892.598000	1.147421
892.803000	-1.097431
893.008000	-4.400394
893.213000	-2.890897
893.418000	-5.475607
893.624000	-5.806279
893.829000	-9.297100
894.034000	-6.125153
894.239000	-3.711499
894.445000	-3.245754
894.650000	-2.955812
894.855000	-4.646259
895.060000	-4.026161
895.266000	-3.743759
895.471000	-4.054279
895.676000	-2.521501
895.881000	-1.451032
896.087000	-3.480027
896.292000	-1.774893
896.497000	3.740843
896.702000	2.468178
896.907000	-1.936652
897.113000	1.374888
897.318000	0.268520
897.523000	-0.522619
897.728000	-1.637485
897.934000	-0.839874
898.139000	-1.318901
898.344000	-0.689707
898.549000	-0.371014
898.755000	-1.179235
898.960000	-5.087393
899.165000	-6.553166
899.370000	-3.478211
899.575000	0.442025
899.781000	-4.317879
899.986000	-3.497171
900.191000	-1.536687
900.396000	-3.358169
900.602000	-2.712648
900.807000	-3.737398
901.012000	-1.400109
901.217000	-1.741798
901.423000	-5.274892
901.628000	-7.998009
901.833000	-1.240513
902.038000	-2.277681
902.244000	-4.491623
902.449000	-3.487333
902.654000	-4.392090
902.859000	-3.342644
903.064000	-1.270377
903.270000	0.646205
903.475000	-5.820305
903.680000	-8.782661
903.885000	-6.916700
904.091000	-3.944939
904.296000	-4.138227
904.501000	-2.014915
904.706000	-3.631362
904.912000	-2.404853
905.117000	-4.412240
905.322000	-5.363297
905.527000	-7.707009
905.733000	-6.253524
905.938000	-6.292661
906.143000	-3.397653
906.348000	-2.657127
906.553000	0.879586
906.759000	1.066065
906.964000	-0.432302
907.169000	-4.782106
907.374000	-5.902984
907.580000	-3.469645
907.785000	-4.108032
907.990000	25.698621
908.195000	17.359935
908.401000	-6.491626
908.606000	-9.467523
908.811000	-11.220496
909.016000	-4.165447
909.221000	-1.039754
909.427000	-0.059189
909.632000	-5.035443
909.837000	-6.473449
910.042000	-5.286219
910.248000	-9.150367
910.453000	-4.323207
910.658000	-4.151649
910.863000	-7.416146
911.069000	-7.033079
911.274000	-0.681621
911.479000	0.976768
911.684000	-7.537292
911.890000	-5.291364
912.095000	-6.344902
912.300000	-8.920899
912.506000	-7.237539
912.711000	-9.250455
912.917000	-9.900194
913.123000	-3.702513
913.328000	-2.002667
913.534000	-2.890300
913.740000	1.903910
913.946000	-0.945720
914.151000	-6.086696
914.357000	-7.220377
914.563000	-2.267321
914.768000	-6.722263
914.974000	-7.241817
915.180000	-9.576115
915.385000	-5.977800
915.591000	-6.030880
915.797000	-0.299081
916.002000	3.404294
916.208000	-0.530248
916.414000	-8.926753
916.620000	-16.186607
916.825000	-6.396516
917.031000	-2.884142
917.237000	-5.720384
917.442000	-6.020101
917.648000	-9.664590
917.854000	-8.699578
918.059000	-4.657204
918.265000	-6.579400
918.471000	-6.854943
918.676000	-4.969672
918.882000	-8.945303
919.088000	-10.196072
919.294000	-13.260007
919.499000	-11.097173
919.705000	-3.601661
919.911000	-6.623745
920.116000	-7.198794
920.322000	-8.762118
920.528000	-10.349931
920.733000	-16.223362
920.939000	-7.661393
921.145000	-8.426710
921.350000	-8.006296
921.556000	-6.740109
921.762000	-8.583359
921.968000	-9.407343
922.173000	-11.348356
922.379000	-11.450603
922.585000	-7.442076
922.790000	-11.278477
922.996000	-11.091107
923.202000	-4.818737
923.407000	-5.970033
923.613000	-0.645518
923.819000	1.042543
924.024000	-2.884302
924.230000	-3.184297
924.436000	-7.458125
924.642000	5.943096
924.847000	6.584931
925.053000	-4.143876
925.259000	-11.113748
925.464000	-8.849727
925.670000	-12.636396
925.876000	-16.320535
926.081000	-13.440950
926.287000	-9.307058
926.493000	-7.655652
926.698000	-6.456022
926.904000	-4.006504
927.110000	-2.212246
927.316000	-1.308601
927.521000	2.674618
927.727000	-2.590016
927.933000	-4.481672
928.138000	-13.944538
928.344000	-15.698555
928.550000	-6.792567
928.755000	5.064223
928.961000	-1.384265
929.167000	-9.165932
929.372000	-5.950605
929.578000	-8.302537
929.784000	-15.305183
929.990000	-8.069701
930.195000	-2.763612
930.401000	-6.138616
930.607000	-3.799649
930.812000	1.256292
931.018000	-11.694467
931.224000	-23.944128
931.429000	-15.028181
931.635000	-12.571429
931.841000	-11.645297
932.046000	-8.173214
932.252000	-5.396239
932.458000	0.605001
932.664000	-1.187634
932.869000	-6.592858
933.075000	-8.451350
933.281000	-8.571632
933.486000	-4.957385
933.692000	-5.354147
933.898000	-7.917192
934.103000	-5.777144
934.309000	-10.910335
934.515000	-1.293145
934.720000	-0.904380
934.926000	6.621655
935.132000	8.611114
935.338000	-6.137213
935.543000	-16.397250
935.749000	-14.908265
935.955000	-17.039788
936.160000	-9.307255
936.366000	0.714095
936.572000	-3.126838
936.777000	-6.687643
936.983000	-5.388965
937.189000	-9.405289
937.394000	-15.350301
937.600000	-6.879008
937.806000	3.487200
938.012000	1.702127
938.217000	10.984021
938.423000	5.461170
938.629000	-4.808394
938.834000	-11.895486
939.040000	-9.270838
939.246000	-4.934718
939.451000	-12.759147
939.657000	-10.435617
939.863000	-9.589439
940.068000	-1.655553
940.274000	-6.718002
940.480000	-2.200880
940.686000	-14.228270
940.891000	-25.478168
941.097000	5.096507
941.303000	-8.068046
941.508000	-4.932795
941.714000	9.439284
941.920000	-13.128840
942.125000	-3.964110
942.331000	-3.437009
942.537000	1.471889
942.742000	-1.817253
942.948000	-12.282002
943.154000	-12.267027
943.360000	-24.461502
943.565000	-4.100703
943.771000	8.336139
943.977000	11.658433
944.182000	-12.538056
944.388000	-16.545280
944.594000	-1.316144
944.799000	14.277625
945.005000	4.376395
945.211000	3.819331
945.416000	-5.383252
945.622000	-17.583500
945.828000	-9.561168
946.034000	-3.159676
946.239000	-7.973261
946.445000	-19.655102
946.651000	-24.262500
946.856000	-9.600186
947.062000	9.870733
947.268000	-2.559386
947.473000	-23.486636
947.679000	-22.427110
947.885000	-5.005976
948.090000	-8.070893
948.296000	9.071349
948.502000	12.589995
948.708000	-2.024625
948.913000	-20.672970
949.119000	0.434408
949.325000	-11.363861
949.530000	-17.585137
949.736000	-15.666861
949.942000	-22.390525
950.147000	-17.583020
950.353000	-13.121512
950.559000	-10.664314
950.764000	7.279584
950.970000	3.570645
951.176000	-7.794484
951.382000	-14.898899
951.587000	-11.270931
951.793000	-2.819964
951.999000	2.391982
952.204000	-11.946269
952.410000	-18.309664
952.616000	-6.612062
952.821000	-8.593317
953.027000	-20.258518
953.233000	-17.328272
953.438000	-24.089281
953.644000	-3.515686
953.850000	1.128426
954.056000	-4.896866
954.261000	-17.751772
954.467000	-9.674720
954.673000	-1.552818
954.878000	-9.687654
955.084000	-8.343033
955.290000	-32.893756
955.495000	-17.280424
955.701000	-12.465917
955.907000	-0.208103
956.112000	8.810580
956.318000	6.669501
956.524000	8.832832
956.730000	1.907383
956.935000	-6.589749
957.141000	-16.397627
957.347000	-10.926079
957.552000	-15.194912
957.758000	-18.774680
957.964000	-32.666675
958.169000	8.477989
958.375000	7.050532
958.581000	-23.592225
958.786000	-25.544199
958.992000	-33.760930
959.198000	-17.398496
959.404000	-6.175746
959.609000	-9.795931
959.815000	-25.011307
960.021000	-4.773401
960.226000	-17.045911
960.432000	-56.412194
960.638000	-29.100863
960.843000	0.542367
961.049000	3.717314
961.255000	-9.642026
961.460000	-23.133768
961.666000	-32.866126
961.872000	-19.542580
962.078000	-22.190767
962.283000	-34.761382
962.489000	-29.203595
962.695000	-6.789284
962.900000	-8.358938
963.106000	-11.730693
963.312000	-8.559167
963.517000	-28.699892
963.723000	-31.579979
963.929000	-5.308638
964.134000	-0.252298
964.340000	-19.814297
964.546000	-24.650366
964.752000	-35.622340
964.957000	-42.019115
965.163000	-4.647452
965.369000	-6.485230
965.574000	-13.732758
965.780000	-15.540850
966.000000	-16.452559
966.220000	-14.742124
966.440000	-33.913553
966.661000	-4.847959
966.881000	-31.470955
967.101000	-66.791753
967.321000	-58.176730
967.541000	-17.011375
967.761000	-26.611759
967.981000	-12.498028
968.202000	-30.106626
968.422000	-6.084135
968.642000	-2.214359
968.862000	-7.175070
969.082000	-21.089147
969.302000	-8.485385
969.522000	-21.402840
969.743000	6.555857
969.963000	-12.300751
970.183000	-34.988706
970.403000	-24.955247
970.623000	-15.366930
970.843000	2.789527
971.063000	21.716439
971.284000	-3.483073
971.504000	-41.460172
971.724000	-23.909745
971.944000	-32.263986
972.164000	-48.703445
972.384000	-29.455957
972.604000	-40.821578
972.825000	-51.676827
973.045000	-34.167313
973.265000	18.594255
973.485000	-9.412537
973.705000	-18.588502
973.925000	-15.396754
974.145000	-38.917792
974.365000	-0.355697
974.586000	-12.283824
974.806000	-37.934761
975.026000	11.614499
975.246000	-6.459539
975.466000	-36.676122
975.686000	-30.150392
975.906000	-37.337621
976.127000	-53.892856
976.347000	-48.875650
976.567000	-9.088057
976.787000	-15.360015
977.007000	-32.490024
977.227000	-22.058347
977.447000	-32.177228
977.668000	-52.517005
977.888000	-53.081443
978.108000	-72.295838
978.328000	-46.118505
978.548000	14.170301
978.768000	4.991349
978.988000	-20.153090
979.209000	-32.687748
979.429000	-49.807612
979.649000	-3.172492
979.869000	-12.944253
980.089000	-64.957263
980.309000	-97.648491
980.529000	-56.100381
980.750000	-32.860452
980.970000	-53.812563
981.190000	-28.304175
981.410000	-8.233737
981.630000	-30.444513
981.850000	-48.354241
982.070000	-35.403048
982.291000	-39.057073
982.511000	-51.745189
982.731000	-13.401450
982.951000	-16.718137
983.171000	-30.466157
983.391000	-39.284734
983.611000	-5.405892
983.832000	-32.303867
984.052000	-54.807531
984.272000	-33.251954
984.492000	-31.092939
984.712000	-15.888469
984.932000	-30.486913
985.152000	-65.853982
985.373000	-71.836210
985.593000	-39.462978
985.813000	-26.249037
986.033000	-37.883065
986.253000	-32.283270
986.473000	-20.051385
986.693000	-27.954328
986.914000	-46.467609
987.134000	-4.397900
987.354000	-27.817686
987.574000	196.504861
987.794000	112.749859
988.014000	-59.880253
988.234000	-43.561335
988.455000	-19.210361
988.675000	1.453180
988.895000	10.097399
989.115000	8.046845
989.335000	18.398778
989.555000	14.143677
989.775000	-100.453159
989.995000	-68.799482
990.216000	-2.762612
990.436000	-26.596043
990.656000	6.174679
990.876000	-39.633461
991.096000	-44.047407
991.316000	19.670732
991.536000	-36.399767
991.757000	-65.449351
991.977000	-118.876925
992.197000	-10.387717
992.417000	-10.186144
992.637000	-115.876250
992.857000	-102.357253
993.077000	-88.731035
993.298000	-41.911845
993.518000	-38.884268
993.738000	-99.976509
993.958000	-70.954003
994.178000	-67.874763
994.398000	-55.547681
994.618000	-86.006575
994.839000	-168.485625
995.059000	-65.927431
995.279000	-0.860656
995.499000	-26.865265
995.719000	-23.100881
995.939000	-25.939374
996.159000	-45.574270
996.380000	-73.038833
996.600000	-128.171525
996.820000	-39.694012
997.040000	65.878077
997.260000	-29.624980
997.480000	-16.749096
997.700000	-155.371237
997.921000	-129.936991
998.141000	-13.173195
998.361000	-72.088430
998.581000	-108.372330
998.801000	-77.349035
999.021000	-10.691300
999.241000	-1.023310
999.462000	-51.199032
999.682000	-110.439762
999.902000	-99.994077
1000.122000	-104.059707
1000.342000	-159.248429
1000.562000	-101.228180
1000.782000	-118.881750
1001.003000	-1039.448199
