Wavelength	Irradiance
(nm)	(mW/cm2/nm)

294.396000	0.000000
294.577000	0.000000
294.757000	-0.000000
294.938000	-0.000000
295.118000	-0.000000
295.299000	0.000000
295.479000	-0.000000
295.660000	-0.000000
295.840000	-0.000000
296.021000	-0.000000
296.202000	-0.000000
296.382000	-0.000000
296.563000	-0.000000
296.743000	-0.000000
296.924000	0.000000
297.104000	-0.000000
297.285000	-0.000000
297.465000	-0.000000
297.646000	-0.000000
297.826000	-0.000000
298.007000	0.000000
298.187000	0.000000
298.368000	-0.000000
298.548000	0.000000
298.729000	0.000000
298.909000	-0.000000
299.090000	-0.000000
299.270000	-0.000000
299.451000	-0.000000
299.631000	-0.000000
299.812000	-0.000000
299.992000	0.000000
300.173000	0.000000
300.353000	-0.000000
300.534000	-0.000000
300.714000	0.000000
300.895000	0.000000
301.075000	-0.000000
301.256000	0.000000
301.436000	-0.000000
301.617000	-0.000000
301.797000	-0.000000
301.978000	-0.000000
302.159000	0.000000
302.339000	0.000000
302.520000	-0.000000
302.700000	-0.000000
302.881000	0.000000
303.061000	0.000000
303.242000	0.000000
303.422000	0.000000
303.603000	-0.000000
303.783000	-0.000000
303.964000	-0.000000
304.144000	-0.000000
304.325000	-0.000000
304.505000	-0.000000
304.686000	-0.000000
304.866000	0.000000
305.047000	-0.000000
305.227000	-0.000000
305.408000	-0.000000
305.588000	-0.000000
305.769000	-0.000000
305.949000	-0.000000
306.130000	-0.000000
306.310000	-0.000000
306.491000	-0.000000
306.671000	0.000000
306.852000	-0.000000
307.032000	-0.000000
307.213000	-0.000000
307.393000	-0.000000
307.574000	0.000000
307.755000	0.000000
307.935000	0.000000
308.116000	-0.000000
308.296000	-0.000000
308.477000	0.000000
308.657000	0.000000
308.838000	0.000000
309.018000	0.000000
309.199000	-0.000000
309.379000	-0.000000
309.560000	0.000000
309.740000	-0.000000
309.921000	0.000000
310.101000	0.000000
310.282000	-0.000000
310.462000	-0.000000
310.643000	-0.000000
310.823000	-0.000000
311.004000	-0.000000
311.184000	-0.000000
311.365000	0.000000
311.545000	0.000000
311.726000	0.000000
311.906000	0.000000
312.087000	0.000000
312.267000	-0.000000
312.448000	-0.000000
312.628000	-0.000000
312.809000	-0.000000
312.989000	-0.000000
313.170000	-0.000000
313.344000	-0.000000
313.518000	-0.000000
313.691000	-0.000000
313.865000	-0.000000
314.039000	-0.000000
314.213000	-0.000000
314.387000	-0.000000
314.560000	-0.000000
314.734000	-0.000000
314.908000	-0.000000
315.082000	-0.000000
315.255000	0.000000
315.429000	0.000000
315.603000	0.000000
315.777000	-0.000000
315.951000	0.000000
316.124000	-0.000000
316.298000	-0.000000
316.472000	-0.000000
316.646000	-0.000000
316.820000	-0.000000
316.993000	0.000000
317.167000	-0.000000
317.341000	-0.000000
317.515000	-0.000000
317.688000	-0.000000
317.862000	-0.000000
318.036000	-0.000000
318.210000	-0.000000
318.384000	-0.000000
318.557000	-0.000000
318.731000	-0.000000
318.905000	-0.000000
319.079000	0.000000
319.253000	-0.000000
319.426000	0.000000
319.600000	0.000000
319.774000	-0.000000
319.948000	-0.000000
320.122000	0.000000
320.295000	0.000000
320.469000	-0.000000
320.643000	-0.000000
320.817000	-0.000000
320.990000	-0.000000
321.164000	-0.000000
321.338000	-0.000000
321.512000	-0.000000
321.686000	-0.000000
321.859000	-0.000000
322.033000	-0.000000
322.207000	-0.000000
322.381000	-0.000000
322.555000	0.000000
322.728000	0.000000
322.902000	-0.000000
323.076000	-0.000000
323.250000	-0.000000
323.423000	-0.000000
323.597000	-0.000000
323.771000	-0.000000
323.945000	-0.000000
324.119000	-0.000000
324.292000	0.000000
324.466000	-0.000000
324.640000	0.000000
324.814000	0.000000
324.988000	-0.000000
325.161000	-0.000000
325.335000	-0.000000
325.509000	-0.000000
325.683000	-0.000000
325.856000	-0.000000
326.030000	-0.000000
326.204000	-0.000000
326.378000	0.000000
326.552000	-0.000000
326.725000	-0.000000
326.899000	-0.000000
327.073000	-0.000000
327.247000	-0.000000
327.421000	0.000000
327.594000	-0.000000
327.768000	-0.000000
327.942000	-0.000000
328.116000	0.000000
328.289000	0.000000
328.463000	-0.000000
328.637000	0.000000
328.811000	-0.000000
328.985000	-0.000000
329.158000	-0.000000
329.332000	-0.000000
329.506000	0.000000
329.680000	-0.000000
329.854000	-0.000000
330.027000	0.000000
330.201000	0.000000
330.375000	0.000000
330.549000	0.000000
330.723000	-0.000000
330.896000	-0.000000
331.070000	-0.000000
331.244000	-0.000000
331.418000	-0.000000
331.591000	-0.000000
331.765000	-0.000000
331.939000	-0.000000
332.113000	-0.000000
332.287000	-0.000000
332.460000	0.000000
332.634000	0.000000
332.808000	-0.000000
332.982000	-0.000000
333.156000	-0.000000
333.329000	-0.000000
333.503000	-0.000000
333.677000	-0.000000
333.851000	-0.000000
334.024000	-0.000000
334.198000	-0.000000
334.372000	-0.000000
334.546000	-0.000000
334.720000	-0.000000
334.893000	-0.000000
335.067000	-0.000000
335.241000	0.000000
335.415000	-0.000000
335.589000	-0.000000
335.762000	-0.000000
335.936000	-0.000000
336.110000	-0.000000
336.284000	-0.000000
336.458000	-0.000000
336.631000	-0.000000
336.805000	-0.000000
336.979000	-0.000000
337.153000	-0.000000
337.326000	-0.000000
337.500000	-0.000000
337.674000	-0.000000
337.848000	-0.000000
338.022000	-0.000000
338.195000	-0.000000
338.369000	-0.000000
338.543000	-0.000000
338.717000	-0.000000
338.891000	0.000000
339.064000	0.000000
339.238000	-0.000000
339.412000	-0.000000
339.586000	-0.000000
339.759000	-0.000000
339.933000	-0.000000
340.107000	0.000000
340.281000	-0.000000
340.455000	-0.000000
340.628000	-0.000000
340.802000	-0.000000
340.976000	-0.000000
341.150000	-0.000000
341.324000	-0.000000
341.497000	-0.000000
341.671000	-0.000000
341.845000	-0.000000
342.019000	-0.000000
342.192000	-0.000000
342.366000	-0.000000
342.540000	-0.000000
342.714000	-0.000000
342.888000	-0.000000
343.061000	-0.000000
343.235000	-0.000000
343.409000	-0.000000
343.583000	-0.000000
343.757000	-0.000000
343.930000	-0.000000
344.104000	-0.000000
344.278000	0.000000
344.452000	0.000000
344.626000	-0.000000
344.799000	-0.000000
344.973000	-0.000000
345.147000	-0.000000
345.321000	-0.000000
345.494000	-0.000000
345.668000	0.000000
345.842000	0.000000
346.016000	-0.000000
346.190000	0.000000
346.363000	0.000000
346.537000	-0.000000
346.711000	-0.000000
346.885000	-0.000000
347.059000	-0.000000
347.232000	0.000000
347.406000	0.000000
347.580000	-0.000000
347.754000	-0.000000
347.927000	-0.000000
348.101000	0.000000
348.275000	-0.000000
348.449000	-0.000000
348.623000	-0.000000
348.796000	0.000000
348.970000	0.000000
349.144000	-0.000000
349.318000	-0.000000
349.492000	-0.000000
349.665000	-0.000000
349.839000	-0.000000
350.013000	-0.000000
350.187000	-0.000000
350.361000	-0.000000
350.534000	-0.000000
350.708000	-0.000000
350.882000	-0.000000
351.056000	0.000000
351.229000	0.000000
351.403000	-0.000000
351.577000	-0.000000
351.751000	-0.000000
351.925000	-0.000000
352.098000	-0.000000
352.272000	-0.000000
352.446000	-0.000000
352.620000	-0.000000
352.794000	-0.000000
352.967000	-0.000000
353.141000	0.000000
353.315000	0.000000
353.489000	-0.000000
353.662000	-0.000000
353.836000	-0.000000
354.010000	-0.000000
354.184000	-0.000000
354.358000	-0.000000
354.531000	-0.000000
354.705000	-0.000000
354.879000	-0.000000
355.053000	-0.000000
355.227000	0.000000
355.400000	-0.000000
355.574000	0.000000
355.748000	0.000000
355.922000	-0.000000
356.095000	-0.000000
356.269000	-0.000000
356.443000	-0.000000
356.617000	-0.000000
356.791000	-0.000000
356.964000	-0.000000
357.138000	-0.000000
357.312000	-0.000000
357.486000	-0.000000
357.660000	-0.000000
357.833000	0.000000
358.007000	-0.000000
358.181000	-0.000000
358.355000	-0.000000
358.529000	-0.000000
358.702000	-0.000000
358.876000	-0.000000
359.050000	-0.000000
359.224000	-0.000000
359.397000	0.000000
359.571000	-0.000000
359.745000	-0.000000
359.919000	-0.000000
360.093000	-0.090133
360.266000	0.006679
360.440000	0.110080
360.614000	0.112587
360.788000	-0.031403
360.962000	-0.216010
361.135000	-0.048604
361.309000	-0.173209
361.483000	-0.330592
361.657000	-0.321985
361.830000	-0.273104
362.004000	-0.044543
362.178000	-0.368687
362.352000	-0.286101
362.526000	-0.099793
362.699000	-0.063400
362.873000	-0.386328
363.047000	-0.381800
363.221000	-0.364789
363.395000	-0.229495
363.568000	-0.212246
363.742000	-0.200993
363.916000	-0.205690
364.090000	-0.281870
364.263000	-0.253913
364.437000	-0.313195
364.611000	-0.048059
364.785000	-0.090307
364.959000	-0.252302
365.132000	-0.279745
365.306000	-0.297796
365.480000	-0.129789
365.656000	-0.193904
365.831000	-0.132256
366.007000	-0.157144
366.183000	-0.165410
366.358000	-0.238002
366.534000	-0.160586
366.710000	-0.396402
366.886000	-0.298716
367.061000	-0.067747
367.237000	0.032301
367.413000	-0.131626
367.588000	-0.372282
367.764000	-0.364755
367.940000	-0.342681
368.115000	-0.265790
368.291000	-0.306649
368.467000	-0.205606
368.643000	0.095650
368.818000	-0.239178
368.994000	-0.324168
369.170000	-0.289304
369.345000	-0.263615
369.521000	-0.286945
369.697000	-0.110631
369.872000	-0.252119
370.048000	-0.327343
370.224000	-0.288359
370.399000	-0.546471
370.575000	-0.419882
370.751000	-0.459855
370.927000	-0.422530
371.102000	-0.402593
371.278000	-0.391234
371.454000	-0.313638
371.629000	-0.024144
371.805000	-0.065868
371.981000	0.074160
372.156000	0.248422
372.332000	0.024180
372.508000	-0.014855
372.683000	-0.051682
372.859000	-0.161263
373.035000	-0.181783
373.211000	0.222939
373.386000	-0.038558
373.562000	-0.434282
373.738000	-0.466526
373.913000	-0.590542
374.089000	-0.475310
374.265000	-0.061944
374.440000	0.017990
374.616000	0.029762
374.792000	-0.244496
374.968000	0.127948
375.143000	-0.098221
375.319000	-0.357747
375.495000	-0.426985
375.670000	-0.273305
375.846000	-0.142940
376.022000	-0.238529
376.197000	-0.236565
376.373000	-0.411575
376.549000	-0.398731
376.724000	-0.475315
376.900000	-0.368324
377.076000	-0.213862
377.252000	0.079909
377.427000	0.173025
377.603000	-0.208994
377.779000	-0.254820
377.954000	-0.406379
378.130000	-0.200909
378.306000	-0.159746
378.481000	-0.174909
378.657000	-0.225729
378.833000	-0.310640
379.009000	-0.198929
379.184000	-0.039424
379.360000	-0.083997
379.536000	-0.096017
379.711000	-0.162073
379.887000	-0.257229
380.063000	-0.297140
380.238000	-0.321831
380.414000	-0.045842
380.590000	-0.345788
380.765000	-0.362814
380.941000	-0.108255
381.117000	-0.052004
381.293000	-0.198219
381.468000	-0.373604
381.644000	-0.274592
381.820000	-0.136748
381.995000	-0.034634
382.171000	0.161788
382.347000	0.159335
382.522000	-0.250005
382.698000	0.104053
382.874000	0.110586
383.050000	-0.337551
383.225000	0.023752
383.401000	0.210422
383.577000	-0.163919
383.752000	-0.278438
383.928000	-0.204704
384.104000	-0.155331
384.279000	-0.235001
384.455000	-0.157689
384.631000	-0.173402
384.806000	-0.381835
384.982000	-0.144818
385.158000	-0.222007
385.334000	-0.108646
385.509000	-0.184187
385.685000	-0.498896
385.861000	-0.299278
386.036000	-0.401357
386.212000	-0.600660
386.388000	-0.406749
386.563000	-0.322767
386.739000	-0.319541
386.915000	-0.583781
387.090000	-0.283731
387.266000	-0.063029
387.442000	0.010199
387.618000	-0.069072
387.793000	-0.318153
387.969000	-0.557481
388.145000	-0.447537
388.320000	-0.348994
388.496000	-0.369336
388.672000	-0.550325
388.847000	-0.119089
389.023000	-0.084604
389.199000	-0.395109
389.375000	-0.197358
389.550000	-0.304191
389.726000	-0.202873
389.902000	-0.419775
390.077000	-0.222067
390.253000	-0.127590
390.429000	-0.229428
390.604000	-0.158004
390.780000	-0.107273
390.956000	-0.296061
391.131000	-0.366466
391.307000	0.003443
391.483000	-0.149301
391.659000	-0.346201
391.834000	-0.166340
392.010000	-0.329224
392.186000	-0.338162
392.361000	-0.287219
392.537000	-0.423059
392.713000	0.083821
392.888000	0.283212
393.064000	-0.051910
393.240000	-0.278840
393.416000	-0.315088
393.591000	-0.387464
393.767000	-0.471803
393.943000	-0.329105
394.118000	-0.032226
394.294000	0.143455
394.470000	-0.032121
394.645000	0.030356
394.821000	0.256386
394.997000	-0.044474
395.172000	-0.081450
395.348000	-0.249387
395.524000	-0.556345
395.700000	-0.397043
395.875000	-0.132154
396.051000	-0.136080
396.227000	-0.196970
396.402000	-0.299722
396.578000	-0.274112
396.754000	-0.373521
396.929000	-0.291906
397.105000	-0.025381
397.281000	-0.099036
397.457000	-0.247684
397.632000	-0.269299
397.808000	-0.480268
397.984000	-0.626331
398.159000	-0.541706
398.335000	-0.324632
398.511000	0.171978
398.686000	-0.059703
398.862000	-0.357814
399.038000	-0.485646
399.213000	-0.211045
399.389000	-0.458655
399.565000	-0.137572
399.741000	0.085585
399.916000	0.029615
400.092000	0.209120
400.268000	-0.196989
400.443000	-0.333040
400.619000	0.090182
400.795000	0.011365
400.970000	-0.243114
401.146000	-0.296337
401.322000	-0.002834
401.497000	0.415831
401.673000	0.117098
401.849000	-0.241930
402.025000	-0.105724
402.200000	-0.224153
402.376000	-0.282381
402.552000	0.162778
402.727000	-0.000804
402.903000	-0.321746
403.079000	-0.311926
403.254000	0.005223
403.430000	-0.014767
403.606000	-0.126728
403.782000	-0.138547
403.957000	-0.369174
404.133000	-0.516653
404.309000	-0.315837
404.484000	-0.124764
404.660000	-0.115087
404.841000	-0.209451
405.023000	0.013169
405.204000	-0.046827
405.385000	-0.348591
405.566000	-0.351026
405.748000	-0.192914
405.929000	0.015445
406.110000	-0.067093
406.292000	-0.215576
406.473000	-0.136364
406.654000	-0.302224
406.835000	-0.132972
407.017000	-0.202297
407.198000	-0.190176
407.379000	-0.156207
407.560000	-0.148802
407.742000	-0.151945
407.923000	-0.122790
408.104000	-0.313280
408.286000	-0.169631
408.467000	-0.080048
408.648000	-0.332711
408.829000	-0.377093
409.011000	-0.205043
409.192000	-0.394962
409.373000	-0.197612
409.555000	-0.078343
409.736000	-0.071892
409.917000	-0.195069
410.098000	-0.176054
410.280000	-0.080938
410.461000	-0.121777
410.642000	-0.098540
410.823000	0.151665
411.005000	0.057925
411.186000	-0.141777
411.367000	-0.226177
411.549000	-0.243640
411.730000	-0.030153
411.911000	0.081314
412.092000	-0.121607
412.274000	-0.172913
412.455000	-0.064735
412.636000	-0.022115
412.818000	-0.236504
412.999000	-0.363487
413.180000	-0.265284
413.361000	-0.204258
413.543000	-0.253284
413.724000	-0.306469
413.905000	-0.306479
414.087000	-0.312900
414.268000	-0.290414
414.449000	-0.290957
414.630000	-0.372585
414.812000	-0.488504
414.993000	-0.124017
415.174000	0.031493
415.355000	-0.163020
415.537000	-0.382751
415.718000	-0.099686
415.899000	-0.201813
416.081000	-0.301096
416.262000	-0.089352
416.443000	-0.201947
416.624000	-0.156457
416.806000	-0.068417
416.987000	0.023796
417.168000	-0.075842
417.350000	-0.222219
417.531000	-0.232077
417.712000	-0.192884
417.893000	0.045872
418.075000	0.118153
418.256000	-0.151659
418.437000	-0.034420
418.618000	0.084994
418.800000	0.133246
418.981000	-0.106289
419.162000	-0.026493
419.344000	0.188151
419.525000	0.094212
419.706000	0.023486
419.887000	0.142492
420.069000	0.311444
420.250000	0.160882
420.431000	0.112307
420.613000	0.051392
420.794000	-0.168646
420.975000	0.213429
421.156000	0.034407
421.338000	-0.048796
421.519000	-0.045090
421.700000	-0.128628
421.882000	-0.063747
422.063000	0.143448
422.244000	0.652187
422.425000	0.412820
422.607000	0.053355
422.788000	0.053108
422.969000	-0.026555
423.150000	-0.067202
423.332000	-0.113030
423.513000	0.095293
423.694000	0.162626
423.876000	0.193597
424.057000	0.278778
424.238000	0.316986
424.419000	0.351451
424.601000	0.234024
424.782000	0.274737
424.963000	0.440436
425.145000	0.376855
425.326000	0.421313
425.507000	0.450137
425.688000	0.337747
425.870000	0.158961
426.051000	0.074879
426.232000	0.179991
426.413000	0.214440
426.595000	0.240996
426.776000	0.242730
426.957000	0.301202
427.139000	0.366332
427.320000	0.403154
427.501000	0.512603
427.682000	0.517501
427.864000	0.559754
428.045000	0.808130
428.226000	0.753304
428.408000	0.393592
428.589000	0.541945
428.770000	0.559195
428.951000	0.482608
429.133000	0.405757
429.314000	0.574168
429.495000	0.561278
429.677000	0.600009
429.858000	0.635602
430.039000	0.737619
430.220000	0.864819
430.402000	0.913518
430.583000	0.715080
430.764000	0.769050
430.945000	0.937660
431.127000	1.089594
431.308000	0.932142
431.489000	1.114327
431.671000	1.184861
431.852000	1.075006
432.033000	1.027794
432.214000	1.192928
432.396000	1.267696
432.577000	1.094338
432.758000	1.006200
432.940000	1.117897
433.121000	1.223914
433.302000	1.274190
433.483000	1.504816
433.665000	1.624977
433.846000	1.572221
434.027000	1.470747
434.208000	1.432934
434.390000	1.441821
434.571000	1.860424
434.752000	2.415403
434.934000	2.208311
435.115000	2.190648
435.296000	2.375321
435.477000	2.163967
435.659000	1.868627
435.840000	2.041913
436.026000	2.058733
436.211000	1.998502
436.397000	1.800170
436.582000	1.936765
436.768000	2.221966
436.953000	2.128140
437.139000	2.273367
437.325000	2.619042
437.510000	2.592648
437.696000	2.769166
437.881000	2.840798
438.067000	2.551453
438.252000	2.653048
438.438000	2.640868
438.624000	2.774962
438.809000	2.943250
438.995000	3.073084
439.180000	3.073824
439.366000	3.074024
439.551000	3.148083
439.737000	3.265500
439.923000	3.371650
440.108000	3.365519
440.294000	3.509070
440.479000	3.658349
440.665000	3.825386
440.850000	3.782506
441.036000	3.852855
441.222000	3.934500
441.407000	3.889352
441.593000	4.073749
441.778000	4.328063
441.964000	4.524769
442.149000	4.288523
442.335000	4.286778
442.521000	4.511272
442.706000	4.757418
442.892000	4.756994
443.077000	4.841992
443.263000	5.026557
443.448000	5.090332
443.634000	5.100458
443.820000	5.457014
444.005000	5.450227
444.191000	5.359296
444.376000	5.498879
444.562000	5.967824
444.747000	6.068397
444.933000	6.059116
445.119000	6.063860
445.304000	6.142338
445.490000	6.426976
445.675000	6.540976
445.861000	6.526259
446.046000	6.672338
446.232000	6.885704
446.418000	7.002790
446.603000	7.041992
446.789000	7.184552
446.974000	7.398520
447.160000	7.365519
447.345000	7.522209
447.531000	7.580685
447.717000	8.000648
447.902000	8.260060
448.088000	8.394946
448.273000	8.350212
448.459000	8.465854
448.644000	8.547924
448.830000	8.660847
449.016000	8.725023
449.201000	8.934469
449.387000	9.229242
449.572000	9.529300
449.758000	9.630650
449.943000	9.603218
450.129000	9.714835
450.315000	9.923365
450.500000	9.965096
450.686000	10.251846
450.871000	10.302789
451.057000	10.644948
451.243000	10.787133
451.428000	10.962644
451.614000	11.179179
451.799000	11.230742
451.985000	11.567159
452.170000	11.809152
452.356000	11.775559
452.542000	11.872986
452.727000	12.188283
452.913000	12.195833
453.098000	12.579189
453.284000	12.881940
453.469000	12.798203
453.655000	13.130457
453.841000	13.106694
454.026000	12.962026
454.212000	13.046137
454.397000	13.290990
454.583000	13.392720
454.768000	13.350965
454.954000	13.655460
455.140000	13.712844
455.325000	13.570211
455.511000	13.569316
455.696000	13.715093
455.882000	13.862647
456.067000	14.213582
456.253000	14.121460
456.439000	14.119364
456.624000	14.049725
456.810000	13.960214
456.995000	14.005302
457.181000	13.974489
457.366000	14.264840
457.552000	14.152906
457.738000	14.184346
457.923000	14.241370
458.109000	14.534144
458.294000	14.378863
458.480000	14.346064
458.665000	14.147672
458.851000	13.869758
459.037000	13.533758
459.222000	13.667977
459.408000	13.566869
459.593000	13.533024
459.779000	13.530247
459.964000	13.703023
460.150000	13.793648
460.336000	13.505582
460.521000	12.977079
460.707000	12.727600
460.892000	12.595690
461.078000	12.720695
461.263000	12.488474
461.449000	12.216961
461.635000	12.159180
461.820000	12.020391
462.006000	11.878914
462.191000	11.628804
462.377000	11.241723
462.562000	11.503301
462.748000	11.481469
462.934000	10.876371
463.119000	10.553493
463.305000	10.604865
463.490000	10.325342
463.676000	10.249660
463.861000	10.064800
464.047000	9.766083
464.233000	9.668592
464.418000	9.540907
464.604000	9.297635
464.789000	9.320372
464.975000	9.168324
465.160000	8.864867
465.346000	8.715632
465.532000	8.508800
465.717000	8.375322
465.903000	8.459861
466.088000	8.213609
466.274000	7.821286
466.459000	7.700013
466.645000	7.934392
466.831000	7.712160
467.016000	7.642600
467.202000	7.399611
467.387000	7.110842
467.573000	6.825252
467.758000	7.025408
467.944000	6.806055
468.130000	6.595542
468.315000	6.604785
468.501000	6.606735
468.686000	6.418373
468.872000	6.359814
469.057000	6.287499
469.243000	6.118104
469.429000	5.986344
469.614000	5.822552
469.800000	5.650709
469.985000	5.649983
470.171000	5.635889
470.356000	5.453014
470.542000	5.490859
470.728000	5.419907
470.913000	5.264218
471.099000	5.306771
471.284000	5.155855
471.470000	5.032204
471.655000	5.041430
471.841000	4.970618
472.027000	4.721702
472.212000	4.834886
472.398000	4.853568
472.583000	4.715374
472.769000	4.657991
472.954000	4.538255
473.140000	4.273826
473.326000	4.182589
473.511000	4.463700
473.697000	4.400319
473.882000	4.177957
474.068000	4.018233
474.253000	3.918228
474.439000	3.949751
474.625000	3.971989
474.810000	3.925694
474.996000	3.865326
475.181000	3.610493
475.367000	3.682821
475.552000	3.879804
475.738000	3.516359
475.924000	3.433057
476.109000	3.482171
476.295000	3.345087
476.480000	3.356961
476.666000	3.248066
476.851000	3.228114
477.037000	3.223863
477.223000	3.041344
477.408000	2.879303
477.594000	2.796628
477.779000	2.917629
477.965000	2.898965
478.151000	2.707167
478.336000	2.785651
478.522000	2.652658
478.707000	2.589218
478.893000	2.659276
479.078000	2.421912
479.264000	2.395737
479.450000	2.417863
479.635000	2.493493
479.821000	2.348245
480.006000	2.364798
480.192000	2.358331
480.377000	2.390295
480.563000	2.323054
480.749000	2.061978
480.934000	2.051310
481.120000	2.128091
481.305000	2.156022
481.491000	2.123946
481.676000	2.097667
481.862000	2.089774
482.048000	1.908174
482.233000	1.914348
482.419000	1.903177
482.604000	1.792281
482.790000	1.738718
482.975000	1.760095
483.161000	1.923752
483.347000	1.837748
483.532000	1.749556
483.718000	1.538142
483.903000	1.591149
484.089000	1.581675
484.274000	1.424444
484.460000	1.579534
484.646000	1.607858
484.831000	1.458075
485.017000	1.513971
485.202000	1.516711
485.388000	1.709276
485.573000	1.684911
485.759000	1.506729
485.945000	1.640396
486.130000	1.438572
486.316000	1.430708
486.501000	1.502496
486.687000	1.334072
486.872000	1.266740
487.058000	1.434150
487.244000	1.426634
487.429000	1.226983
487.615000	1.387836
487.800000	1.453242
487.986000	1.346152
488.171000	1.462216
488.357000	1.410020
488.543000	1.400731
488.728000	1.408112
488.914000	1.316163
489.099000	1.199014
489.285000	1.203695
489.470000	1.381563
489.656000	1.425429
489.842000	1.392431
490.027000	1.454084
490.213000	1.268193
490.398000	1.020551
490.584000	1.255930
490.769000	1.276525
490.955000	1.336011
491.141000	1.337166
491.326000	1.284782
491.512000	1.458572
491.697000	1.353618
491.883000	1.159669
492.068000	1.131245
492.254000	1.185045
492.440000	1.261971
492.625000	1.191683
492.811000	1.168947
492.996000	1.276958
493.182000	1.268842
493.367000	1.104707
493.553000	1.045471
493.739000	1.122267
493.924000	1.229062
494.110000	1.240003
494.295000	1.123312
494.481000	1.231028
494.666000	1.269616
494.852000	1.428960
495.038000	1.267670
495.223000	1.158011
495.409000	1.255857
495.594000	1.223015
495.780000	1.254661
495.965000	1.191563
496.151000	1.409777
496.337000	1.487409
496.522000	1.256392
496.708000	1.353258
496.893000	1.458857
497.079000	1.277715
497.264000	1.305905
497.450000	1.397005
497.636000	1.478283
497.821000	1.322819
498.007000	1.540984
498.192000	1.637492
498.378000	1.482698
498.563000	1.391191
498.749000	1.467339
498.935000	1.511757
499.120000	1.590497
499.306000	1.447686
499.491000	1.418549
499.677000	1.541531
499.862000	1.653946
500.048000	1.692884
500.234000	1.604749
500.419000	1.598342
500.605000	1.774609
500.790000	1.715312
500.976000	1.591211
501.161000	1.568088
501.347000	1.765596
501.533000	1.894962
501.718000	1.804399
501.904000	1.726979
502.089000	1.850165
502.275000	1.897487
502.460000	1.830594
502.646000	1.950117
502.832000	2.048616
503.017000	2.008611
503.203000	1.822554
503.388000	1.830958
503.574000	2.027046
503.759000	2.114865
503.945000	2.170778
504.131000	2.106394
504.316000	2.135939
504.502000	2.187703
504.687000	2.178756
504.873000	2.127513
505.058000	2.112452
505.244000	2.079669
505.430000	2.144213
505.615000	2.302059
505.801000	2.388653
505.986000	2.226508
506.172000	2.353006
506.358000	2.396134
506.543000	2.420447
506.729000	2.594547
506.914000	2.594843
507.100000	2.750203
507.285000	2.560551
507.471000	2.477627
507.657000	2.720231
507.842000	2.566065
508.028000	2.470162
508.213000	2.578287
508.399000	2.689885
508.584000	2.864368
508.770000	2.757227
508.956000	2.713075
509.141000	2.808656
509.327000	2.935832
509.512000	2.827766
509.698000	2.860630
509.883000	2.955925
510.069000	2.895493
510.255000	2.926888
510.440000	3.004499
510.626000	2.935835
510.811000	2.915376
510.997000	3.073763
511.182000	3.303038
511.368000	3.211983
511.554000	2.895447
511.739000	3.015646
511.925000	3.175377
512.110000	3.153193
512.296000	3.341161
512.481000	3.316504
512.667000	3.184021
512.853000	3.012733
513.038000	3.129843
513.224000	3.090674
513.409000	3.027022
513.595000	3.180830
513.780000	3.020708
513.966000	3.084918
514.152000	3.068799
514.337000	3.031518
514.523000	3.099208
514.708000	3.204294
514.894000	3.239374
515.079000	3.079533
515.265000	3.095641
515.451000	3.109356
515.636000	3.040834
515.822000	3.174502
516.007000	3.069978
516.193000	3.265755
516.378000	3.307304
516.564000	3.150595
516.750000	3.133729
516.935000	3.230676
517.121000	3.235585
517.306000	3.278646
517.492000	3.206010
517.677000	2.990699
517.863000	2.992639
518.049000	3.079391
518.234000	2.989932
518.420000	3.126602
518.605000	3.270891
518.791000	3.166863
518.976000	2.987713
519.162000	2.900419
519.348000	3.011988
519.533000	2.957756
519.719000	3.160384
519.904000	2.991853
520.090000	2.934540
520.275000	3.162429
520.461000	3.082589
520.647000	2.822350
520.832000	2.642031
521.018000	2.730993
521.203000	2.713751
521.389000	2.531974
521.574000	2.601030
521.760000	2.695969
521.946000	2.665224
522.131000	2.547834
522.317000	2.545293
522.502000	2.506698
522.688000	2.560613
522.873000	2.458712
523.059000	2.466018
523.245000	2.437290
523.430000	2.298356
523.616000	2.381235
523.801000	2.274270
523.987000	2.261596
524.172000	2.374449
524.358000	2.449496
524.544000	2.364605
524.729000	2.391713
524.915000	2.437873
525.100000	2.265497
525.286000	2.288387
525.471000	2.248661
525.657000	2.246779
525.843000	2.037608
526.028000	2.124672
526.214000	2.041086
526.399000	1.962550
526.585000	1.903831
526.770000	1.892348
526.956000	1.993015
527.142000	1.881216
527.327000	2.030261
527.513000	1.871577
527.698000	1.835450
527.884000	1.835031
528.069000	1.781713
528.255000	1.894793
528.441000	1.769126
528.626000	1.817333
528.812000	2.053792
528.997000	1.829538
529.183000	1.687486
529.368000	1.728293
529.554000	1.735744
529.740000	1.671449
529.925000	1.622789
530.111000	1.647677
530.296000	1.660230
530.482000	1.717922
530.667000	1.627294
530.853000	1.708120
531.039000	1.599634
531.224000	1.617020
531.410000	1.653142
531.595000	1.572581
531.781000	1.628543
531.967000	1.478387
532.152000	1.588024
532.338000	1.423705
532.523000	1.283857
532.709000	1.245380
532.894000	1.345867
533.080000	1.353310
533.266000	1.196777
533.451000	1.211769
533.637000	1.271612
533.822000	1.422302
534.008000	1.248277
534.193000	1.251386
534.379000	1.315424
534.565000	1.191967
534.750000	1.153303
534.936000	1.412512
535.121000	1.282998
535.307000	1.269710
535.492000	1.257773
535.678000	1.071496
535.864000	1.153756
536.049000	1.408417
536.235000	1.193330
536.420000	1.155898
536.606000	1.073176
536.791000	0.970565
536.977000	0.915154
537.163000	1.157418
537.348000	1.152836
537.534000	1.232420
537.719000	1.030836
537.905000	0.857335
538.090000	1.109903
538.276000	1.175092
538.462000	1.107476
538.647000	1.088608
538.833000	0.987221
539.018000	1.143494
539.204000	1.053229
539.389000	0.831241
539.575000	1.134396
539.761000	1.068335
539.946000	0.816011
540.132000	0.946647
540.317000	0.793906
540.503000	0.928912
540.688000	0.973085
540.874000	1.190968
541.060000	1.318084
541.245000	1.192650
541.431000	1.003401
541.616000	1.004382
541.802000	0.945133
541.987000	1.084355
542.173000	1.088496
542.359000	0.954359
542.544000	1.088194
542.730000	0.935330
542.915000	0.928635
543.101000	1.058176
543.286000	0.837745
543.472000	0.848394
543.658000	0.923134
543.843000	0.849288
544.029000	1.052019
544.214000	0.904085
544.400000	0.518710
544.585000	0.686071
544.771000	0.800105
544.957000	1.031401
545.142000	1.146210
545.328000	1.184240
545.513000	1.206758
545.699000	1.147064
545.884000	0.966002
546.070000	0.838352
546.261000	0.783650
546.451000	0.619744
546.642000	0.369943
546.833000	0.518738
547.023000	0.392996
547.214000	0.419059
547.405000	0.622262
547.595000	0.890685
547.786000	0.795736
547.977000	0.536110
548.167000	0.378973
548.358000	0.428321
548.549000	0.755286
548.740000	0.565794
548.930000	0.246233
549.121000	0.342952
549.312000	0.298003
549.502000	0.188585
549.693000	0.352540
549.884000	0.455003
550.074000	0.501181
550.265000	0.313934
550.456000	0.410118
550.646000	0.452082
550.837000	0.413186
551.028000	0.255361
551.218000	0.427315
551.409000	0.293713
551.600000	0.290034
551.790000	0.450970
551.981000	0.172804
552.172000	0.175103
552.362000	0.495054
552.553000	0.561106
552.744000	0.380171
552.934000	0.295106
553.125000	0.218044
553.316000	0.198275
553.506000	0.613608
553.697000	0.401651
553.888000	0.388953
554.079000	0.519278
554.269000	0.497774
554.460000	0.161793
554.651000	0.119762
554.841000	-0.047073
555.032000	0.067696
555.223000	0.148494
555.413000	0.242244
555.604000	0.247306
555.795000	0.209529
555.985000	0.291024
556.176000	0.146866
556.367000	-0.116092
556.557000	0.062095
556.748000	0.125245
556.939000	0.078361
557.129000	-0.004868
557.320000	0.202150
557.511000	0.153153
557.701000	0.108413
557.892000	0.165709
558.083000	0.358240
558.273000	0.260919
558.464000	0.056001
558.655000	0.027571
558.845000	0.120471
559.036000	0.197422
559.227000	0.140888
559.418000	0.295274
559.608000	0.333674
559.799000	-0.043328
559.990000	-0.069278
560.180000	0.059689
560.371000	-0.119964
560.562000	-0.103649
560.752000	0.061762
560.943000	-0.103792
561.134000	-0.274692
561.324000	-0.010862
561.515000	0.230083
561.706000	0.083614
561.896000	-0.173282
562.087000	-0.080934
562.278000	-0.128964
562.468000	-0.235332
562.659000	-0.132737
562.850000	0.203234
563.040000	0.279247
563.231000	-0.158951
563.422000	-0.012770
563.612000	-0.132635
563.803000	-0.072577
563.994000	-0.105963
564.185000	-0.171158
564.375000	0.024989
564.566000	0.040806
564.757000	-0.010727
564.947000	-0.121820
565.138000	0.013050
565.329000	-0.065909
565.519000	-0.276912
565.710000	-0.170580
565.901000	0.082188
566.091000	0.180838
566.282000	-0.006697
566.473000	0.024741
566.663000	0.012945
566.854000	-0.157063
567.045000	-0.033903
567.235000	0.010909
567.426000	0.028432
567.617000	0.051614
567.807000	-0.045424
567.998000	0.006974
568.189000	-0.087930
568.379000	-0.016228
568.570000	0.035883
568.761000	-0.021946
568.951000	-0.048820
569.142000	-0.133570
569.333000	-0.160512
569.524000	-0.261532
569.714000	-0.324777
569.905000	-0.391208
570.096000	0.008802
570.286000	0.090963
570.477000	0.210782
570.668000	0.039223
570.858000	0.008758
571.049000	-0.114593
571.240000	-0.217153
571.430000	0.025782
571.621000	-0.070648
571.812000	0.019942
572.002000	0.023746
572.193000	-0.162566
572.384000	-0.040248
572.574000	0.001129
572.765000	-0.089057
572.956000	-0.116872
573.146000	0.111796
573.337000	-0.047550
573.528000	-0.051205
573.718000	0.083129
573.909000	0.127681
574.100000	0.049332
574.290000	-0.117206
574.481000	-0.144612
574.672000	-0.122618
574.863000	0.048925
575.053000	-0.074166
575.244000	-0.030036
575.435000	-0.128810
575.625000	-0.148279
575.816000	-0.146276
576.007000	-0.082599
576.197000	-0.073618
576.388000	0.008350
576.579000	0.126293
576.769000	0.073585
576.960000	-0.212619
577.155000	-0.369158
577.350000	-0.116167
577.545000	0.062297
577.740000	-0.079704
577.935000	0.230379
578.130000	0.153466
578.326000	-0.172302
578.521000	0.090398
578.716000	0.129105
578.911000	-0.178345
579.106000	-0.030792
579.301000	0.057515
579.496000	-0.123814
579.691000	-0.355661
579.886000	-0.165449
580.081000	-0.033949
580.276000	-0.037357
580.471000	-0.154289
580.666000	-0.235911
580.861000	-0.249761
581.057000	-0.276066
581.252000	-0.114009
581.447000	-0.211157
581.642000	-0.230676
581.837000	-0.197307
582.032000	-0.129082
582.227000	0.114878
582.422000	0.080230
582.617000	-0.127512
582.812000	-0.246846
583.007000	-0.207416
583.202000	-0.259902
583.397000	0.001020
583.592000	0.219860
583.788000	-0.088610
583.983000	-0.004055
584.178000	0.083663
584.373000	-0.145298
584.568000	-0.170167
584.763000	-0.207287
584.958000	-0.277819
585.153000	-0.195529
585.348000	-0.198780
585.543000	-0.046049
585.738000	-0.082984
585.933000	-0.267835
586.128000	-0.044343
586.324000	-0.037723
586.519000	-0.015819
586.714000	0.048168
586.909000	0.132612
587.104000	0.202458
587.299000	0.002701
587.494000	-0.029330
587.689000	-0.053034
587.884000	-0.043029
588.079000	-0.148071
588.274000	-0.111003
588.469000	-0.098924
588.664000	-0.012551
588.859000	-0.015967
589.055000	-0.049996
589.250000	-0.068735
589.445000	-0.196573
589.640000	-0.145588
589.835000	0.100139
590.030000	0.175277
590.225000	0.171892
590.420000	-0.072548
590.615000	-0.183930
590.810000	-0.130694
591.005000	-0.119205
591.200000	-0.212046
591.395000	-0.236067
591.591000	-0.137898
591.786000	-0.046956
591.981000	-0.170847
592.176000	-0.098859
592.371000	-0.047209
592.566000	-0.114321
592.761000	0.075055
592.956000	0.045868
593.151000	0.063143
593.346000	-0.088922
593.541000	-0.007604
593.736000	-0.026697
593.931000	-0.186263
594.126000	-0.110117
594.322000	-0.066693
594.517000	-0.137873
594.712000	-0.278647
594.907000	-0.338928
595.102000	-0.178764
595.297000	-0.012910
595.492000	0.048254
595.687000	-0.153110
595.882000	-0.263608
596.077000	-0.141192
596.272000	-0.000702
596.467000	0.057256
596.662000	-0.086848
596.857000	-0.090724
597.053000	-0.032532
597.248000	-0.007776
597.443000	-0.018404
597.638000	-0.059248
597.833000	-0.265271
598.028000	-0.062776
598.223000	0.001066
598.418000	-0.089710
598.613000	-0.153769
598.808000	-0.027429
599.003000	-0.079166
599.198000	-0.254223
599.393000	-0.205958
599.589000	-0.108091
599.784000	-0.263969
599.979000	-0.192620
600.174000	0.008256
600.369000	-0.216310
600.564000	-0.115851
600.759000	0.112744
600.954000	0.182677
601.149000	0.033545
601.344000	-0.269718
601.539000	-0.091096
601.734000	-0.163180
601.929000	-0.369889
602.124000	-0.326731
602.320000	-0.116840
602.515000	0.137182
602.710000	0.072006
602.905000	-0.258893
603.100000	-0.291149
603.295000	-0.168028
603.490000	-0.104680
603.685000	-0.126586
603.880000	-0.104825
604.075000	-0.262543
604.270000	-0.235578
604.465000	-0.136400
604.660000	-0.351183
604.856000	-0.167578
605.051000	0.026820
605.246000	-0.066811
605.441000	-0.303809
605.636000	-0.359017
605.831000	-0.203215
606.026000	-0.262009
606.221000	-0.312115
606.416000	-0.166772
606.611000	-0.022899
606.806000	0.039852
607.001000	0.180303
607.196000	-0.096892
607.391000	-0.239605
607.587000	-0.028573
607.782000	-0.069484
607.977000	-0.262082
608.172000	0.114531
608.367000	0.118247
608.562000	-0.114385
608.757000	-0.159045
608.952000	-0.172482
609.147000	0.267724
609.342000	0.187846
609.537000	-0.081188
609.732000	-0.064453
609.927000	-0.118554
610.122000	-0.021354
610.318000	0.289870
610.513000	0.458856
610.708000	0.292214
610.903000	0.375265
611.098000	0.451431
611.293000	0.391247
611.488000	0.383760
611.683000	0.329676
611.878000	0.235339
612.073000	0.237295
612.268000	0.228097
612.463000	0.298744
612.658000	0.238089
612.854000	0.151208
613.049000	0.069556
613.244000	0.160870
613.439000	0.223707
613.634000	-0.103741
613.829000	0.079355
614.024000	-0.019886
614.219000	-0.084884
614.414000	0.234542
614.609000	-0.006514
614.804000	-0.173244
614.999000	-0.159683
615.194000	-0.085232
615.389000	-0.071879
615.585000	-0.264554
615.780000	-0.048947
615.975000	-0.103109
616.170000	-0.095455
616.365000	0.117215
616.560000	0.239303
616.755000	0.175945
616.950000	0.080822
617.145000	0.166460
617.340000	-0.043601
617.535000	-0.349192
617.730000	-0.111878
617.925000	-0.276050
618.120000	-0.323006
618.316000	0.085331
618.511000	-0.018414
618.706000	-0.270110
618.901000	-0.144220
619.096000	0.028796
619.291000	-0.061877
619.486000	-0.022536
619.681000	-0.331186
619.876000	-0.392348
620.071000	-0.254142
620.266000	-0.026587
620.461000	0.084675
620.656000	0.037039
620.852000	-0.008751
621.047000	-0.148333
621.242000	-0.274298
621.437000	0.055231
621.632000	0.161635
621.827000	-0.044961
622.022000	-0.328228
622.217000	-0.105542
622.412000	0.106060
622.607000	0.041577
622.802000	-0.166395
622.997000	-0.150764
623.192000	-0.079833
623.387000	-0.092010
623.583000	-0.370392
623.778000	0.060274
623.973000	0.068464
624.168000	0.035947
624.363000	0.046088
624.558000	0.056381
624.753000	-0.236495
624.948000	0.009445
625.143000	0.029998
625.338000	-0.048160
625.533000	-0.153173
625.728000	-0.023495
625.923000	0.160036
626.119000	-0.042169
626.314000	-0.288432
626.509000	-0.266489
626.704000	-0.186036
626.899000	-0.157038
627.094000	-0.259452
627.289000	-0.255867
627.484000	-0.197800
627.679000	-0.208463
627.874000	-0.154135
628.069000	0.150574
628.264000	0.032777
628.459000	-0.095613
628.654000	-0.129427
628.850000	-0.305453
629.045000	-0.187203
629.240000	-0.195869
629.435000	-0.232207
629.630000	-0.124191
629.825000	-0.119934
630.020000	-0.064900
630.215000	-0.271835
630.410000	-0.223642
630.605000	-0.210961
630.800000	-0.142334
630.995000	0.044257
631.190000	0.276878
631.385000	0.063768
631.581000	-0.087183
631.776000	-0.065645
631.971000	-0.284659
632.166000	-0.143957
632.361000	-0.293826
632.556000	-0.192102
632.751000	-0.000872
632.946000	-0.162254
633.141000	-0.265559
633.336000	-0.241875
633.531000	-0.121750
633.726000	-0.097455
633.921000	-0.295801
634.117000	-0.426598
634.312000	-0.499891
634.507000	-0.414227
634.702000	-0.304251
634.897000	-0.293598
635.092000	-0.140961
635.287000	-0.045448
635.482000	-0.197458
635.677000	-0.076864
635.872000	0.012514
636.067000	0.099896
636.262000	-0.079599
636.457000	-0.457741
636.652000	-0.465153
636.848000	-0.430207
637.043000	-0.316883
637.238000	-0.288295
637.433000	-0.437979
637.628000	-0.397200
637.823000	-0.102961
638.018000	-0.053170
638.213000	-0.230920
638.408000	-0.281282
638.603000	-0.304513
638.798000	-0.384966
638.993000	-0.342188
639.188000	-0.305646
639.383000	-0.338010
639.579000	0.040317
639.774000	-0.180095
639.969000	-0.366315
640.164000	-0.394793
640.359000	-0.406748
640.554000	-0.190246
640.749000	-0.190770
640.944000	-0.112297
641.139000	-0.128277
641.334000	-0.281602
641.529000	-0.647070
641.724000	-0.496604
641.919000	-0.325082
642.115000	-0.045350
642.310000	-0.042951
642.505000	-0.143274
642.700000	-0.183275
642.895000	-0.322176
643.090000	-0.195495
643.285000	0.050638
643.480000	-0.003290
643.675000	-0.036217
643.870000	0.295946
644.065000	0.119459
644.260000	-0.258208
644.455000	-0.187751
644.650000	-0.309112
644.846000	-0.164516
645.041000	-0.375336
645.236000	-0.552022
645.431000	-0.493347
645.626000	-0.635687
645.821000	-0.404932
646.016000	-0.282184
646.211000	0.077842
646.406000	-0.020095
646.601000	-0.091774
646.796000	-0.237511
646.991000	-0.493258
647.186000	-0.333878
647.381000	-0.118395
647.577000	-0.168886
647.772000	-0.060937
647.967000	-0.061056
648.162000	-0.140493
648.357000	-0.200906
648.552000	-0.034675
648.747000	-0.017829
648.942000	-0.010608
649.137000	-0.092862
649.332000	-0.298807
649.527000	-0.332567
649.722000	-0.063877
649.917000	0.035430
650.113000	-0.231229
650.308000	-0.326218
650.503000	-0.236284
650.698000	-0.069095
650.893000	-0.159226
651.088000	-0.025337
651.283000	-0.003418
651.478000	-0.323266
651.673000	-0.137566
651.868000	-0.304034
652.063000	0.003918
652.258000	0.067640
652.453000	0.236112
652.648000	-0.079302
652.844000	-0.167536
653.039000	-0.094214
653.234000	-0.469748
653.429000	-0.647610
653.624000	-0.418644
653.819000	-0.099474
654.014000	-0.161061
654.209000	-0.349142
654.404000	-0.190916
654.599000	-0.300210
654.794000	-0.316973
654.989000	-0.013370
655.184000	-0.075357
655.380000	-0.379948
655.575000	-0.404762
655.770000	-0.323553
655.965000	-0.174723
656.160000	-0.261726
656.355000	-0.127609
656.550000	-0.137962
656.745000	-0.068280
656.940000	-0.193037
657.135000	-0.195483
657.330000	-0.173113
657.525000	-0.382918
657.720000	-0.126029
657.915000	0.016489
658.111000	-0.158450
658.306000	0.111554
658.501000	-0.073704
658.696000	-0.384414
658.891000	-0.096273
659.086000	-0.214021
659.281000	-0.139065
659.476000	-0.330308
659.671000	-0.775170
659.866000	-0.539136
660.061000	-0.151986
660.256000	-0.053874
660.451000	-0.169828
660.646000	-0.354233
660.842000	-0.230871
661.037000	-0.392679
661.232000	-0.388181
661.427000	-0.205820
661.622000	-0.310059
661.817000	-0.434068
662.012000	-0.224433
662.207000	-0.394806
662.402000	-0.492585
662.597000	-0.289025
662.792000	-0.566314
662.987000	-0.570939
663.182000	-0.250887
663.378000	-0.248537
663.573000	-0.604705
663.768000	-0.590688
663.963000	-0.407340
664.158000	-0.427394
664.353000	0.157916
664.548000	0.319309
664.743000	-0.044641
664.938000	-0.372996
665.133000	-0.414690
665.328000	-0.047346
665.523000	-0.042282
665.718000	-0.284665
665.913000	-0.323828
666.109000	-0.205498
666.304000	0.009314
666.499000	-0.202716
666.694000	-0.037339
666.889000	0.278977
667.084000	-0.084287
667.279000	-0.209030
667.474000	-0.224756
667.669000	-0.209097
667.864000	-0.227571
668.059000	-0.238349
668.254000	-0.251707
668.449000	-0.322570
668.644000	-0.278386
668.840000	-0.029788
669.035000	-0.330752
669.230000	-0.610189
669.425000	-0.208613
669.620000	-0.384619
669.815000	-0.409742
670.010000	-0.359312
670.205000	-0.204061
670.400000	-0.177380
670.595000	-0.146242
670.790000	-0.241598
670.985000	-0.241851
671.180000	-0.072583
671.376000	-0.417327
671.571000	-0.497969
671.766000	-0.440527
671.961000	-0.464675
672.156000	-0.486595
672.351000	-0.355959
672.546000	-0.388796
672.741000	-0.241200
672.936000	-0.177396
673.131000	0.344504
673.326000	-0.001075
673.521000	-0.425884
673.716000	-0.509222
673.911000	-0.609134
674.107000	-0.092728
674.302000	0.125701
674.497000	-0.119904
674.692000	-0.441581
674.887000	-0.521725
675.082000	-0.386725
675.277000	-0.077236
675.472000	-0.229834
675.667000	-0.361097
675.862000	-0.434956
676.057000	-0.317834
676.252000	-0.233681
676.447000	-0.330259
676.643000	-0.135394
676.838000	0.075789
677.033000	-0.201839
677.228000	0.087112
677.423000	0.026481
677.618000	-0.449176
677.813000	-0.562248
678.008000	-0.245145
678.203000	-0.134362
678.398000	-0.412719
678.593000	-0.245935
678.788000	-0.090432
678.983000	-0.355152
679.178000	-0.254923
679.374000	-0.319536
679.569000	-0.255844
679.764000	-0.391361
679.959000	-0.580850
680.154000	-0.533117
680.349000	-0.732680
680.544000	-0.621690
680.739000	-0.415996
680.934000	-0.549193
681.129000	-0.570561
681.324000	-0.627994
681.519000	-0.322670
681.714000	-0.365480
681.909000	-0.433266
682.105000	-0.574183
682.300000	-0.175728
682.495000	-0.006865
682.690000	-0.021216
682.885000	-0.144616
683.080000	-0.380958
683.275000	-0.355240
683.470000	-0.001153
683.665000	0.163495
683.860000	0.389476
684.055000	0.094385
684.250000	-0.406888
684.445000	-0.432282
684.641000	0.024959
684.836000	-0.233722
685.031000	-0.257906
685.226000	-0.255333
685.421000	0.010547
685.616000	-0.276558
685.811000	-0.385879
686.006000	-0.101013
686.201000	-0.174655
686.396000	-0.553128
686.591000	-0.498046
686.786000	0.001777
686.981000	-0.190785
687.176000	-0.188279
687.372000	-0.289574
687.567000	-0.013087
687.762000	-0.084705
687.957000	-0.147333
688.152000	-0.329965
688.347000	-0.270676
688.542000	-0.535493
688.737000	-0.937299
688.932000	-0.953919
689.127000	-0.485750
689.322000	-0.134007
689.517000	-0.354259
689.712000	-0.567487
689.908000	-0.443779
690.103000	-0.432491
690.298000	-0.314095
690.493000	-0.351464
690.688000	-0.662935
690.883000	-0.478564
691.078000	0.014080
691.273000	0.056939
691.468000	-0.231266
691.663000	-0.253698
691.858000	-0.056661
692.053000	-0.152116
692.248000	-0.093705
692.443000	-0.062879
692.639000	-0.186557
692.834000	0.008051
693.029000	0.460291
693.224000	0.381558
693.419000	-0.231764
693.614000	-0.382011
693.809000	-0.579058
694.004000	-0.614571
694.199000	-0.573743
694.394000	-0.349683
694.589000	-0.538592
694.784000	-0.463647
694.979000	-0.196286
695.174000	-0.263008
695.370000	0.146708
695.565000	-0.073848
695.760000	-0.415634
695.955000	0.049464
696.150000	0.144633
696.345000	-0.402467
696.540000	-0.160759
696.740000	-0.269018
696.940000	-0.132060
697.140000	-0.055789
697.340000	-0.309622
697.539000	-0.075197
697.739000	-0.226324
697.939000	-0.232915
698.139000	-0.577741
698.339000	-0.903157
698.539000	-0.644189
698.739000	-0.688031
698.939000	-0.534871
699.138000	-0.574862
699.338000	0.122115
699.538000	0.243205
699.738000	-0.262882
699.938000	-0.433269
700.138000	-0.463504
700.338000	-0.533879
700.538000	-0.317696
700.737000	-0.228640
700.937000	-0.723960
701.137000	-0.790869
701.337000	-0.133598
701.537000	-0.041096
701.737000	-0.285983
701.937000	-0.339711
702.137000	-0.233563
702.337000	-0.446641
702.536000	-0.664003
702.736000	-0.644798
702.936000	-0.719206
703.136000	-0.178826
703.336000	-0.172089
703.536000	-0.357221
703.736000	-0.688102
703.936000	-0.676598
704.135000	-0.719911
704.335000	-0.297660
704.535000	-0.517938
704.735000	-0.707739
704.935000	-0.119393
705.135000	-0.170810
705.335000	-0.433214
705.535000	-0.185105
705.735000	-0.219093
705.934000	-0.218981
706.134000	-0.477567
706.334000	-0.471880
706.534000	-0.516947
706.734000	-0.541277
706.934000	-0.633505
707.134000	-0.582402
707.334000	-0.337032
707.533000	-0.289615
707.733000	-0.375129
707.933000	-0.502503
708.133000	-0.165927
708.333000	-0.039285
708.533000	-0.346626
708.733000	-0.046256
708.933000	-0.270870
709.132000	-0.389094
709.332000	-0.382817
709.532000	-0.480968
709.732000	-0.320640
709.932000	-0.742299
710.132000	-0.734882
710.332000	-0.932601
710.532000	-0.349179
710.732000	-0.133917
710.931000	-0.392276
711.131000	-0.463883
711.331000	-0.404632
711.531000	-0.507175
711.731000	-0.406339
711.931000	-0.368216
712.131000	-0.406525
712.331000	-0.212842
712.530000	-0.297053
712.730000	-0.597789
712.930000	-0.438843
713.130000	-0.408520
713.330000	-0.557891
713.530000	-0.374956
713.730000	0.276185
713.930000	-0.115278
714.129000	-0.584317
714.329000	-0.693162
714.529000	-0.343467
714.729000	-0.033561
714.929000	-0.176377
715.129000	-0.505689
715.329000	-0.380872
715.529000	-0.332112
715.729000	0.303505
715.928000	0.020141
716.128000	-0.382909
716.328000	-0.275762
716.528000	-0.348348
716.728000	-0.239999
716.928000	-0.511133
717.128000	-0.302148
717.328000	-0.323832
717.527000	-0.527319
717.727000	-0.440708
717.927000	-0.347437
718.127000	-0.453310
718.327000	-0.870298
718.527000	-0.760399
718.727000	-0.322848
718.927000	-0.392949
719.127000	-0.739834
719.326000	-0.458782
719.526000	-0.019792
719.726000	-0.203483
719.926000	-0.701946
720.126000	-0.713121
720.326000	-0.495497
720.526000	-0.525089
720.726000	-0.430513
720.925000	-0.234638
721.125000	-0.658975
721.325000	-0.402178
721.525000	-0.388276
721.725000	-0.578014
721.925000	-0.534882
722.125000	-0.598341
722.325000	-0.109659
722.524000	-0.386844
722.724000	-0.810610
722.924000	-0.877982
723.124000	-0.725310
723.324000	-0.260539
723.524000	-0.193139
723.724000	-0.791308
723.924000	-0.605423
724.124000	-0.390413
724.323000	-0.065783
724.523000	-0.186602
724.723000	0.134763
724.923000	-0.096180
725.123000	-0.160721
725.323000	-0.024303
725.523000	-0.279259
725.723000	-0.484199
725.922000	-0.488550
726.122000	-0.374824
726.322000	-0.540072
726.522000	-0.628534
726.722000	0.162681
726.922000	-0.135093
727.122000	-0.327037
727.322000	-0.016871
727.521000	-0.193726
727.721000	-0.498117
727.921000	-0.363404
728.121000	-0.382556
728.321000	-0.761123
728.521000	-0.569791
728.721000	-0.396512
728.921000	-0.005419
729.121000	0.676959
729.320000	0.079959
729.520000	-0.350919
729.720000	-0.619787
729.920000	-0.489908
730.120000	-0.414625
730.320000	-0.458611
730.520000	-0.583855
730.720000	-0.503368
730.919000	-0.526792
731.119000	-0.107593
731.319000	-0.579749
731.519000	-0.784167
731.719000	-0.403007
731.919000	-0.568607
732.119000	-1.042859
732.319000	-1.026350
732.519000	-0.488509
732.718000	-0.770589
732.918000	-0.719676
733.118000	-0.514655
733.318000	-0.105301
733.518000	-0.436397
733.718000	-1.012219
733.918000	-0.924878
734.118000	-0.596926
734.317000	-0.382722
734.517000	-0.674645
734.717000	-0.649717
734.917000	-0.086341
735.117000	-0.118744
735.317000	-0.284267
735.517000	0.204873
735.717000	0.445069
735.916000	-0.488999
736.116000	-0.634660
736.316000	-0.483423
736.516000	-0.381230
736.716000	-0.336502
736.916000	-0.866827
737.116000	-0.689752
737.316000	-0.092281
737.516000	-0.059441
737.715000	-0.199916
737.915000	-0.724817
738.115000	-0.727118
738.315000	-0.545120
738.515000	-0.789731
738.715000	-0.531526
738.915000	0.010862
739.115000	-0.520566
739.314000	-0.561904
739.514000	-0.085595
739.714000	0.048795
739.914000	-0.178875
740.114000	-0.407449
740.314000	-0.086288
740.514000	0.316026
740.714000	-0.473519
740.913000	-0.955229
741.113000	-0.717969
741.313000	-0.389682
741.513000	-0.442085
741.713000	-0.396116
741.913000	-0.264464
742.113000	-0.375879
742.313000	-0.949892
742.513000	-0.644493
742.712000	-0.477794
742.912000	-0.754976
743.112000	-0.688030
743.312000	-1.015486
743.512000	-0.572991
743.712000	-0.369221
743.912000	-1.105946
744.112000	-1.268881
744.311000	-1.228347
744.511000	-0.768114
744.711000	-0.319668
744.911000	-0.749023
745.111000	-0.736672
745.311000	-0.205814
745.511000	-0.539230
745.711000	-0.744251
745.911000	-0.415790
746.110000	-0.839104
746.310000	-1.117344
746.510000	-0.793058
746.710000	-0.190417
746.910000	-0.127657
747.110000	-0.704143
747.310000	-0.984999
747.510000	-0.744279
747.709000	-0.468497
747.909000	-0.456071
748.109000	-0.102097
748.309000	-0.412875
748.509000	-0.797769
748.709000	-0.874186
748.909000	-0.671961
749.109000	-0.642625
749.308000	-0.001846
749.508000	-0.381640
749.708000	-0.441998
749.908000	-0.034293
750.108000	0.030676
750.308000	-0.818088
750.508000	-0.226321
750.708000	-0.722225
750.908000	-1.103492
751.107000	-0.363949
751.307000	0.237649
751.507000	-0.327326
751.707000	-0.303357
751.907000	-0.341880
752.107000	-0.333561
752.307000	-0.824346
752.507000	-0.612014
752.706000	-0.673520
752.906000	0.265398
753.106000	-0.543175
753.306000	-1.217486
753.506000	-0.204270
753.706000	-0.639137
753.906000	-0.335068
754.106000	-0.156637
754.305000	-0.297221
754.505000	-0.157251
754.705000	-0.367946
754.905000	-0.392927
755.105000	-0.158578
755.305000	-0.908686
755.505000	-0.832658
755.705000	-0.410451
755.905000	-0.525220
756.104000	-1.128419
756.304000	-1.483171
756.504000	-1.560689
756.704000	-0.545885
756.904000	-0.286252
757.104000	-0.445206
757.304000	-0.565264
757.504000	-0.152461
757.703000	-0.433231
757.903000	-0.062326
758.103000	0.123901
758.303000	-0.284864
758.503000	-0.543886
758.703000	-0.717738
758.903000	-0.819622
759.103000	-0.424694
759.303000	-0.426732
759.502000	-0.597463
759.702000	-0.294513
759.902000	-0.636384
760.102000	-0.663755
760.302000	-0.665991
760.502000	-0.276151
760.702000	-0.224759
760.902000	-0.458775
761.101000	-0.814014
761.301000	-1.055276
761.501000	-0.815703
761.701000	-1.042059
761.901000	-0.695521
762.101000	-0.170567
762.301000	-0.423265
762.501000	-0.934689
762.700000	-0.859597
762.900000	-0.849314
763.100000	-0.643542
763.300000	-0.300198
763.500000	-0.486973
763.703000	-0.777403
763.905000	-1.057535
764.108000	-0.274953
764.311000	-0.612040
764.513000	-0.687770
764.716000	-0.464673
764.919000	-0.519148
765.121000	-0.858758
765.324000	-1.077485
765.527000	-1.001747
765.729000	-0.844180
765.932000	-0.083794
766.135000	-0.252397
766.337000	-0.524646
766.540000	-0.575512
766.743000	-0.359756
766.945000	-0.831180
767.148000	-1.185215
767.351000	-1.157541
767.553000	-0.311453
767.756000	-0.687694
767.958000	-1.151935
768.161000	-0.726946
768.364000	-1.051680
768.566000	-1.254316
768.769000	-0.621992
768.972000	-0.337191
769.174000	-0.735793
769.377000	-1.170306
769.580000	-1.347257
769.782000	-0.721960
769.985000	-0.932972
770.188000	-1.817233
770.390000	-0.848904
770.593000	0.559555
770.796000	0.048841
770.998000	-0.394369
771.201000	-0.781603
771.404000	-0.532058
771.606000	-0.825847
771.809000	-0.728384
772.012000	-0.643863
772.214000	-1.458430
772.417000	-1.447121
772.620000	-0.425249
772.822000	-0.762625
773.025000	-1.016250
773.228000	-0.948886
773.430000	-0.898435
773.633000	-0.668443
773.836000	-0.518547
774.038000	-0.340018
774.241000	-0.543649
774.444000	-0.918986
774.646000	0.015168
774.849000	-0.259607
775.052000	-0.335560
775.254000	-0.242505
775.457000	-0.780693
775.659000	-0.741499
775.862000	-1.046795
776.065000	-0.748774
776.267000	-0.125991
776.470000	0.257840
776.673000	-0.404780
776.875000	0.003561
777.078000	-0.109034
777.281000	-1.025483
777.483000	-0.264944
777.686000	-0.092067
777.889000	-0.319589
778.091000	-0.086478
778.294000	-1.045855
778.497000	-1.059209
778.699000	-0.927849
778.902000	-0.924988
779.105000	-0.677808
779.307000	0.245181
779.510000	-0.795289
779.713000	-0.506736
779.915000	-0.849788
780.118000	0.168416
780.321000	0.443550
780.523000	-0.522964
780.726000	-0.988777
780.929000	-1.110902
781.131000	-1.026752
781.334000	-1.498443
781.537000	-1.607586
781.739000	-0.533880
781.942000	-1.035228
782.145000	-1.593818
782.347000	-1.482863
782.550000	-1.017011
782.753000	-1.107776
782.955000	-1.073218
783.158000	-1.041297
783.361000	-0.742752
783.563000	-0.686405
783.766000	-0.788833
783.968000	1.005512
784.171000	0.826581
784.374000	-0.451939
784.576000	-0.666950
784.779000	-0.362644
784.982000	0.143606
785.184000	-0.647816
785.387000	-0.271295
785.590000	0.451490
785.792000	0.286301
785.995000	-0.066863
786.198000	-0.234402
786.400000	-0.629864
786.603000	-0.599047
786.806000	-0.726461
787.008000	-0.500200
787.211000	-0.378774
787.414000	-1.030875
787.616000	-0.799596
787.819000	-0.709808
788.022000	-1.386125
788.224000	-0.771693
788.427000	-1.390359
788.630000	-0.966239
788.832000	-0.615771
789.035000	-1.115049
789.238000	-1.688717
789.440000	-1.379339
789.643000	-0.082297
789.846000	-0.827975
790.048000	-0.429669
790.251000	-0.189527
790.454000	-0.575434
790.656000	0.184498
790.859000	-0.491793
791.062000	-0.969209
791.264000	-0.150224
791.467000	-1.066794
791.669000	-1.682116
791.872000	-0.788999
792.075000	-1.214631
792.277000	-1.031994
792.480000	-0.785692
792.683000	-1.204515
792.885000	-1.361998
793.088000	-1.326064
793.291000	-1.623432
793.493000	-1.434567
793.696000	-0.475635
793.899000	-0.270774
794.101000	-0.677815
794.304000	-0.831234
794.507000	-0.383045
794.709000	-0.238508
794.912000	-0.824213
795.115000	-1.265202
795.317000	-0.818599
795.520000	-0.542050
795.723000	-0.790336
795.925000	-1.206954
796.128000	-1.578137
796.331000	-1.117641
796.533000	-1.389059
796.736000	-0.706549
796.939000	-0.530111
797.141000	-0.902995
797.344000	-0.174479
797.547000	-0.138785
797.749000	-0.439878
797.952000	-0.982149
798.155000	-1.432645
798.357000	-1.715938
798.560000	-1.333107
798.763000	-0.380495
798.965000	-0.713842
799.168000	-0.686821
799.371000	-0.447246
799.573000	-1.040722
799.776000	-1.788859
799.978000	-1.648174
800.181000	-0.782983
800.384000	0.844630
800.586000	0.189122
800.789000	-1.398601
800.992000	-1.316480
801.194000	-1.578236
801.397000	-1.708367
801.600000	-1.446367
801.802000	-0.010432
802.005000	-0.354314
802.208000	-1.719659
802.410000	-0.781946
802.613000	-0.649984
802.816000	-0.846567
803.018000	-1.528483
803.221000	-1.372452
803.424000	0.163763
803.626000	-0.276399
803.829000	-0.802895
804.032000	0.126786
804.234000	0.875014
804.437000	-0.647204
804.640000	-0.799898
804.842000	-0.663499
805.045000	-1.230183
805.248000	-1.000525
805.450000	-0.976375
805.653000	-1.060299
805.856000	-1.121261
806.058000	-0.010904
806.261000	-1.057091
806.464000	-1.026889
806.666000	-0.480600
806.869000	-0.940576
807.072000	-2.208620
807.274000	-2.438643
807.477000	-1.093826
807.679000	-0.643869
807.882000	-1.263743
808.085000	-1.120613
808.287000	-0.594417
808.490000	-1.612166
808.693000	-1.308906
808.895000	-1.005638
809.098000	-1.014148
809.301000	-0.856537
809.503000	-1.110890
809.706000	-0.238998
809.909000	0.183690
810.111000	0.021162
810.314000	-0.533523
810.517000	-1.068455
810.719000	-1.377030
810.922000	-0.914791
811.125000	0.176993
811.327000	0.227451
811.530000	-0.599011
811.735000	-1.259000
811.940000	-1.402570
812.146000	-1.341956
812.351000	-0.760002
812.556000	-0.804151
812.761000	-1.476167
812.967000	-0.339538
813.172000	-0.146083
813.377000	-0.609720
813.582000	0.030446
813.788000	-0.488800
813.993000	-1.455925
814.198000	-0.530564
814.403000	-1.448044
814.609000	-0.704634
814.814000	-0.570372
815.019000	0.451005
815.224000	0.056561
815.429000	-1.081797
815.635000	-0.721732
815.840000	-0.800485
816.045000	-0.586564
816.250000	-0.151672
816.456000	-1.601388
816.661000	-2.485906
816.866000	-1.805672
817.071000	-1.760608
817.277000	-2.488174
817.482000	-1.341011
817.687000	-0.658572
817.892000	-0.831436
818.097000	-0.173232
818.303000	0.139298
818.508000	0.629184
818.713000	7.400914
818.918000	3.728170
819.124000	0.382210
819.329000	-0.985711
819.534000	-1.286870
819.739000	-1.350241
819.945000	-1.229485
820.150000	-1.053832
820.355000	-0.781389
820.560000	-0.268279
820.766000	-0.644054
820.971000	-0.721379
821.176000	-2.042109
821.381000	-2.661614
821.586000	-1.669085
821.792000	-0.356525
821.997000	-0.784342
822.202000	-0.840927
822.407000	-1.533935
822.613000	-1.761558
822.818000	-0.988073
823.023000	-0.613841
823.228000	-0.797290
823.434000	-0.286948
823.639000	0.005676
823.844000	-0.876344
824.049000	-0.193622
824.255000	0.043801
824.460000	-0.702175
824.665000	-1.115080
824.870000	-0.148028
825.075000	-0.523564
825.281000	-0.283808
825.486000	0.996307
825.691000	-1.618286
825.896000	-2.946679
826.102000	-0.832681
826.307000	-0.570808
826.512000	-1.200825
826.717000	-0.919142
826.923000	-0.961243
827.128000	-0.676521
827.333000	-1.556897
827.538000	-0.833322
827.744000	-0.164265
827.949000	-1.253644
828.154000	-0.796990
828.359000	-0.034111
828.564000	-0.730007
828.770000	-0.824148
828.975000	0.056827
829.180000	-0.514032
829.385000	-1.829015
829.591000	-1.427185
829.796000	-0.888988
830.001000	-1.065937
830.206000	-1.627739
830.412000	-1.357475
830.617000	-1.288264
830.822000	-0.274758
831.027000	-0.980279
831.232000	-1.581723
831.438000	-1.382473
831.643000	-1.077269
831.848000	-1.006088
832.053000	-1.115791
832.259000	-1.276163
832.464000	-2.672160
832.669000	-2.340456
832.874000	-1.868044
833.080000	-1.897697
833.285000	-0.379299
833.490000	-0.722680
833.695000	-1.893069
833.901000	-1.348949
834.106000	-1.622512
834.311000	-1.292605
834.516000	-0.627612
834.721000	-1.257908
834.927000	-0.125869
835.132000	-0.601815
835.337000	0.992702
835.542000	-0.294232
835.748000	-2.262526
835.953000	-0.305839
836.158000	-0.205884
836.363000	-0.644848
836.569000	-0.513990
836.774000	-1.444878
836.979000	-1.775932
837.184000	-2.064808
837.390000	-1.943139
837.595000	-1.056497
837.800000	-0.898480
838.005000	-0.846331
838.210000	-1.158154
838.416000	-1.359502
838.621000	-1.038045
838.826000	-1.466764
839.031000	-1.334330
839.237000	-1.849591
839.442000	-2.523420
839.647000	-2.625421
839.852000	-2.046603
840.058000	-1.828935
840.263000	-1.730787
840.468000	-2.518958
840.673000	-1.410949
840.878000	-1.078295
841.084000	-1.600684
841.289000	-1.135568
841.494000	1.485076
841.699000	1.514297
841.905000	0.531277
842.110000	0.668909
842.315000	-1.637773
842.520000	-0.912504
842.726000	-1.209744
842.931000	-1.994950
843.136000	-1.316490
843.341000	-2.847076
843.547000	-1.796305
843.752000	-1.362471
843.957000	-2.139546
844.162000	-2.187547
844.367000	-1.610733
844.573000	-0.932000
844.778000	-0.663594
844.983000	-0.716002
845.188000	-0.617592
845.394000	-2.258351
845.599000	-1.854648
845.804000	-1.616110
846.009000	-0.952491
846.215000	-1.817337
846.420000	-1.613089
846.625000	-0.870810
846.830000	-0.096699
847.036000	-1.370852
847.241000	-2.115106
847.446000	-0.387635
847.651000	-0.985081
847.856000	-2.196428
848.062000	-2.109144
848.267000	-0.139400
848.472000	-1.310064
848.677000	-2.595074
848.883000	-0.947552
849.088000	0.728737
849.293000	-0.524139
849.498000	-1.627667
849.704000	-0.798342
849.909000	-1.211582
850.114000	-2.335521
850.319000	-1.022016
850.524000	-0.903325
850.730000	-0.588964
850.935000	-1.121295
851.140000	-0.467040
851.345000	-0.229293
851.551000	-0.201936
851.756000	-0.386306
851.961000	-1.560645
852.166000	-1.702891
852.372000	-1.409521
852.577000	-1.476956
852.782000	-1.804787
852.987000	0.080367
853.193000	-0.481060
853.398000	-0.610870
853.603000	-1.839591
853.808000	-2.664038
854.013000	-1.605101
854.219000	-0.195176
854.424000	1.924240
854.629000	1.386284
854.834000	-1.215564
855.040000	-0.777957
855.245000	-0.257466
855.450000	-2.852910
855.655000	-4.126374
855.861000	-3.690192
856.066000	-2.712679
856.271000	-2.747169
856.476000	-0.595456
856.682000	-1.553539
856.887000	-4.250284
857.092000	-2.876924
857.297000	0.039652
857.502000	-0.388133
857.708000	-1.322836
857.913000	-0.527598
858.118000	-1.228996
858.323000	-1.030795
858.529000	-1.122201
858.734000	-1.684773
858.939000	-1.533860
859.144000	-2.102118
859.350000	-3.353851
859.555000	-3.176035
859.760000	-0.889848
859.965000	0.041009
860.171000	-1.859739
860.376000	-0.579021
860.581000	-1.984149
860.786000	-4.699311
860.991000	-4.124600
861.197000	-2.852020
861.402000	-1.393016
861.607000	-1.974700
861.812000	-2.955354
862.018000	-3.031750
862.223000	-2.124918
862.428000	-0.973652
862.633000	0.042637
862.839000	-0.914195
863.044000	-2.053336
863.249000	-3.076625
863.454000	-0.986693
863.659000	-2.006036
863.865000	-2.736013
864.070000	-2.306697
864.275000	-2.562800
864.480000	-2.523846
864.686000	-4.228733
864.891000	-3.587405
865.096000	-1.183107
865.301000	-0.485059
865.507000	-0.298932
865.712000	-0.384807
865.917000	-1.441928
866.122000	-0.683050
866.328000	-3.563636
866.533000	-3.561149
866.738000	-0.181425
866.943000	-0.566399
867.148000	0.116026
867.354000	-2.558435
867.559000	-4.118783
867.764000	-2.447017
867.969000	-0.937948
868.175000	-2.361929
868.380000	-3.068389
868.585000	-3.753544
868.790000	-1.554086
868.996000	-1.510039
869.201000	-3.075189
869.406000	-4.164125
869.611000	-3.622292
869.817000	-3.089386
870.022000	1.878224
870.227000	-0.135799
870.432000	-2.312573
870.637000	-0.893593
870.843000	-1.790142
871.048000	-2.385531
871.253000	-0.620894
871.458000	-1.539562
871.664000	-3.598854
871.869000	-3.506634
872.074000	-2.929100
872.279000	-1.884795
872.485000	-2.488542
872.690000	-2.365165
872.895000	-2.163236
873.100000	-2.820926
873.306000	-3.200580
873.511000	-2.034272
873.716000	-0.359317
873.921000	-2.228181
874.126000	-3.031560
874.332000	-1.840010
874.537000	-0.582055
874.742000	-1.034055
874.947000	-1.732057
875.153000	0.392069
875.358000	-1.070691
875.563000	-1.390207
875.768000	-4.031221
875.974000	-4.593147
876.179000	-1.404512
876.384000	-0.841922
876.589000	-2.675878
876.794000	-2.432397
877.000000	-3.503567
877.205000	-4.587470
877.410000	-1.659125
877.615000	-3.057187
877.821000	-4.892482
878.026000	-3.272963
878.231000	-3.958264
878.436000	-4.464688
878.642000	-3.593927
878.847000	-1.500452
879.052000	-0.281196
879.257000	-2.823708
879.463000	-3.251535
879.668000	-2.510422
879.873000	-0.710995
880.078000	-3.060073
880.283000	-4.700099
880.489000	-5.192705
880.694000	-4.612843
880.899000	-2.544930
881.104000	-1.554053
881.310000	0.774830
881.515000	-0.400014
881.720000	0.732217
881.925000	2.138911
882.131000	3.914278
882.336000	-0.008834
882.541000	-4.015479
882.746000	-3.364229
882.952000	-3.449688
883.157000	-2.808657
883.362000	-3.127020
883.567000	-4.176301
883.772000	-4.146872
883.978000	-3.514133
884.183000	-2.221855
884.388000	-2.375970
884.593000	-4.471541
884.799000	-0.489404
885.004000	-0.936973
885.209000	-2.051088
885.414000	-1.697216
885.620000	-4.550882
885.825000	-1.440287
886.030000	-1.765233
886.235000	-3.307175
886.440000	-2.693422
886.646000	-4.966261
886.851000	-5.350493
887.056000	-0.610286
887.261000	-1.187885
887.467000	-4.790195
887.672000	-2.075959
887.877000	-2.966122
888.082000	-5.189714
888.288000	-5.562132
888.493000	-7.778902
888.698000	-6.095193
888.903000	-2.167564
889.109000	-3.499529
889.314000	-0.802328
889.519000	-2.254753
889.724000	-0.034586
889.929000	-2.038032
890.135000	-2.489913
890.340000	-2.158705
890.545000	-3.756033
890.750000	-5.190966
890.956000	-3.801970
891.161000	-0.962911
891.366000	-2.826487
891.571000	-2.177773
891.777000	-2.053659
891.982000	-0.086198
892.187000	-1.232318
892.392000	-0.010160
892.598000	0.602875
892.803000	-0.551508
893.008000	-3.511734
893.213000	-3.964659
893.418000	-3.837450
893.624000	-4.688337
893.829000	-6.432354
894.034000	-3.345493
894.239000	-1.633845
894.445000	-3.641514
894.650000	-3.974922
894.855000	-4.400474
895.060000	-4.366887
895.266000	-3.576049
895.471000	-5.031622
895.676000	-1.787371
895.881000	-1.294561
896.087000	-2.980205
896.292000	-3.968939
896.497000	0.422113
896.702000	-1.843386
896.907000	-4.194505
897.113000	0.747722
897.318000	0.584878
897.523000	-0.363797
897.728000	-2.709005
897.934000	-3.243589
898.139000	-2.980127
898.344000	-0.093488
898.549000	-1.421377
898.755000	-3.666474
898.960000	-4.580743
899.165000	-6.311110
899.370000	-2.278683
899.575000	0.971052
899.781000	-3.754514
899.986000	-4.148757
900.191000	-2.135783
900.396000	-2.932312
900.602000	-2.664624
900.807000	-3.344265
901.012000	-2.267165
901.217000	-1.171184
901.423000	-3.680628
901.628000	-4.620535
901.833000	0.279662
902.038000	0.017615
902.244000	-4.022698
902.449000	-3.427943
902.654000	-3.880713
902.859000	-2.387108
903.064000	-0.071599
903.270000	-0.670656
903.475000	-5.045763
903.680000	-7.435205
903.885000	-6.408319
904.091000	-5.561833
904.296000	-6.710473
904.501000	-6.034046
904.706000	-4.826824
904.912000	-0.322369
905.117000	-2.315842
905.322000	-5.378464
905.527000	-4.447733
905.733000	-3.325489
905.938000	-4.069656
906.143000	-5.264373
906.348000	-6.383475
906.553000	-1.488612
906.759000	-0.397570
906.964000	-2.590589
907.169000	-3.706875
907.374000	-6.252691
907.580000	-4.238330
907.785000	-4.278304
907.990000	24.819407
908.195000	16.243525
908.401000	-1.584057
908.606000	-8.918121
908.811000	-10.319164
909.016000	-3.064160
909.221000	-2.569399
909.427000	-3.632521
909.632000	-5.506858
909.837000	-4.892450
910.042000	-6.181517
910.248000	-8.151358
910.453000	-4.015277
910.658000	-5.272974
910.863000	-5.617709
911.069000	-6.727853
911.274000	-2.244923
911.479000	-0.228011
911.684000	-7.774000
911.890000	-4.352603
912.095000	-3.891300
912.300000	-6.702876
912.506000	-6.055297
912.711000	-6.020883
912.917000	-3.533645
913.123000	-2.803026
913.328000	-3.041838
913.534000	-2.957979
913.740000	6.700261
913.946000	2.963466
914.151000	-4.257821
914.357000	-6.951489
914.563000	-2.467953
914.768000	-6.480755
914.974000	-8.048313
915.180000	-6.651859
915.385000	-5.236826
915.591000	-7.956437
915.797000	-3.723062
916.002000	0.698724
916.208000	-2.861363
916.414000	-6.648617
916.620000	-7.984192
916.825000	-4.113050
917.031000	-4.317169
917.237000	-10.185714
917.442000	-6.624491
917.648000	-6.717592
917.854000	-8.068935
918.059000	-1.919416
918.265000	-1.008084
918.471000	-4.335120
918.676000	-7.906709
918.882000	-9.479698
919.088000	-7.380954
919.294000	-12.427658
919.499000	-8.605767
919.705000	-1.873871
919.911000	-3.169036
920.116000	-1.020404
920.322000	-8.206685
920.528000	-7.854354
920.733000	-9.838924
920.939000	-10.058800
921.145000	-9.096822
921.350000	-7.310982
921.556000	-4.859272
921.762000	-5.257070
921.968000	-5.272072
922.173000	-7.422998
922.379000	-10.413436
922.585000	-5.906929
922.790000	-7.789991
922.996000	-8.322459
923.202000	-8.757289
923.407000	-8.764057
923.613000	-6.755089
923.819000	-4.946240
924.024000	-4.579680
924.230000	-2.483027
924.436000	-5.658614
924.642000	4.262295
924.847000	-0.467451
925.053000	-6.875274
925.259000	-10.118029
925.464000	-3.625008
925.670000	-5.323045
925.876000	-7.052697
926.081000	-8.056940
926.287000	-4.811974
926.493000	-2.718167
926.698000	-5.528538
926.904000	-3.067493
927.110000	-6.514653
927.316000	-6.959494
927.521000	0.084323
927.727000	-5.049862
927.933000	-6.791009
928.138000	-6.335074
928.344000	-12.194925
928.550000	-7.019441
928.755000	0.033178
928.961000	-6.258165
929.167000	-7.517823
929.372000	0.981083
929.578000	-0.978865
929.784000	-7.106214
929.990000	-10.611585
930.195000	-7.557360
930.401000	-6.406012
930.607000	-5.095660
930.812000	-5.552910
931.018000	-8.556785
931.224000	-13.409896
931.429000	-10.376436
931.635000	-13.559926
931.841000	-13.212991
932.046000	-8.262413
932.252000	-4.135605
932.458000	2.965016
932.664000	-1.998927
932.869000	-7.374119
933.075000	-10.098094
933.281000	-9.611159
933.486000	-2.070281
933.692000	-5.224706
933.898000	-9.264866
934.103000	-2.550358
934.309000	-7.296321
934.515000	-4.997922
934.720000	-1.038071
934.926000	0.312674
935.132000	-1.115647
935.338000	-3.740777
935.543000	-11.188028
935.749000	-13.475523
935.955000	-16.154497
936.160000	-13.479719
936.366000	-2.909187
936.572000	-2.819661
936.777000	-1.079015
936.983000	-0.555796
937.189000	-4.950550
937.394000	-11.385179
937.600000	-2.034799
937.806000	3.695527
938.012000	-6.577177
938.217000	2.748985
938.423000	-0.992213
938.629000	-7.474685
938.834000	-14.862977
939.040000	-14.937646
939.246000	-9.067288
939.451000	-13.838927
939.657000	-8.012538
939.863000	-12.554996
940.068000	-5.710581
940.274000	-9.559623
940.480000	-5.475147
940.686000	-4.503013
940.891000	-7.831713
941.097000	18.158275
941.303000	4.664551
941.508000	-8.947226
941.714000	-5.796132
941.920000	-17.356929
942.125000	-7.112125
942.331000	-5.742378
942.537000	0.710245
942.742000	-1.453802
942.948000	-12.595149
943.154000	-13.617108
943.360000	-24.743902
943.565000	-8.223876
943.771000	3.363620
943.977000	3.726836
944.182000	-16.327585
944.388000	-17.076084
944.594000	-1.216412
944.799000	6.401397
945.005000	-4.326055
945.211000	0.644970
945.416000	-2.818145
945.622000	-16.653341
945.828000	-13.916905
946.034000	-3.209072
946.239000	-1.171581
946.445000	-7.022209
946.651000	-19.678558
946.856000	-18.214270
947.062000	-3.586901
947.268000	-2.795768
947.473000	-18.686859
947.679000	-20.140593
947.885000	-5.624615
948.090000	-2.434272
948.296000	10.324941
948.502000	-2.648330
948.708000	-13.083810
948.913000	-13.132790
949.119000	-3.659662
949.325000	-9.303994
949.530000	-22.945008
949.736000	-26.899938
949.942000	-15.586132
950.147000	-16.658158
950.353000	-17.889611
950.559000	-14.096973
950.764000	10.196751
950.970000	5.111660
951.176000	-9.168704
951.382000	-16.048060
951.587000	-5.182209
951.793000	1.753811
951.999000	-0.820108
952.204000	-14.257187
952.410000	-26.108601
952.616000	-12.809610
952.821000	-6.800812
953.027000	-15.245205
953.233000	-19.698320
953.438000	-19.157662
953.644000	-2.660929
953.850000	-7.555712
954.056000	-11.430492
954.261000	-11.732947
954.467000	-0.742276
954.673000	6.782248
954.878000	-6.898461
955.084000	-5.046517
955.290000	-19.893864
955.495000	-24.752671
955.701000	-21.533631
955.907000	-1.831303
956.112000	-0.404355
956.318000	8.321652
956.524000	4.244528
956.730000	-11.674394
956.935000	-14.017641
957.141000	-18.265609
957.347000	-5.802758
957.552000	-9.710069
957.758000	-24.524362
957.964000	-34.539523
958.169000	-0.049688
958.375000	2.193037
958.581000	-14.324373
958.786000	-27.244308
958.992000	-33.269049
959.198000	-11.827990
959.404000	-3.750091
959.609000	-13.813209
959.815000	-20.781595
960.021000	-2.779613
960.226000	-7.914719
960.432000	-32.330988
960.638000	-21.674228
960.843000	-13.999710
961.049000	-14.833100
961.255000	-4.219646
961.460000	-19.003302
961.666000	-37.706803
961.872000	-21.424459
962.078000	-16.498504
962.283000	-26.478746
962.489000	-30.123076
962.695000	-18.706171
962.900000	-14.802624
963.106000	-14.681531
963.312000	-16.581754
963.517000	-23.007727
963.723000	-26.328341
963.929000	-2.513478
964.134000	7.583343
964.340000	-18.864280
964.546000	-21.860557
964.752000	-25.787075
964.957000	-32.571339
965.163000	-8.027189
965.369000	-8.437145
965.574000	-6.370153
965.780000	-8.223432
966.000000	-17.015105
966.220000	-15.101310
966.440000	-15.025353
966.661000	-2.258025
966.881000	-23.341723
967.101000	-41.397425
967.321000	-41.184556
967.541000	-19.027243
967.761000	-24.567180
967.981000	-16.817970
968.202000	-14.081821
968.422000	-1.556214
968.642000	-2.211608
968.862000	-5.459231
969.082000	-16.362123
969.302000	-6.729889
969.522000	-11.610072
969.743000	-1.576760
969.963000	-18.583992
970.183000	-33.295375
970.403000	-32.639878
970.623000	-28.133964
970.843000	-4.321553
971.063000	-2.050248
971.284000	-22.870675
971.504000	-36.075453
971.724000	-12.939752
971.944000	-29.827074
972.164000	-37.303982
972.384000	-26.339267
972.604000	-42.288091
972.825000	-49.332562
973.045000	-34.133006
973.265000	22.064970
973.485000	8.864957
973.705000	-8.875562
973.925000	-16.154188
974.145000	-48.163898
974.365000	-13.496150
974.586000	-15.619708
974.806000	-35.112724
975.026000	-5.624223
975.246000	-20.768028
975.466000	-33.698457
975.686000	-17.038121
975.906000	-25.030351
976.127000	-49.926926
976.347000	-42.298490
976.567000	-4.780567
976.787000	-9.076859
977.007000	-25.075193
977.227000	-27.003593
977.447000	-28.692781
977.668000	-49.906979
977.888000	-38.250251
978.108000	-39.622227
978.328000	-26.829791
978.548000	1.271354
978.768000	6.845278
978.988000	-7.344503
979.209000	-27.513023
979.429000	-27.187579
979.649000	-11.917534
979.869000	-33.499966
980.089000	-48.678865
980.309000	-54.323321
980.529000	-60.113829
980.750000	-36.982218
980.970000	-45.591376
981.190000	-34.794651
981.410000	-37.657697
981.630000	-45.808738
981.850000	-30.476167
982.070000	-18.887674
982.291000	-54.093275
982.511000	-58.881036
982.731000	-13.950425
982.951000	-27.657966
983.171000	-32.934843
983.391000	-26.439249
983.611000	0.449321
983.832000	-29.955799
984.052000	-58.293300
984.272000	-35.855993
984.492000	-22.252932
984.712000	-37.312275
984.932000	-61.145015
985.152000	-60.458154
985.373000	-45.653299
985.593000	-22.267131
985.813000	-37.257375
986.033000	-49.394612
986.253000	-7.165766
986.473000	-0.730063
986.693000	-37.084509
986.914000	-42.091294
987.134000	11.013872
987.354000	-31.480394
987.574000	191.882857
987.794000	108.858905
988.014000	-50.275698
988.234000	-35.199662
988.455000	-19.617586
988.675000	-15.089346
988.895000	-22.981558
989.115000	-43.397040
989.335000	-24.797565
989.555000	-8.829997
989.775000	-49.190686
989.995000	-44.529905
990.216000	-36.575775
990.436000	-30.914425
990.656000	5.723829
990.876000	-34.324999
991.096000	-29.499699
991.316000	-4.031047
991.536000	-18.923801
991.757000	-33.865158
991.977000	-77.051262
992.197000	-15.488396
992.417000	-38.335095
992.637000	-92.432379
992.857000	-88.542033
993.077000	-82.044787
993.298000	-40.288266
993.518000	-30.019743
993.738000	-88.267156
993.958000	-47.020906
994.178000	-62.558337
994.398000	-52.932357
994.618000	-98.167614
994.839000	-143.375858
995.059000	-43.364162
995.279000	27.836066
995.499000	-22.482637
995.719000	-19.753042
995.939000	-47.527626
996.159000	-54.842315
996.380000	-39.789873
996.600000	-85.508304
996.820000	-43.181628
997.040000	6.037017
997.260000	-59.195353
997.480000	-39.222680
997.700000	-109.889920
997.921000	-80.779471
998.141000	16.070423
998.361000	-15.593377
998.581000	-63.891870
998.801000	-88.436837
999.021000	-56.316768
999.241000	-29.471330
999.462000	-62.850520
999.682000	-115.705311
999.902000	-83.463792
1000.122000	-97.116061
1000.342000	-147.888608
1000.562000	-85.523252
1000.782000	-77.935665
1001.003000	-1063.753797
