Wavelength	Irradiance
(nm)	(mW/cm2/nm)

294.396000	0.000000
294.577000	0.000000
294.757000	-0.000000
294.938000	-0.000000
295.118000	0.000000
295.299000	0.000000
295.479000	-0.000000
295.660000	-0.000000
295.840000	-0.000000
296.021000	-0.000000
296.202000	-0.000000
296.382000	-0.000000
296.563000	-0.000000
296.743000	-0.000000
296.924000	-0.000000
297.104000	-0.000000
297.285000	-0.000000
297.465000	-0.000000
297.646000	-0.000000
297.826000	-0.000000
298.007000	0.000000
298.187000	-0.000000
298.368000	-0.000000
298.548000	0.000000
298.729000	0.000000
298.909000	-0.000000
299.090000	-0.000000
299.270000	-0.000000
299.451000	-0.000000
299.631000	-0.000000
299.812000	-0.000000
299.992000	0.000000
300.173000	0.000000
300.353000	-0.000000
300.534000	0.000000
300.714000	0.000000
300.895000	-0.000000
301.075000	-0.000000
301.256000	0.000000
301.436000	-0.000000
301.617000	-0.000000
301.797000	-0.000000
301.978000	0.000000
302.159000	0.000000
302.339000	0.000000
302.520000	-0.000000
302.700000	-0.000000
302.881000	0.000000
303.061000	0.000000
303.242000	0.000000
303.422000	0.000000
303.603000	0.000000
303.783000	-0.000000
303.964000	-0.000000
304.144000	-0.000000
304.325000	-0.000000
304.505000	-0.000000
304.686000	-0.000000
304.866000	-0.000000
305.047000	-0.000000
305.227000	-0.000000
305.408000	-0.000000
305.588000	-0.000000
305.769000	-0.000000
305.949000	-0.000000
306.130000	-0.000000
306.310000	-0.000000
306.491000	-0.000000
306.671000	0.000000
306.852000	-0.000000
307.032000	-0.000000
307.213000	-0.000000
307.393000	-0.000000
307.574000	0.000000
307.755000	0.000000
307.935000	-0.000000
308.116000	-0.000000
308.296000	-0.000000
308.477000	0.000000
308.657000	0.000000
308.838000	0.000000
309.018000	0.000000
309.199000	-0.000000
309.379000	-0.000000
309.560000	0.000000
309.740000	-0.000000
309.921000	-0.000000
310.101000	-0.000000
310.282000	-0.000000
310.462000	-0.000000
310.643000	-0.000000
310.823000	-0.000000
311.004000	-0.000000
311.184000	-0.000000
311.365000	0.000000
311.545000	0.000000
311.726000	-0.000000
311.906000	-0.000000
312.087000	0.000000
312.267000	-0.000000
312.448000	-0.000000
312.628000	-0.000000
312.809000	-0.000000
312.989000	-0.000000
313.170000	-0.000000
313.344000	-0.000000
313.518000	-0.000000
313.691000	-0.000000
313.865000	-0.000000
314.039000	-0.000000
314.213000	-0.000000
314.387000	-0.000000
314.560000	-0.000000
314.734000	-0.000000
314.908000	-0.000000
315.082000	-0.000000
315.255000	0.000000
315.429000	0.000000
315.603000	-0.000000
315.777000	-0.000000
315.951000	0.000000
316.124000	-0.000000
316.298000	-0.000000
316.472000	-0.000000
316.646000	-0.000000
316.820000	-0.000000
316.993000	0.000000
317.167000	-0.000000
317.341000	-0.000000
317.515000	-0.000000
317.688000	-0.000000
317.862000	-0.000000
318.036000	-0.000000
318.210000	-0.000000
318.384000	-0.000000
318.557000	-0.000000
318.731000	-0.000000
318.905000	0.000000
319.079000	-0.000000
319.253000	-0.000000
319.426000	0.000000
319.600000	0.000000
319.774000	-0.000000
319.948000	-0.000000
320.122000	0.000000
320.295000	-0.000000
320.469000	-0.000000
320.643000	-0.000000
320.817000	-0.000000
320.990000	-0.000000
321.164000	-0.000000
321.338000	-0.000000
321.512000	-0.000000
321.686000	-0.000000
321.859000	-0.000000
322.033000	-0.000000
322.207000	-0.000000
322.381000	-0.000000
322.555000	0.000000
322.728000	-0.000000
322.902000	-0.000000
323.076000	-0.000000
323.250000	-0.000000
323.423000	-0.000000
323.597000	-0.000000
323.771000	-0.000000
323.945000	-0.000000
324.119000	-0.000000
324.292000	0.000000
324.466000	-0.000000
324.640000	0.000000
324.814000	0.000000
324.988000	-0.000000
325.161000	-0.000000
325.335000	-0.000000
325.509000	-0.000000
325.683000	-0.000000
325.856000	-0.000000
326.030000	-0.000000
326.204000	-0.000000
326.378000	-0.000000
326.552000	-0.000000
326.725000	-0.000000
326.899000	-0.000000
327.073000	-0.000000
327.247000	-0.000000
327.421000	0.000000
327.594000	-0.000000
327.768000	-0.000000
327.942000	-0.000000
328.116000	0.000000
328.289000	-0.000000
328.463000	0.000000
328.637000	0.000000
328.811000	-0.000000
328.985000	-0.000000
329.158000	-0.000000
329.332000	-0.000000
329.506000	0.000000
329.680000	-0.000000
329.854000	-0.000000
330.027000	0.000000
330.201000	0.000000
330.375000	0.000000
330.549000	0.000000
330.723000	-0.000000
330.896000	-0.000000
331.070000	-0.000000
331.244000	-0.000000
331.418000	-0.000000
331.591000	-0.000000
331.765000	-0.000000
331.939000	-0.000000
332.113000	-0.000000
332.287000	-0.000000
332.460000	0.000000
332.634000	0.000000
332.808000	-0.000000
332.982000	-0.000000
333.156000	-0.000000
333.329000	0.000000
333.503000	-0.000000
333.677000	-0.000000
333.851000	-0.000000
334.024000	-0.000000
334.198000	-0.000000
334.372000	-0.000000
334.546000	-0.000000
334.720000	-0.000000
334.893000	-0.000000
335.067000	-0.000000
335.241000	-0.000000
335.415000	-0.000000
335.589000	-0.000000
335.762000	-0.000000
335.936000	-0.000000
336.110000	-0.000000
336.284000	-0.000000
336.458000	-0.000000
336.631000	-0.000000
336.805000	-0.000000
336.979000	-0.000000
337.153000	-0.000000
337.326000	-0.000000
337.500000	-0.000000
337.674000	-0.000000
337.848000	-0.000000
338.022000	0.000000
338.195000	-0.000000
338.369000	-0.000000
338.543000	-0.000000
338.717000	-0.000000
338.891000	0.000000
339.064000	0.000000
339.238000	-0.000000
339.412000	-0.000000
339.586000	-0.000000
339.759000	-0.000000
339.933000	-0.000000
340.107000	0.000000
340.281000	-0.000000
340.455000	-0.000000
340.628000	-0.000000
340.802000	-0.000000
340.976000	0.000000
341.150000	-0.000000
341.324000	-0.000000
341.497000	-0.000000
341.671000	-0.000000
341.845000	-0.000000
342.019000	-0.000000
342.192000	-0.000000
342.366000	-0.000000
342.540000	-0.000000
342.714000	-0.000000
342.888000	-0.000000
343.061000	-0.000000
343.235000	-0.000000
343.409000	-0.000000
343.583000	-0.000000
343.757000	-0.000000
343.930000	-0.000000
344.104000	-0.000000
344.278000	0.000000
344.452000	0.000000
344.626000	-0.000000
344.799000	-0.000000
344.973000	-0.000000
345.147000	-0.000000
345.321000	-0.000000
345.494000	-0.000000
345.668000	0.000000
345.842000	0.000000
346.016000	-0.000000
346.190000	0.000000
346.363000	0.000000
346.537000	-0.000000
346.711000	-0.000000
346.885000	-0.000000
347.059000	-0.000000
347.232000	0.000000
347.406000	0.000000
347.580000	-0.000000
347.754000	-0.000000
347.927000	-0.000000
348.101000	0.000000
348.275000	-0.000000
348.449000	-0.000000
348.623000	-0.000000
348.796000	0.000000
348.970000	0.000000
349.144000	-0.000000
349.318000	-0.000000
349.492000	-0.000000
349.665000	-0.000000
349.839000	-0.000000
350.013000	-0.000000
350.187000	-0.000000
350.361000	-0.000000
350.534000	-0.000000
350.708000	-0.000000
350.882000	-0.000000
351.056000	0.000000
351.229000	-0.000000
351.403000	-0.000000
351.577000	-0.000000
351.751000	-0.000000
351.925000	-0.000000
352.098000	-0.000000
352.272000	-0.000000
352.446000	-0.000000
352.620000	-0.000000
352.794000	-0.000000
352.967000	-0.000000
353.141000	0.000000
353.315000	0.000000
353.489000	-0.000000
353.662000	-0.000000
353.836000	-0.000000
354.010000	-0.000000
354.184000	-0.000000
354.358000	-0.000000
354.531000	-0.000000
354.705000	-0.000000
354.879000	-0.000000
355.053000	-0.000000
355.227000	0.000000
355.400000	-0.000000
355.574000	0.000000
355.748000	0.000000
355.922000	-0.000000
356.095000	-0.000000
356.269000	-0.000000
356.443000	-0.000000
356.617000	-0.000000
356.791000	-0.000000
356.964000	-0.000000
357.138000	-0.000000
357.312000	-0.000000
357.486000	-0.000000
357.660000	-0.000000
357.833000	-0.000000
358.007000	-0.000000
358.181000	-0.000000
358.355000	-0.000000
358.529000	-0.000000
358.702000	-0.000000
358.876000	-0.000000
359.050000	-0.000000
359.224000	-0.000000
359.397000	0.000000
359.571000	-0.000000
359.745000	-0.000000
359.919000	0.000000
360.093000	-0.071701
360.266000	0.016624
360.440000	0.073919
360.614000	0.113752
360.788000	0.063623
360.962000	-0.196276
361.135000	-0.079297
361.309000	-0.190275
361.483000	-0.310374
361.657000	-0.268011
361.830000	-0.222218
362.004000	-0.097253
362.178000	-0.415720
362.352000	-0.292917
362.526000	-0.113880
362.699000	-0.068596
362.873000	-0.371817
363.047000	-0.406051
363.221000	-0.398373
363.395000	-0.252309
363.568000	-0.268982
363.742000	-0.166408
363.916000	-0.170296
364.090000	-0.275001
364.263000	-0.250650
364.437000	-0.376176
364.611000	-0.116944
364.785000	-0.065963
364.959000	-0.243437
365.132000	-0.308424
365.306000	-0.344698
365.480000	-0.141192
365.656000	-0.229024
365.831000	-0.237735
366.007000	-0.224863
366.183000	-0.137783
366.358000	-0.325405
366.534000	-0.327915
366.710000	-0.400909
366.886000	-0.193113
367.061000	-0.025792
367.237000	0.044601
367.413000	-0.129055
367.588000	-0.339009
367.764000	-0.315282
367.940000	-0.317751
368.115000	-0.306736
368.291000	-0.370137
368.467000	-0.241743
368.643000	0.041074
368.818000	-0.301597
368.994000	-0.358586
369.170000	-0.312742
369.345000	-0.264903
369.521000	-0.256963
369.697000	-0.083650
369.872000	-0.181538
370.048000	-0.333609
370.224000	-0.292743
370.399000	-0.503484
370.575000	-0.462184
370.751000	-0.507870
370.927000	-0.427707
371.102000	-0.364793
371.278000	-0.362971
371.454000	-0.301313
371.629000	-0.000867
371.805000	-0.048489
371.981000	0.082358
372.156000	0.216635
372.332000	0.088568
372.508000	0.064123
372.683000	-0.026703
372.859000	-0.161356
373.035000	-0.193777
373.211000	0.285060
373.386000	0.086896
373.562000	-0.315693
373.738000	-0.461240
373.913000	-0.675153
374.089000	-0.485062
374.265000	-0.084093
374.440000	0.003535
374.616000	0.038800
374.792000	-0.245354
374.968000	0.136600
375.143000	-0.061404
375.319000	-0.329515
375.495000	-0.381230
375.670000	-0.259393
375.846000	-0.079090
376.022000	-0.264342
376.197000	-0.262166
376.373000	-0.381996
376.549000	-0.402024
376.724000	-0.491893
376.900000	-0.316080
377.076000	-0.167548
377.252000	0.095531
377.427000	0.260576
377.603000	-0.222805
377.779000	-0.312555
377.954000	-0.417132
378.130000	-0.231562
378.306000	-0.229574
378.481000	-0.241287
378.657000	-0.311403
378.833000	-0.340208
379.009000	-0.209034
379.184000	-0.030452
379.360000	-0.021800
379.536000	-0.064253
379.711000	-0.078213
379.887000	-0.208324
380.063000	-0.344359
380.238000	-0.393188
380.414000	-0.097318
380.590000	-0.322736
380.765000	-0.325959
380.941000	-0.055112
381.117000	-0.096245
381.293000	-0.273988
381.468000	-0.410088
381.644000	-0.295746
381.820000	-0.158811
381.995000	-0.017632
382.171000	0.218489
382.347000	0.184522
382.522000	-0.285702
382.698000	-0.021674
382.874000	0.007491
383.050000	-0.323427
383.225000	0.103732
383.401000	0.196394
383.577000	-0.165670
383.752000	-0.295106
383.928000	-0.145567
384.104000	-0.064434
384.279000	-0.162061
384.455000	-0.136870
384.631000	-0.248543
384.806000	-0.374877
384.982000	-0.153764
385.158000	-0.292674
385.334000	-0.132193
385.509000	-0.149234
385.685000	-0.419575
385.861000	-0.164162
386.036000	-0.327104
386.212000	-0.591374
386.388000	-0.414442
386.563000	-0.344167
386.739000	-0.310631
386.915000	-0.521757
387.090000	-0.275208
387.266000	-0.100255
387.442000	-0.071189
387.618000	-0.136325
387.793000	-0.406692
387.969000	-0.485131
388.145000	-0.413573
388.320000	-0.358219
388.496000	-0.338608
388.672000	-0.532025
388.847000	-0.090718
389.023000	-0.103640
389.199000	-0.439049
389.375000	-0.196426
389.550000	-0.287956
389.726000	-0.211649
389.902000	-0.391790
390.077000	-0.289446
390.253000	-0.200648
390.429000	-0.263358
390.604000	-0.094511
390.780000	-0.085934
390.956000	-0.218002
391.131000	-0.249701
391.307000	-0.024907
391.483000	-0.245766
391.659000	-0.363410
391.834000	-0.129175
392.010000	-0.157043
392.186000	-0.309603
392.361000	-0.278119
392.537000	-0.355051
392.713000	0.038722
392.888000	0.272245
393.064000	-0.064334
393.240000	-0.341455
393.416000	-0.370851
393.591000	-0.373529
393.767000	-0.414494
393.943000	-0.346444
394.118000	0.046092
394.294000	0.202204
394.470000	-0.031927
394.645000	0.053560
394.821000	0.249053
394.997000	-0.078362
395.172000	-0.081808
395.348000	-0.147699
395.524000	-0.489908
395.700000	-0.319970
395.875000	-0.108021
396.051000	-0.146136
396.227000	-0.208890
396.402000	-0.299113
396.578000	-0.120576
396.754000	-0.277512
396.929000	-0.260966
397.105000	-0.004585
397.281000	-0.187922
397.457000	-0.294011
397.632000	-0.211779
397.808000	-0.440666
397.984000	-0.502804
398.159000	-0.465587
398.335000	-0.335304
398.511000	0.010625
398.686000	-0.125849
398.862000	-0.286896
399.038000	-0.357509
399.213000	-0.120353
399.389000	-0.384780
399.565000	-0.083348
399.741000	0.014251
399.916000	-0.042408
400.092000	0.183875
400.268000	-0.168909
400.443000	-0.261678
400.619000	0.172868
400.795000	-0.012123
400.970000	-0.232514
401.146000	-0.210907
401.322000	0.037026
401.497000	0.448515
401.673000	0.215547
401.849000	-0.125571
402.025000	0.006779
402.200000	-0.147235
402.376000	-0.286082
402.552000	0.165121
402.727000	0.033020
402.903000	-0.307785
403.079000	-0.251789
403.254000	-0.008250
403.430000	-0.060346
403.606000	-0.135070
403.782000	-0.123721
403.957000	-0.288505
404.133000	-0.371680
404.309000	-0.184285
404.484000	-0.023140
404.660000	-0.116771
404.841000	-0.150548
405.023000	0.125888
405.204000	0.036608
405.385000	-0.252176
405.566000	-0.310813
405.748000	-0.238561
405.929000	0.006828
406.110000	-0.060745
406.292000	-0.201204
406.473000	-0.116109
406.654000	-0.244566
406.835000	-0.060559
407.017000	-0.071502
407.198000	-0.078070
407.379000	-0.088871
407.560000	-0.059679
407.742000	-0.115828
407.923000	-0.120204
408.104000	-0.242238
408.286000	-0.111975
408.467000	-0.030329
408.648000	-0.245605
408.829000	-0.289105
409.011000	-0.163611
409.192000	-0.364915
409.373000	-0.123206
409.555000	0.028951
409.736000	-0.067100
409.917000	-0.152460
410.098000	-0.122043
410.280000	0.021166
410.461000	-0.037158
410.642000	-0.044526
410.823000	0.185334
411.005000	0.119817
411.186000	-0.081150
411.367000	-0.165366
411.549000	-0.114064
411.730000	0.105260
411.911000	0.159814
412.092000	-0.048019
412.274000	-0.072931
412.455000	0.031837
412.636000	0.013761
412.818000	-0.242377
412.999000	-0.305222
413.180000	-0.213360
413.361000	-0.123717
413.543000	-0.105066
413.724000	-0.269888
413.905000	-0.287841
414.087000	-0.205723
414.268000	-0.164339
414.449000	-0.132573
414.630000	-0.261883
414.812000	-0.350611
414.993000	-0.014867
415.174000	0.148031
415.355000	-0.079105
415.537000	-0.330628
415.718000	0.045455
415.899000	-0.053817
416.081000	-0.191110
416.262000	-0.000704
416.443000	-0.144610
416.624000	-0.035719
416.806000	0.094030
416.987000	0.214343
417.168000	0.188530
417.350000	0.037837
417.531000	-0.056415
417.712000	-0.084267
417.893000	0.145499
418.075000	0.228181
418.256000	0.009738
418.437000	0.187862
418.618000	0.322877
418.800000	0.350161
418.981000	0.161767
419.162000	0.201938
419.344000	0.358821
419.525000	0.190459
419.706000	0.107165
419.887000	0.287515
420.069000	0.477994
420.250000	0.384235
420.431000	0.352168
420.613000	0.357312
420.794000	0.058504
420.975000	0.381859
421.156000	0.241021
421.338000	0.223574
421.519000	0.285620
421.700000	0.276088
421.882000	0.251825
422.063000	0.396135
422.244000	0.857616
422.425000	0.698913
422.607000	0.371918
422.788000	0.335531
422.969000	0.298788
423.150000	0.312920
423.332000	0.284527
423.513000	0.557770
423.694000	0.619611
423.876000	0.683376
424.057000	0.718036
424.238000	0.765822
424.419000	0.841098
424.601000	0.747088
424.782000	0.808874
424.963000	0.957219
425.145000	0.863090
425.326000	0.996996
425.507000	1.033315
425.688000	0.962608
425.870000	0.893649
426.051000	0.746384
426.232000	0.863365
426.413000	0.899608
426.595000	0.874230
426.776000	0.942687
426.957000	1.012452
427.139000	1.066705
427.320000	1.112922
427.501000	1.304743
427.682000	1.346736
427.864000	1.387410
428.045000	1.592315
428.226000	1.591062
428.408000	1.270110
428.589000	1.485984
428.770000	1.513658
428.951000	1.394005
429.133000	1.321180
429.314000	1.607328
429.495000	1.632747
429.677000	1.659106
429.858000	1.667768
430.039000	1.790025
430.220000	1.962222
430.402000	2.031477
430.583000	1.840439
430.764000	1.915221
430.945000	2.134911
431.127000	2.231990
431.308000	2.116726
431.489000	2.356694
431.671000	2.479229
431.852000	2.510216
432.033000	2.476511
432.214000	2.631054
432.396000	2.766173
432.577000	2.633289
432.758000	2.490723
432.940000	2.617085
433.121000	2.844946
433.302000	2.974124
433.483000	3.197646
433.665000	3.408653
433.846000	3.380975
434.027000	3.245776
434.208000	3.214728
434.390000	3.347610
434.571000	3.823231
434.752000	4.262383
434.934000	4.059763
435.115000	4.123159
435.296000	4.274888
435.477000	4.186040
435.659000	4.010695
435.840000	4.253444
436.026000	4.332778
436.211000	4.259162
436.397000	4.190760
436.582000	4.465376
436.768000	4.768548
436.953000	4.797938
437.139000	4.943624
437.325000	5.294341
437.510000	5.306537
437.696000	5.634801
437.881000	5.729087
438.067000	5.481478
438.252000	5.748661
438.438000	5.850396
438.624000	5.885933
438.809000	6.165258
438.995000	6.333475
439.180000	6.491992
439.366000	6.510637
439.551000	6.590753
439.737000	6.830642
439.923000	7.029750
440.108000	7.245255
440.294000	7.447154
440.479000	7.606276
440.665000	7.809928
440.850000	7.897049
441.036000	8.033388
441.222000	8.167462
441.407000	8.170757
441.593000	8.362096
441.778000	8.736000
441.964000	9.152628
442.149000	8.941243
442.335000	9.022651
442.521000	9.366700
442.706000	9.678245
442.892000	9.798104
443.077000	10.048857
443.263000	10.218003
443.448000	10.235916
443.634000	10.465450
443.820000	11.061468
444.005000	11.199417
444.191000	11.068173
444.376000	11.188012
444.562000	11.754993
444.747000	11.985111
444.933000	12.016984
445.119000	12.168012
445.304000	12.348826
445.490000	12.638083
445.675000	12.955286
445.861000	13.031778
446.046000	13.326548
446.232000	13.729608
446.418000	14.027801
446.603000	14.190424
446.789000	14.434534
446.974000	14.801141
447.160000	14.786639
447.345000	14.937315
447.531000	15.158238
447.717000	15.864897
447.902000	16.155515
448.088000	16.462483
448.273000	16.588001
448.459000	16.700708
448.644000	16.804189
448.830000	17.000363
449.016000	17.273460
449.201000	17.695560
449.387000	18.230307
449.572000	18.639663
449.758000	18.580234
449.943000	18.730986
450.129000	18.989147
450.315000	19.288596
450.500000	19.546654
450.686000	20.007009
450.871000	20.271130
451.057000	20.760763
451.243000	20.960416
451.428000	21.218436
451.614000	21.670815
451.799000	21.931091
451.985000	22.200421
452.170000	22.422753
452.356000	22.535655
452.542000	22.885470
452.727000	23.149932
452.913000	23.325859
453.098000	23.871450
453.284000	24.304629
453.469000	24.430146
453.655000	24.648361
453.841000	24.945757
454.026000	24.845302
454.212000	25.113615
454.397000	25.368307
454.583000	25.612897
454.768000	25.479143
454.954000	25.745743
455.140000	25.927630
455.325000	25.879953
455.511000	26.052044
455.696000	26.243024
455.882000	26.531490
456.067000	26.851055
456.253000	26.632791
456.439000	26.637523
456.624000	26.639328
456.810000	26.732944
456.995000	26.838185
457.181000	26.704120
457.366000	26.648286
457.552000	26.550303
457.738000	26.716920
457.923000	26.726915
458.109000	27.019520
458.294000	26.764034
458.480000	26.702715
458.665000	26.486506
458.851000	26.203722
459.037000	25.848555
459.222000	25.923917
459.408000	25.684320
459.593000	25.546280
459.779000	25.604668
459.964000	25.517750
460.150000	25.363255
460.336000	25.137906
460.521000	24.665453
460.707000	24.234931
460.892000	24.004451
461.078000	24.119155
461.263000	23.697871
461.449000	23.195209
461.635000	23.031326
461.820000	22.827079
462.006000	22.564096
462.191000	22.208652
462.377000	21.674007
462.562000	21.773502
462.748000	21.674311
462.934000	21.048274
463.119000	20.573506
463.305000	20.289579
463.490000	19.635226
463.676000	19.483998
463.861000	19.285200
464.047000	18.992804
464.233000	18.727383
464.418000	18.323513
464.604000	17.870975
464.789000	17.811291
464.975000	17.526154
465.160000	17.051973
465.346000	16.686974
465.532000	16.441681
465.717000	16.043583
465.903000	16.077123
466.088000	15.933801
466.274000	15.387985
466.459000	15.036874
466.645000	15.180829
466.831000	14.691848
467.016000	14.420757
467.202000	14.218640
467.387000	13.798172
467.573000	13.384833
467.758000	13.346795
467.944000	13.034805
468.130000	12.852961
468.315000	12.873160
468.501000	12.637014
468.686000	12.329482
468.872000	12.183370
469.057000	12.048300
469.243000	11.809098
469.429000	11.589240
469.614000	11.398306
469.800000	11.135451
469.985000	10.974840
470.171000	10.818846
470.356000	10.672742
470.542000	10.542480
470.728000	10.377530
470.913000	10.153516
471.099000	10.123113
471.284000	9.987512
471.470000	9.775649
471.655000	9.627074
471.841000	9.488956
472.027000	9.218958
472.212000	9.328692
472.398000	9.335730
472.583000	9.009841
472.769000	8.853169
472.954000	8.765897
473.140000	8.490566
473.326000	8.265964
473.511000	8.499898
473.697000	8.478523
473.882000	8.240437
474.068000	7.993104
474.253000	7.662887
474.439000	7.759010
474.625000	7.778867
474.810000	7.527630
474.996000	7.289168
475.181000	7.100376
475.367000	7.193947
475.552000	7.300648
475.738000	6.880617
475.924000	6.775599
476.109000	6.754545
476.295000	6.467356
476.480000	6.366501
476.666000	6.270430
476.851000	6.285414
477.037000	6.226225
477.223000	5.950212
477.408000	5.815558
477.594000	5.595351
477.779000	5.580586
477.965000	5.569417
478.151000	5.400314
478.336000	5.442067
478.522000	5.345222
478.707000	5.195318
478.893000	5.137798
479.078000	4.910981
479.264000	4.872751
479.450000	4.874707
479.635000	4.820754
479.821000	4.597343
480.006000	4.578055
480.192000	4.521111
480.377000	4.422869
480.563000	4.310559
480.749000	4.039289
480.934000	3.979686
481.120000	4.077872
481.305000	4.085339
481.491000	3.973115
481.676000	3.934622
481.862000	3.964843
482.048000	3.741124
482.233000	3.692075
482.419000	3.639926
482.604000	3.514634
482.790000	3.493649
482.975000	3.465256
483.161000	3.504816
483.347000	3.441481
483.532000	3.339835
483.718000	3.048115
483.903000	3.068218
484.089000	3.021366
484.274000	2.840672
484.460000	3.020030
484.646000	3.028176
484.831000	2.832863
485.017000	2.844979
485.202000	2.781937
485.388000	2.963380
485.573000	2.894828
485.759000	2.679477
485.945000	2.761263
486.130000	2.596835
486.316000	2.621411
486.501000	2.651051
486.687000	2.381224
486.872000	2.281550
487.058000	2.455514
487.244000	2.436119
487.429000	2.277855
487.615000	2.369527
487.800000	2.447338
487.986000	2.326355
488.171000	2.407222
488.357000	2.318663
488.543000	2.235262
488.728000	2.316140
488.914000	2.286597
489.099000	2.202478
489.285000	2.203489
489.470000	2.352625
489.656000	2.307953
489.842000	2.250279
490.027000	2.292135
490.213000	2.095821
490.398000	1.836092
490.584000	2.080895
490.769000	2.075763
490.955000	2.095214
491.141000	2.100803
491.326000	2.073099
491.512000	2.237439
491.697000	2.111043
491.883000	1.979879
492.068000	1.870934
492.254000	1.884443
492.440000	1.967218
492.625000	1.882794
492.811000	1.815748
492.996000	1.947139
493.182000	1.951007
493.367000	1.774746
493.553000	1.709560
493.739000	1.757435
493.924000	1.936199
494.110000	1.927551
494.295000	1.811280
494.481000	1.868787
494.666000	1.877655
494.852000	2.055393
495.038000	1.918406
495.223000	1.828445
495.409000	1.854188
495.594000	1.754465
495.780000	1.824916
495.965000	1.741654
496.151000	1.939562
496.337000	2.030169
496.522000	1.838194
496.708000	1.932267
496.893000	2.037031
497.079000	1.949698
497.264000	1.928573
497.450000	1.946730
497.636000	2.043087
497.821000	1.908676
498.007000	2.087488
498.192000	2.187453
498.378000	2.074161
498.563000	2.035011
498.749000	2.106833
498.935000	2.116087
499.120000	2.135762
499.306000	1.974830
499.491000	1.967013
499.677000	2.082836
499.862000	2.207605
500.048000	2.283725
500.234000	2.168630
500.419000	2.177564
500.605000	2.386290
500.790000	2.326404
500.976000	2.188062
501.161000	2.122682
501.347000	2.297028
501.533000	2.373302
501.718000	2.351967
501.904000	2.389920
502.089000	2.498549
502.275000	2.581880
502.460000	2.531984
502.646000	2.589696
502.832000	2.536265
503.017000	2.536393
503.203000	2.434930
503.388000	2.455814
503.574000	2.714370
503.759000	2.786116
503.945000	2.805890
504.131000	2.688216
504.316000	2.666564
504.502000	2.757683
504.687000	2.687249
504.873000	2.636021
505.058000	2.688415
505.244000	2.712866
505.430000	2.823600
505.615000	2.998405
505.801000	3.044186
505.986000	2.896451
506.172000	3.048923
506.358000	3.033214
506.543000	3.013958
506.729000	3.232295
506.914000	3.297435
507.100000	3.470751
507.285000	3.263563
507.471000	3.161127
507.657000	3.414053
507.842000	3.315757
508.028000	3.193962
508.213000	3.346580
508.399000	3.445058
508.584000	3.585929
508.770000	3.490673
508.956000	3.389155
509.141000	3.411545
509.327000	3.581517
509.512000	3.577490
509.698000	3.565144
509.883000	3.692236
510.069000	3.712404
510.255000	3.724271
510.440000	3.823513
510.626000	3.767846
510.811000	3.704148
510.997000	3.884195
511.182000	4.107208
511.368000	3.937559
511.554000	3.665736
511.739000	3.752975
511.925000	4.039711
512.110000	3.987279
512.296000	4.161482
512.481000	4.194864
512.667000	4.127563
512.853000	3.925552
513.038000	3.964467
513.224000	3.955152
513.409000	3.867362
513.595000	4.004873
513.780000	3.869050
513.966000	3.946979
514.152000	3.955169
514.337000	3.900271
514.523000	3.934011
514.708000	4.056293
514.894000	4.067484
515.079000	3.900100
515.265000	3.941851
515.451000	4.041444
515.636000	3.909680
515.822000	4.035773
516.007000	3.977078
516.193000	4.058210
516.378000	4.059998
516.564000	4.005115
516.750000	4.032287
516.935000	4.122042
517.121000	4.134150
517.306000	4.197301
517.492000	4.151903
517.677000	3.899272
517.863000	3.825087
518.049000	3.888289
518.234000	3.882780
518.420000	3.988431
518.605000	4.139529
518.791000	4.070308
518.976000	3.938642
519.162000	3.783876
519.348000	3.854576
519.533000	3.789517
519.719000	4.034023
519.904000	3.966042
520.090000	3.810627
520.275000	3.903730
520.461000	3.888133
520.647000	3.664491
520.832000	3.432710
521.018000	3.473052
521.203000	3.521112
521.389000	3.386882
521.574000	3.483400
521.760000	3.570817
521.946000	3.519368
522.131000	3.400303
522.317000	3.293891
522.502000	3.279515
522.688000	3.338034
522.873000	3.239928
523.059000	3.198046
523.245000	3.213229
523.430000	3.082150
523.616000	3.102074
523.801000	2.965676
523.987000	3.012706
524.172000	3.116636
524.358000	3.170116
524.544000	3.081629
524.729000	3.140956
524.915000	3.138071
525.100000	2.941727
525.286000	2.959104
525.471000	2.962235
525.657000	3.020215
525.843000	2.777633
526.028000	2.831998
526.214000	2.794265
526.399000	2.636848
526.585000	2.503384
526.770000	2.484699
526.956000	2.601520
527.142000	2.490458
527.327000	2.582962
527.513000	2.467382
527.698000	2.422579
527.884000	2.476487
528.069000	2.455624
528.255000	2.530403
528.441000	2.350344
528.626000	2.392162
528.812000	2.610968
528.997000	2.453698
529.183000	2.204928
529.368000	2.303473
529.554000	2.229081
529.740000	2.224601
529.925000	2.176636
530.111000	2.219457
530.296000	2.249719
530.482000	2.255246
530.667000	2.174983
530.853000	2.200943
531.039000	2.075171
531.224000	2.119142
531.410000	2.181378
531.595000	2.068469
531.781000	2.093420
531.967000	1.928951
532.152000	2.015047
532.338000	1.927758
532.523000	1.792826
532.709000	1.779978
532.894000	1.897774
533.080000	1.908208
533.266000	1.674367
533.451000	1.635611
533.637000	1.683234
533.822000	1.916468
534.008000	1.759188
534.193000	1.669164
534.379000	1.754957
534.565000	1.762035
534.750000	1.653683
534.936000	1.844471
535.121000	1.661364
535.307000	1.632392
535.492000	1.640822
535.678000	1.423076
535.864000	1.518070
536.049000	1.851183
536.235000	1.625939
536.420000	1.523658
536.606000	1.462596
536.791000	1.255880
536.977000	1.372988
537.163000	1.619181
537.348000	1.471182
537.534000	1.545060
537.719000	1.399160
537.905000	1.248133
538.090000	1.391686
538.276000	1.489334
538.462000	1.491078
538.647000	1.434841
538.833000	1.367551
539.018000	1.487183
539.204000	1.396931
539.389000	1.219515
539.575000	1.509175
539.761000	1.382824
539.946000	1.081884
540.132000	1.201843
540.317000	1.069873
540.503000	1.191740
540.688000	1.182986
540.874000	1.385548
541.060000	1.515512
541.245000	1.306416
541.431000	1.173265
541.616000	1.100640
541.802000	1.038881
541.987000	1.220567
542.173000	1.271739
542.359000	1.096955
542.544000	1.178391
542.730000	1.019693
542.915000	0.951961
543.101000	1.123084
543.286000	0.917629
543.472000	0.822186
543.658000	0.930776
543.843000	0.909387
544.029000	1.075219
544.214000	0.964455
544.400000	0.649135
544.585000	0.838093
544.771000	0.909254
544.957000	1.010636
545.142000	1.052641
545.328000	1.100131
545.513000	1.153879
545.699000	1.165780
545.884000	0.969144
546.070000	0.917608
546.261000	0.931387
546.451000	0.752863
546.642000	0.492059
546.833000	0.611933
547.023000	0.559295
547.214000	0.568586
547.405000	0.779289
547.595000	1.033591
547.786000	0.906904
547.977000	0.672117
548.167000	0.612432
548.358000	0.622254
548.549000	0.910376
548.740000	0.778178
548.930000	0.388867
549.121000	0.476011
549.312000	0.467038
549.502000	0.396029
549.693000	0.550678
549.884000	0.554449
550.074000	0.599815
550.265000	0.438057
550.456000	0.515459
550.646000	0.611417
550.837000	0.586115
551.028000	0.367908
551.218000	0.477280
551.409000	0.369419
551.600000	0.439426
551.790000	0.581093
551.981000	0.378539
552.172000	0.364488
552.362000	0.607709
552.553000	0.777580
552.744000	0.588168
552.934000	0.477465
553.125000	0.422612
553.316000	0.281673
553.506000	0.609938
553.697000	0.488869
553.888000	0.484279
554.079000	0.626547
554.269000	0.597275
554.460000	0.291523
554.651000	0.209302
554.841000	0.108148
555.032000	0.239945
555.223000	0.330669
555.413000	0.422943
555.604000	0.308010
555.795000	0.282392
555.985000	0.419161
556.176000	0.256023
556.367000	-0.030958
556.557000	0.139396
556.748000	0.223164
556.939000	0.177347
557.129000	0.074968
557.320000	0.260657
557.511000	0.256389
557.701000	0.210677
557.892000	0.351780
558.083000	0.548300
558.273000	0.396910
558.464000	0.188619
558.655000	0.188457
558.845000	0.191676
559.036000	0.342845
559.227000	0.256190
559.418000	0.355086
559.608000	0.438196
559.799000	0.131522
559.990000	0.066915
560.180000	0.146051
560.371000	-0.045993
560.562000	0.036889
560.752000	0.198930
560.943000	0.070864
561.134000	-0.203750
561.324000	0.059324
561.515000	0.347788
561.706000	0.186845
561.896000	-0.053161
562.087000	0.032908
562.278000	-0.019438
562.468000	-0.176613
562.659000	-0.045525
562.850000	0.350245
563.040000	0.424924
563.231000	-0.064274
563.422000	0.084921
563.612000	0.025355
563.803000	0.088582
563.994000	-0.048894
564.185000	-0.159747
564.375000	0.080707
564.566000	-0.000740
564.757000	0.006674
564.947000	-0.100736
565.138000	0.113682
565.329000	0.058200
565.519000	-0.107504
565.710000	0.080341
565.901000	0.165218
566.091000	0.227745
566.282000	0.076476
566.473000	0.046916
566.663000	-0.008054
566.854000	-0.259636
567.045000	-0.091655
567.235000	0.119275
567.426000	0.162853
567.617000	0.144156
567.807000	0.010146
567.998000	0.046287
568.189000	-0.069414
568.379000	-0.033177
568.570000	0.092909
568.761000	0.135836
568.951000	0.053100
569.142000	-0.065386
569.333000	-0.015089
569.524000	-0.104511
569.714000	-0.261969
569.905000	-0.372272
570.096000	0.006430
570.286000	0.113437
570.477000	0.269659
570.668000	0.045493
570.858000	0.027721
571.049000	-0.067997
571.240000	-0.167243
571.430000	-0.007785
571.621000	-0.011284
571.812000	0.076556
572.002000	0.030958
572.193000	-0.106069
572.384000	0.013341
572.574000	0.090650
572.765000	0.030863
572.956000	0.030766
573.146000	0.139357
573.337000	-0.063599
573.528000	-0.063489
573.718000	0.086286
573.909000	0.141752
574.100000	0.127398
574.290000	-0.066257
574.481000	-0.042006
574.672000	-0.042054
574.863000	0.071413
575.053000	0.016449
575.244000	-0.010940
575.435000	-0.171454
575.625000	-0.116292
575.816000	-0.041433
576.007000	-0.004075
576.197000	-0.007483
576.388000	-0.031172
576.579000	0.104325
576.769000	0.104203
576.960000	-0.200134
577.155000	-0.307463
577.350000	-0.054548
577.545000	0.076629
577.740000	-0.064338
577.935000	0.306981
578.130000	0.216861
578.326000	-0.164152
578.521000	0.116053
578.716000	0.175270
578.911000	-0.093507
579.106000	-0.076638
579.301000	0.032274
579.496000	-0.125408
579.691000	-0.269628
579.886000	-0.128246
580.081000	-0.092117
580.276000	-0.056047
580.471000	-0.144003
580.666000	-0.234819
580.861000	-0.218480
581.057000	-0.199102
581.252000	-0.075494
581.447000	-0.153248
581.642000	-0.130740
581.837000	-0.075350
582.032000	-0.078375
582.227000	0.086291
582.422000	0.111840
582.617000	-0.051827
582.812000	-0.169761
583.007000	-0.160101
583.202000	-0.271225
583.397000	0.043777
583.592000	0.240036
583.788000	-0.054294
583.983000	-0.066856
584.178000	0.018262
584.373000	-0.145029
584.568000	-0.104002
584.763000	-0.160544
584.958000	-0.267137
585.153000	-0.163680
585.348000	-0.172992
585.543000	-0.006902
585.738000	-0.016306
585.933000	-0.239001
586.128000	-0.069606
586.324000	-0.044639
586.519000	-0.079161
586.714000	-0.000629
586.909000	0.087553
587.104000	0.081525
587.299000	-0.073100
587.494000	-0.041535
587.689000	-0.126741
587.884000	-0.139772
588.079000	-0.095507
588.274000	-0.019643
588.469000	-0.111301
588.664000	-0.032294
588.859000	-0.006976
589.055000	-0.013332
589.250000	-0.041921
589.445000	-0.191417
589.640000	-0.258399
589.835000	0.053590
590.030000	0.219398
590.225000	0.053584
590.420000	-0.128396
590.615000	-0.192447
590.810000	-0.176266
591.005000	-0.045529
591.200000	-0.132154
591.395000	-0.183448
591.591000	-0.087084
591.786000	-0.058221
591.981000	-0.128977
592.176000	-0.023147
592.371000	-0.042453
592.566000	-0.084203
592.761000	0.086119
592.956000	0.037982
593.151000	0.079867
593.346000	-0.026481
593.541000	0.031615
593.736000	0.070544
593.931000	-0.136616
594.126000	-0.104397
594.322000	-0.062247
594.517000	-0.185406
594.712000	-0.318441
594.907000	-0.306569
595.102000	-0.153812
595.297000	0.009118
595.492000	0.045037
595.687000	-0.134727
595.882000	-0.174056
596.077000	-0.076051
596.272000	0.048506
596.467000	0.058357
596.662000	-0.095825
596.857000	-0.096208
597.053000	-0.099670
597.248000	-0.000660
597.443000	0.075315
597.638000	-0.050331
597.833000	-0.222728
598.028000	-0.053625
598.223000	-0.013930
598.418000	-0.106988
598.613000	-0.173417
598.808000	-0.080458
599.003000	-0.073888
599.198000	-0.193952
599.393000	-0.167241
599.589000	-0.054117
599.784000	-0.248043
599.979000	-0.208235
600.174000	0.062983
600.369000	-0.111341
600.564000	-0.071189
600.759000	0.143890
600.954000	0.251048
601.149000	0.120522
601.344000	-0.196132
601.539000	-0.085023
601.734000	-0.189366
601.929000	-0.362120
602.124000	-0.348900
602.320000	-0.085344
602.515000	0.182232
602.710000	0.155455
602.905000	-0.173759
603.100000	-0.203974
603.295000	-0.197560
603.490000	-0.119829
603.685000	-0.113039
603.880000	-0.102950
604.075000	-0.202320
604.270000	-0.199324
604.465000	-0.106773
604.660000	-0.336333
604.856000	-0.209454
605.051000	-0.041834
605.246000	-0.089767
605.441000	-0.305842
605.636000	-0.251054
605.831000	-0.110639
606.026000	-0.217065
606.221000	-0.262073
606.416000	-0.155654
606.611000	0.019993
606.806000	0.040639
607.001000	0.116556
607.196000	-0.076626
607.391000	-0.232272
607.587000	-0.066498
607.782000	-0.115138
607.977000	-0.301697
608.172000	0.051365
608.367000	0.141599
608.562000	-0.059813
608.757000	-0.108463
608.952000	-0.157499
609.147000	0.183752
609.342000	0.096898
609.537000	-0.178788
609.732000	-0.140599
609.927000	-0.192678
610.122000	-0.137064
610.318000	0.100798
610.513000	0.184893
610.708000	-0.032251
610.903000	0.009827
611.098000	0.020399
611.293000	-0.021811
611.488000	0.023925
611.683000	0.020443
611.878000	0.002821
612.073000	0.073355
612.268000	-0.021889
612.463000	0.126676
612.658000	0.133755
612.854000	0.045388
613.049000	-0.068112
613.244000	0.127074
613.439000	0.205243
613.634000	-0.153781
613.829000	0.013531
614.024000	-0.082806
614.219000	-0.172012
614.414000	0.134986
614.609000	-0.072243
614.804000	-0.290478
614.999000	-0.247324
615.194000	-0.212134
615.389000	-0.169333
615.585000	-0.270279
615.780000	-0.025899
615.975000	-0.072807
616.170000	-0.155819
616.365000	-0.033218
616.560000	0.082401
616.755000	0.068151
616.950000	0.010155
617.145000	0.075503
617.340000	-0.113363
617.535000	-0.396763
617.730000	-0.171729
617.925000	-0.321421
618.120000	-0.336103
618.316000	0.079643
618.511000	0.013896
618.706000	-0.224581
618.901000	-0.140107
619.096000	0.021354
619.291000	-0.089019
619.486000	-0.107752
619.681000	-0.392200
619.876000	-0.414180
620.071000	-0.270451
620.266000	-0.015555
620.461000	0.084595
620.656000	0.014125
620.852000	-0.093556
621.047000	-0.257536
621.242000	-0.354765
621.437000	0.006724
621.632000	0.107810
621.827000	-0.083178
622.022000	-0.311971
622.217000	-0.181221
622.412000	0.055705
622.607000	0.051992
622.802000	-0.234460
622.997000	-0.182321
623.192000	-0.023450
623.387000	-0.083984
623.583000	-0.357071
623.778000	0.014444
623.973000	0.029668
624.168000	0.022113
624.363000	0.075373
624.558000	0.079315
624.753000	-0.299150
624.948000	-0.062089
625.143000	-0.073640
625.338000	-0.096815
625.533000	-0.162176
625.728000	-0.077713
625.923000	0.080073
626.119000	-0.050934
626.314000	-0.332932
626.509000	-0.349452
626.704000	-0.323183
626.899000	-0.269033
627.094000	-0.214903
627.289000	-0.227103
627.484000	-0.125944
627.679000	-0.184779
627.874000	-0.204617
628.069000	0.148387
628.264000	-0.012551
628.459000	-0.154105
628.654000	-0.205397
628.850000	-0.300884
629.045000	-0.182629
629.240000	-0.202596
629.435000	-0.187011
629.630000	-0.048429
629.825000	-0.115908
630.020000	-0.096440
630.215000	-0.335363
630.410000	-0.284708
630.605000	-0.220909
630.800000	-0.104836
630.995000	0.027270
631.190000	0.288561
631.385000	0.099730
631.581000	-0.117625
631.776000	-0.081423
631.971000	-0.223221
632.166000	-0.138407
632.361000	-0.292467
632.556000	-0.195521
632.751000	0.048021
632.946000	-0.155508
633.141000	-0.241730
633.336000	-0.180763
633.531000	-0.173116
633.726000	-0.189292
633.921000	-0.308948
634.117000	-0.457861
634.312000	-0.528389
634.507000	-0.442313
634.702000	-0.314969
634.897000	-0.249188
635.092000	-0.166841
635.287000	-0.046577
635.482000	-0.221820
635.677000	-0.150987
635.872000	0.024194
636.067000	0.066060
636.262000	-0.139350
636.457000	-0.519191
636.652000	-0.469728
636.848000	-0.382646
637.043000	-0.295758
637.238000	-0.317653
637.433000	-0.512349
637.628000	-0.486966
637.823000	-0.174414
638.018000	-0.017814
638.213000	-0.226152
638.408000	-0.358266
638.603000	-0.341736
638.798000	-0.291026
638.993000	-0.227453
639.188000	-0.261747
639.383000	-0.240566
639.579000	0.046181
639.774000	-0.159513
639.969000	-0.318300
640.164000	-0.387821
640.359000	-0.401152
640.554000	-0.147394
640.749000	-0.147800
640.944000	-0.117804
641.139000	-0.126208
641.334000	-0.260664
641.529000	-0.569223
641.724000	-0.365759
641.919000	-0.218525
642.115000	0.042763
642.310000	-0.048802
642.505000	-0.209949
642.700000	-0.223420
642.895000	-0.377294
643.090000	-0.202152
643.285000	0.025382
643.480000	-0.031580
643.675000	-0.018438
643.870000	0.342191
644.065000	0.148953
644.260000	-0.313689
644.455000	-0.243651
644.650000	-0.337179
644.846000	-0.111510
645.041000	-0.288389
645.236000	-0.519654
645.431000	-0.484879
645.626000	-0.608840
645.821000	-0.382373
646.016000	-0.276718
646.211000	0.074882
646.406000	-0.094672
646.601000	-0.116885
646.796000	-0.268510
646.991000	-0.504985
647.186000	-0.398802
647.381000	-0.094844
647.577000	-0.077022
647.772000	-0.018809
647.967000	-0.229737
648.162000	-0.189505
648.357000	-0.144793
648.552000	-0.077312
648.747000	-0.000900
648.942000	0.017101
649.137000	-0.086671
649.332000	-0.195266
649.527000	-0.172593
649.722000	0.044263
649.917000	0.030803
650.113000	-0.195454
650.308000	-0.268224
650.503000	-0.340534
650.698000	-0.246147
650.893000	-0.278135
651.088000	-0.069125
651.283000	0.053780
651.478000	-0.260696
651.673000	-0.078312
651.868000	-0.311138
652.063000	-0.051197
652.258000	0.118027
652.453000	0.286529
652.648000	-0.042033
652.844000	-0.046636
653.039000	-0.083353
653.234000	-0.449885
653.429000	-0.629678
653.624000	-0.413665
653.819000	-0.134208
654.014000	-0.244564
654.209000	-0.420354
654.404000	-0.221930
654.599000	-0.305585
654.794000	-0.272801
654.989000	0.026806
655.184000	-0.056452
655.380000	-0.407788
655.575000	-0.417082
655.770000	-0.389985
655.965000	-0.334488
656.160000	-0.404193
656.355000	-0.172396
656.550000	-0.093900
656.745000	-0.070706
656.940000	-0.210429
657.135000	-0.205723
657.330000	-0.210463
657.525000	-0.396997
657.720000	-0.150302
657.915000	-0.019586
658.111000	-0.108233
658.306000	0.111120
658.501000	-0.103888
658.696000	-0.309669
658.891000	-0.131974
659.086000	-0.281619
659.281000	-0.221165
659.476000	-0.427942
659.671000	-0.817330
659.866000	-0.564215
660.061000	-0.132459
660.256000	-0.057331
660.451000	-0.151451
660.646000	-0.278811
660.842000	-0.184832
661.037000	-0.359426
661.232000	-0.383559
661.427000	-0.213338
661.622000	-0.256289
661.817000	-0.341311
662.012000	-0.218949
662.207000	-0.370857
662.402000	-0.447860
662.597000	-0.248347
662.792000	-0.566586
662.987000	-0.523377
663.182000	-0.291274
663.378000	-0.334376
663.573000	-0.578716
663.768000	-0.606106
663.963000	-0.363489
664.158000	-0.310733
664.353000	0.190456
664.548000	0.286063
664.743000	-0.068005
664.938000	-0.374467
665.133000	-0.346277
665.328000	0.099906
665.523000	0.042351
665.718000	-0.246434
665.913000	-0.295008
666.109000	-0.281175
666.304000	-0.107217
666.499000	-0.290559
666.694000	-0.097774
666.889000	0.197462
667.084000	-0.127228
667.279000	-0.263039
667.474000	-0.282610
667.669000	-0.146611
667.864000	-0.229411
668.059000	-0.244364
668.254000	-0.269044
668.449000	-0.391336
668.644000	-0.274479
668.840000	-0.064384
669.035000	-0.318471
669.230000	-0.579312
669.425000	-0.216776
669.620000	-0.373690
669.815000	-0.286450
670.010000	-0.379614
670.205000	-0.222446
670.400000	-0.266263
670.595000	-0.252290
670.790000	-0.203288
670.985000	-0.134350
671.180000	0.048459
671.376000	-0.416726
671.571000	-0.511893
671.766000	-0.478277
671.961000	-0.572957
672.156000	-0.553751
672.351000	-0.344680
672.546000	-0.310467
672.741000	-0.160373
672.936000	-0.060842
673.131000	0.399046
673.326000	-0.006017
673.521000	-0.477794
673.716000	-0.558083
673.911000	-0.658927
674.107000	-0.106673
674.302000	0.195367
674.497000	-0.111910
674.692000	-0.444932
674.887000	-0.522376
675.082000	-0.254486
675.277000	0.009138
675.472000	-0.199262
675.667000	-0.403207
675.862000	-0.377944
676.057000	-0.097862
676.252000	-0.154255
676.447000	-0.456730
676.643000	-0.282409
676.838000	-0.011277
677.033000	-0.257679
677.228000	0.055576
677.423000	0.029864
677.618000	-0.331461
677.813000	-0.486065
678.008000	-0.249508
678.203000	-0.109858
678.398000	-0.426736
678.593000	-0.276278
678.788000	-0.126083
678.983000	-0.334077
679.178000	-0.271769
679.374000	-0.392083
679.569000	-0.283201
679.764000	-0.325966
679.959000	-0.536874
680.154000	-0.600033
680.349000	-0.755012
680.544000	-0.659224
680.739000	-0.575282
680.934000	-0.596955
681.129000	-0.540456
681.324000	-0.652312
681.519000	-0.372863
681.714000	-0.303921
681.909000	-0.367234
682.105000	-0.517277
682.300000	-0.097233
682.495000	0.036310
682.690000	-0.177681
682.885000	-0.167112
683.080000	-0.317963
683.275000	-0.312749
683.470000	-0.081779
683.665000	0.047450
683.860000	0.290593
684.055000	0.085390
684.250000	-0.390582
684.445000	-0.422367
684.641000	0.085594
684.836000	-0.098760
685.031000	-0.251604
685.226000	-0.284664
685.421000	0.048124
685.616000	-0.258121
685.811000	-0.406749
686.006000	-0.165535
686.201000	-0.324925
686.396000	-0.689807
686.591000	-0.591819
686.786000	-0.034283
686.981000	-0.133826
687.176000	-0.100891
687.372000	-0.173150
687.567000	0.065516
687.762000	-0.045653
687.957000	-0.201535
688.152000	-0.296809
688.347000	-0.230274
688.542000	-0.499794
688.737000	-0.880413
688.932000	-0.820198
689.127000	-0.411232
689.322000	-0.147609
689.517000	-0.378520
689.712000	-0.521176
689.908000	-0.408536
690.103000	-0.397989
690.298000	-0.301660
690.493000	-0.325191
690.688000	-0.558972
690.883000	-0.378118
691.078000	0.055994
691.273000	0.004571
691.468000	-0.344671
691.663000	-0.368971
691.858000	-0.064380
692.053000	-0.001150
692.248000	-0.024166
692.443000	-0.052933
692.639000	-0.179885
692.834000	-0.064735
693.029000	0.409368
693.224000	0.231217
693.419000	-0.274462
693.614000	-0.309937
693.809000	-0.514219
694.004000	-0.702105
694.199000	-0.585130
694.394000	-0.229690
694.589000	-0.634663
694.784000	-0.623564
694.979000	-0.288892
695.174000	-0.295511
695.370000	0.128112
695.565000	-0.012960
695.760000	-0.260979
695.955000	0.052085
696.150000	0.099467
696.345000	-0.345918
696.540000	-0.197673
696.740000	-0.340332
696.940000	-0.221503
697.140000	-0.162794
697.340000	-0.336944
697.539000	-0.139168
697.739000	-0.235240
697.939000	-0.235403
698.139000	-0.494139
698.339000	-0.815794
698.539000	-0.676625
698.739000	-0.720770
698.939000	-0.474920
699.138000	-0.560871
699.338000	0.223098
699.538000	0.436943
699.738000	-0.123288
699.938000	-0.392167
700.138000	-0.625349
700.338000	-0.670110
700.538000	-0.265758
700.737000	-0.148825
700.937000	-0.724749
701.137000	-0.836400
701.337000	-0.106173
701.537000	0.011136
701.737000	-0.211310
701.937000	-0.242752
702.137000	-0.453325
702.337000	-0.677406
702.536000	-0.604196
702.736000	-0.542688
702.936000	-0.811494
703.136000	-0.363814
703.336000	-0.244988
703.536000	-0.345940
703.736000	-0.730205
703.936000	-0.678524
704.135000	-0.634309
704.335000	-0.265245
704.535000	-0.530678
704.735000	-0.815128
704.935000	-0.234198
705.135000	-0.159423
705.335000	-0.515413
705.535000	-0.236281
705.735000	-0.115580
705.934000	-0.223424
706.134000	-0.433030
706.334000	-0.357683
706.534000	-0.543033
706.734000	-0.556222
706.934000	-0.556191
707.134000	-0.632895
707.334000	-0.423254
707.533000	-0.359982
707.733000	-0.436530
707.933000	-0.533074
708.133000	-0.321249
708.333000	-0.162103
708.533000	-0.297739
708.733000	0.005155
708.933000	-0.375348
709.132000	-0.492391
709.332000	-0.434969
709.532000	-0.507287
709.732000	-0.396428
709.932000	-0.864880
710.132000	-0.741046
710.332000	-0.766651
710.532000	-0.254488
710.732000	-0.092440
710.931000	-0.398698
711.131000	-0.531059
711.331000	-0.413655
711.531000	-0.532370
711.731000	-0.395682
711.931000	-0.396338
712.131000	-0.579985
712.331000	-0.317054
712.530000	-0.290390
712.730000	-0.442660
712.930000	-0.356907
713.130000	-0.377982
713.330000	-0.543855
713.530000	-0.413045
713.730000	0.231198
713.930000	-0.007970
714.129000	-0.485652
714.329000	-0.600360
714.529000	-0.360475
714.729000	-0.114629
714.929000	-0.267922
715.129000	-0.522045
715.329000	-0.462392
715.529000	-0.464286
715.729000	0.239743
715.928000	0.032225
716.128000	-0.290205
716.328000	-0.324754
716.528000	-0.466777
716.728000	-0.352191
716.928000	-0.412955
717.128000	-0.231284
717.328000	-0.271816
717.527000	-0.346614
717.727000	-0.292741
717.927000	-0.307279
718.127000	-0.423090
718.327000	-0.914494
718.527000	-0.941280
718.727000	-0.417218
718.927000	-0.534079
719.127000	-0.803654
719.326000	-0.588685
719.526000	-0.056103
719.726000	-0.213914
719.926000	-0.772140
720.126000	-0.620841
720.326000	-0.393645
720.526000	-0.565798
720.726000	-0.457044
720.925000	-0.222450
721.125000	-0.639313
721.325000	-0.368440
721.525000	-0.230486
721.725000	-0.417976
721.925000	-0.412190
722.125000	-0.412224
722.325000	0.012532
722.524000	-0.203922
722.724000	-0.728600
722.924000	-0.861401
723.124000	-0.764463
723.324000	-0.225651
723.524000	-0.225855
723.724000	-0.829820
723.924000	-0.501651
724.124000	-0.283333
724.323000	-0.163728
724.523000	-0.304606
724.723000	0.048050
724.923000	-0.121575
725.123000	-0.086324
725.323000	0.069466
725.523000	-0.228683
725.723000	-0.618640
725.922000	-0.725875
726.122000	-0.513377
726.322000	-0.471983
726.522000	-0.558085
726.722000	0.141143
726.922000	-0.236502
727.122000	-0.273067
727.322000	0.091616
727.521000	-0.252562
727.721000	-0.490059
727.921000	-0.375107
728.121000	-0.489959
728.321000	-0.728375
728.521000	-0.542629
728.721000	-0.377306
728.921000	-0.015896
729.121000	0.592022
729.320000	-0.044922
729.520000	-0.537661
729.720000	-0.799838
729.920000	-0.490065
730.120000	-0.176034
730.320000	-0.351471
730.520000	-0.789312
730.720000	-0.616169
730.919000	-0.374607
731.119000	-0.126075
731.319000	-0.632873
731.519000	-0.786946
731.719000	-0.486337
731.919000	-0.685058
732.119000	-1.083774
732.319000	-1.042862
732.519000	-0.400519
732.718000	-0.689619
732.918000	-0.623560
733.118000	-0.387542
733.318000	-0.090836
733.518000	-0.232319
733.718000	-0.970835
733.918000	-1.008706
734.118000	-0.724941
734.317000	-0.443327
734.517000	-0.622191
734.717000	-0.535017
734.917000	-0.069288
735.117000	-0.054283
735.317000	-0.272853
735.517000	0.172320
735.717000	0.536681
735.916000	-0.312353
736.116000	-0.501452
736.316000	-0.397844
736.516000	-0.489150
736.716000	-0.474152
736.916000	-0.927677
737.116000	-0.632231
737.316000	-0.047679
737.516000	-0.024657
737.715000	-0.225139
737.915000	-0.826914
738.115000	-0.860492
738.315000	-0.497162
738.515000	-0.783537
738.715000	-0.515561
738.915000	-0.118535
739.115000	-0.774878
739.314000	-0.758571
739.514000	-0.142547
739.714000	-0.182167
739.914000	-0.379574
740.114000	-0.348726
740.314000	-0.017370
740.514000	0.370080
740.714000	-0.525263
740.913000	-1.201443
741.113000	-0.877025
741.313000	-0.359724
741.513000	-0.456507
741.713000	-0.385713
741.913000	-0.162411
742.113000	-0.346807
742.313000	-0.991152
742.513000	-0.758552
742.712000	-0.542885
742.912000	-0.761209
743.112000	-0.739458
743.312000	-0.911240
743.512000	-0.498162
743.712000	-0.532424
743.912000	-1.081291
744.112000	-1.196565
744.311000	-1.117734
744.511000	-0.700464
744.711000	-0.421985
744.911000	-0.769245
745.111000	-0.844575
745.311000	-0.283171
745.511000	-0.606922
745.711000	-0.790074
745.911000	-0.483635
746.110000	-0.891244
746.310000	-0.955044
746.510000	-0.827809
746.710000	-0.420833
746.910000	-0.211443
747.110000	-0.791666
747.310000	-1.146640
747.510000	-0.948186
747.709000	-0.475323
747.909000	-0.323913
748.109000	-0.197387
748.309000	-0.589960
748.509000	-0.932438
748.709000	-1.055879
748.909000	-0.721409
749.109000	-0.595481
749.308000	0.093030
749.508000	-0.373488
749.708000	-0.494692
749.908000	-0.088234
750.108000	-0.218638
750.308000	-0.994268
750.508000	-0.150133
750.708000	-0.639150
750.908000	-1.069303
751.107000	-0.212413
751.307000	0.375228
751.507000	-0.371535
751.707000	-0.458993
751.907000	-0.380790
752.107000	-0.329012
752.307000	-0.791575
752.507000	-0.597905
752.706000	-0.668630
752.906000	0.212064
753.106000	-0.574022
753.306000	-1.095962
753.506000	-0.136694
753.706000	-0.524440
753.906000	-0.452422
754.106000	-0.281559
754.305000	-0.408429
754.505000	-0.264543
754.705000	-0.329753
754.905000	-0.421468
755.105000	-0.157143
755.305000	-0.935022
755.505000	-0.901014
755.705000	-0.433615
755.905000	-0.425704
756.104000	-1.034747
756.304000	-1.342681
756.504000	-1.373248
756.704000	-0.495521
756.904000	-0.346295
757.104000	-0.550316
757.304000	-0.634585
757.504000	-0.189106
757.703000	-0.619627
757.903000	-0.292733
758.103000	-0.133504
758.303000	-0.435580
758.503000	-0.559619
758.703000	-0.750427
758.903000	-0.798158
759.103000	-0.534211
759.303000	-0.508122
759.502000	-0.500145
759.702000	-0.107270
759.902000	-0.627652
760.102000	-0.503710
760.302000	-0.331128
760.502000	-0.117769
760.702000	0.046402
760.902000	-0.457253
761.101000	-0.963770
761.301000	-1.140644
761.501000	-0.858678
761.701000	-1.055507
761.901000	-0.707989
762.101000	-0.149369
762.301000	-0.434356
762.501000	-0.857623
762.700000	-0.841812
762.900000	-0.595014
763.100000	-0.467054
763.300000	-0.449091
763.500000	-0.708118
763.703000	-0.725577
763.905000	-0.977083
764.108000	-0.281586
764.311000	-0.541277
764.513000	-0.671915
764.716000	-0.503969
764.919000	-0.615223
765.121000	-1.148459
765.324000	-1.222519
765.527000	-0.772714
765.729000	-0.569885
765.932000	0.018282
766.135000	-0.316801
766.337000	-0.469351
766.540000	-0.583011
766.743000	-0.402516
766.945000	-0.955107
767.148000	-1.347572
767.351000	-1.316574
767.553000	-0.311305
767.756000	-0.507699
767.958000	-1.002913
768.161000	-0.776590
768.364000	-1.048940
768.566000	-1.466744
768.769000	-0.971365
768.972000	-0.533551
769.174000	-0.806946
769.377000	-1.018907
769.580000	-1.063099
769.782000	-0.736804
769.985000	-1.160330
770.188000	-1.838568
770.390000	-1.147630
770.593000	0.516955
770.796000	0.284113
770.998000	-0.521885
771.201000	-1.042744
771.404000	-0.586973
771.606000	-0.706736
771.809000	-0.503732
772.012000	-0.611631
772.214000	-1.489617
772.417000	-1.607504
772.620000	-0.503593
772.822000	-0.787047
773.025000	-1.131318
773.228000	-0.864079
773.430000	-0.811559
773.633000	-0.542786
773.836000	-0.705936
774.038000	-0.447768
774.241000	-0.512839
774.444000	-0.579806
774.646000	0.291847
774.849000	-0.296871
775.052000	-0.558722
775.254000	-0.308344
775.457000	-0.646715
775.659000	-0.670165
775.862000	-0.966056
776.065000	-0.770167
776.267000	-0.079127
776.470000	0.295845
776.673000	-0.410935
776.875000	-0.046532
777.078000	-0.157072
777.281000	-1.001531
777.483000	-0.525752
777.686000	-0.180786
777.889000	-0.359728
778.091000	-0.439437
778.294000	-1.289568
778.497000	-0.988595
778.699000	-0.888427
778.902000	-0.801415
779.105000	-0.508798
779.307000	0.268290
779.510000	-0.838302
779.713000	-0.489967
779.915000	-0.685033
780.118000	0.225531
780.321000	0.396874
780.523000	-0.539539
780.726000	-0.928577
780.929000	-1.214031
781.131000	-1.261706
781.334000	-1.588161
781.537000	-1.419746
781.739000	-0.382944
781.942000	-0.810372
782.145000	-1.313512
782.347000	-1.279508
782.550000	-0.989874
782.753000	-0.981471
782.955000	-0.715312
783.158000	-0.960196
783.361000	-0.904016
783.563000	-0.869028
783.766000	-0.554238
783.968000	1.326570
784.171000	0.966412
784.374000	-0.356825
784.576000	-0.474838
784.779000	-0.108498
784.982000	0.270437
785.184000	-0.634442
785.387000	-0.241265
785.590000	0.415422
785.792000	0.237257
785.995000	-0.110409
786.198000	-0.086548
786.400000	-0.678408
786.603000	-0.789048
786.806000	-0.738353
787.008000	-0.267807
787.211000	-0.535126
787.414000	-1.217265
787.616000	-0.795067
787.819000	-0.674710
788.022000	-1.275357
788.224000	-0.321473
788.427000	-1.119654
788.630000	-0.766303
788.832000	-0.593180
789.035000	-1.255735
789.238000	-1.606992
789.440000	-1.132202
789.643000	-0.126365
789.846000	-0.747928
790.048000	-0.139487
790.251000	-0.114606
790.454000	-0.499775
790.656000	0.147242
790.859000	-0.552809
791.062000	-1.092530
791.264000	-0.528289
791.467000	-1.460825
791.669000	-1.815480
791.872000	-0.749052
792.075000	-1.241081
792.277000	-0.963195
792.480000	-0.803212
792.683000	-1.447410
792.885000	-1.550303
793.088000	-1.110329
793.291000	-1.279051
793.493000	-1.511571
793.696000	-0.424736
793.899000	-0.271965
794.101000	-0.684061
794.304000	-1.020678
794.507000	-0.622092
794.709000	-0.597933
794.912000	-1.146102
795.115000	-1.434733
795.317000	-0.952755
795.520000	-0.590885
795.723000	-0.973904
795.925000	-1.409099
796.128000	-1.525439
796.331000	-0.990448
796.533000	-1.402073
796.736000	-0.825302
796.939000	-0.667674
797.141000	-0.736112
797.344000	-0.176195
797.547000	-0.202979
797.749000	-0.657955
797.952000	-0.876349
798.155000	-1.276783
798.357000	-1.689242
798.560000	-1.413839
798.763000	-0.815984
798.965000	-0.991253
799.168000	-0.885495
799.371000	-0.682573
799.573000	-0.766704
799.776000	-1.450996
799.978000	-1.428613
800.181000	-0.552209
800.384000	0.822716
800.586000	-0.071709
800.789000	-1.436310
800.992000	-1.407788
801.194000	-1.466118
801.397000	-1.594476
801.600000	-1.461049
801.802000	-0.211417
802.005000	-0.574875
802.208000	-1.807916
802.410000	-0.729816
802.613000	-0.718995
802.816000	-0.776070
803.018000	-1.454777
803.221000	-1.344509
803.424000	0.237760
803.626000	-0.484762
803.829000	-1.154625
804.032000	-0.202451
804.234000	0.638521
804.437000	-0.675627
804.640000	-0.732269
804.842000	-0.934632
805.045000	-1.342654
805.248000	-0.984339
805.450000	-0.767093
805.653000	-0.829997
805.856000	-1.278424
806.058000	-0.264611
806.261000	-1.052199
806.464000	-1.111603
806.666000	-0.748087
806.869000	-1.179318
807.072000	-2.120191
807.274000	-2.106870
807.477000	-1.079916
807.679000	-0.829806
807.882000	-1.290487
808.085000	-1.001208
808.287000	-0.599530
808.490000	-1.407563
808.693000	-1.273980
808.895000	-0.961050
809.098000	-1.051376
809.301000	-0.814462
809.503000	-0.953824
809.706000	-0.078907
809.909000	0.209374
810.111000	0.042541
810.314000	-0.414201
810.517000	-0.989636
810.719000	-1.453132
810.922000	-1.214028
811.125000	-0.125425
811.327000	-0.156908
811.530000	-0.636298
811.735000	-1.036279
811.940000	-1.177696
812.146000	-1.042968
812.351000	-0.515316
812.556000	-0.672684
812.761000	-1.533964
812.967000	-0.332590
813.172000	0.059552
813.377000	-0.474751
813.582000	-0.113666
813.788000	-0.543641
813.993000	-1.588777
814.198000	-0.701524
814.403000	-1.192880
814.609000	-0.673621
814.814000	-0.724762
815.019000	0.380925
815.224000	-0.051190
815.429000	-1.243175
815.635000	-0.504001
815.840000	-0.585405
816.045000	-0.718033
816.250000	-0.231052
816.456000	-1.502779
816.661000	-2.246497
816.866000	-1.775548
817.071000	-1.708832
817.277000	-2.528612
817.482000	-1.623621
817.687000	-1.011226
817.892000	-1.000334
818.097000	-0.353369
818.303000	-0.020002
818.508000	0.212936
818.713000	1.749415
818.918000	0.581330
819.124000	-0.087089
819.329000	-1.298423
819.534000	-1.116733
819.739000	-1.319271
819.945000	-1.342445
820.150000	-0.634126
820.355000	-0.618279
820.560000	-0.497380
820.766000	-0.310805
820.971000	-0.776341
821.176000	-2.499969
821.381000	-2.578596
821.586000	-1.661436
821.792000	-0.315425
821.997000	-0.367761
822.202000	-0.819594
822.407000	-1.396839
822.613000	-1.556854
822.818000	-1.263434
823.023000	-0.967128
823.228000	-0.832305
823.434000	-0.091622
823.639000	0.173043
823.844000	-1.030368
824.049000	-0.411035
824.255000	-0.092427
824.460000	-0.682149
824.665000	-1.112270
824.870000	-0.398329
825.075000	-0.219178
825.281000	0.122533
825.486000	0.884570
825.691000	-1.492246
825.896000	-2.568340
826.102000	-1.095681
826.307000	-0.915899
826.512000	-1.340529
826.717000	-1.546730
826.923000	-1.551147
827.128000	-0.520644
827.333000	-1.360194
827.538000	-0.861699
827.744000	-0.153314
827.949000	-1.216721
828.154000	-0.734489
828.359000	0.408261
828.564000	-0.399017
828.770000	-1.081044
828.975000	-0.231095
829.180000	-0.422649
829.385000	-1.621441
829.591000	-1.494483
829.796000	-0.618450
830.001000	-0.869794
830.206000	-1.702610
830.412000	-1.585167
830.617000	-1.299034
830.822000	-0.042740
831.027000	-0.604782
831.232000	-1.252006
831.438000	-1.476882
831.643000	-0.809074
831.848000	-1.086659
832.053000	-0.853675
832.259000	-1.032801
832.464000	-3.218213
832.669000	-2.592636
832.874000	-2.031773
833.080000	-1.900978
833.285000	-0.304010
833.490000	-0.544405
833.695000	-1.797084
833.901000	-1.178054
834.106000	-1.706932
834.311000	-1.063779
834.516000	-0.861309
834.721000	-1.194573
834.927000	0.037098
835.132000	-0.499743
835.337000	0.761072
835.542000	-0.420246
835.748000	-2.288184
835.953000	-0.733417
836.158000	-0.776990
836.363000	-1.325347
836.569000	-0.912955
836.774000	-1.634353
836.979000	-1.911890
837.184000	-2.277739
837.390000	-2.090319
837.595000	-1.391588
837.800000	-0.838581
838.005000	-1.231139
838.210000	-1.490065
838.416000	-1.539071
838.621000	-1.044702
838.826000	-1.174030
839.031000	-1.332464
839.237000	-1.561772
839.442000	-2.091551
839.647000	-2.417487
839.852000	-2.009306
840.058000	-1.662783
840.263000	-1.248769
840.468000	-1.806087
840.673000	-1.672801
840.878000	-1.429456
841.084000	-1.706756
841.289000	-0.902680
841.494000	1.623490
841.699000	1.220512
841.905000	0.063688
842.110000	0.109770
842.315000	-1.540047
842.520000	-0.599832
842.726000	-1.060247
842.931000	-1.678510
843.136000	-1.043954
843.341000	-2.703808
843.547000	-1.722993
843.752000	-1.190273
843.957000	-2.137537
844.162000	-1.912191
844.367000	-1.349947
844.573000	-0.668399
844.778000	-0.524796
844.983000	-0.360202
845.188000	-0.433506
845.394000	-2.408221
845.599000	-2.258458
845.804000	-1.953422
846.009000	-0.828434
846.215000	-2.024710
846.420000	-2.274185
846.625000	-1.057562
846.830000	-0.029271
847.036000	-1.696144
847.241000	-2.515623
847.446000	-0.324875
847.651000	-0.771117
847.856000	-2.074938
848.062000	-1.830962
848.267000	0.120099
848.472000	-1.109744
848.677000	-2.422069
848.883000	-1.135626
849.088000	0.324850
849.293000	-0.820423
849.498000	-1.557326
849.704000	-0.515459
849.909000	-0.874970
850.114000	-2.051896
850.319000	-1.056449
850.524000	-1.113825
850.730000	-0.860851
850.935000	-0.916375
851.140000	-0.448955
851.345000	-0.579383
851.551000	-0.397888
851.756000	0.126325
851.961000	-0.691358
852.166000	-1.826978
852.372000	-1.672896
852.577000	-1.018538
852.782000	-1.241187
852.987000	-0.246459
853.193000	-0.623746
853.398000	-0.704613
853.603000	-1.999965
853.808000	-2.756114
854.013000	-1.688070
854.219000	-0.712344
854.424000	1.168191
854.629000	0.787808
854.834000	-1.134527
855.040000	-1.391216
855.245000	-1.303704
855.450000	-2.896770
855.655000	-3.685279
855.861000	-3.374572
856.066000	-2.279212
856.271000	-2.339110
856.476000	-0.739131
856.682000	-1.506609
856.887000	-4.108405
857.092000	-2.018809
857.297000	0.649074
857.502000	-0.005705
857.708000	-0.691631
857.913000	-0.120243
858.118000	-0.728111
858.323000	-1.454705
858.529000	-1.307788
858.734000	-1.746528
858.939000	-1.751676
859.144000	-2.341525
859.350000	-2.487857
859.555000	-2.583510
859.760000	-0.801073
859.965000	-0.035331
860.171000	-1.336562
860.376000	-0.629500
860.581000	-2.655739
860.786000	-4.520564
860.991000	-3.939712
861.197000	-2.856950
861.402000	-0.577844
861.607000	-1.481670
861.812000	-3.151513
862.018000	-2.920716
862.223000	-1.892003
862.428000	-1.321806
862.633000	-0.097956
862.839000	-1.084273
863.044000	-1.714552
863.249000	-2.484311
863.454000	-0.936417
863.659000	-1.250274
863.865000	-2.162912
864.070000	-2.607317
864.275000	-3.176706
864.480000	-2.560561
864.686000	-4.184196
864.891000	-3.300729
865.096000	-1.661122
865.301000	-1.313529
865.507000	-0.583662
865.712000	-1.128766
865.917000	-1.910583
866.122000	-1.268555
866.328000	-4.172221
866.533000	-3.648958
866.738000	-0.560090
866.943000	-0.561271
867.148000	0.616931
867.354000	-2.387873
867.559000	-3.844198
867.764000	-2.400237
867.969000	-0.775179
868.175000	-2.204467
868.380000	-2.913955
868.585000	-3.486577
868.790000	-1.148297
868.996000	-1.426269
869.201000	-3.395416
869.406000	-3.954581
869.611000	-3.380806
869.817000	-3.138748
870.022000	1.018317
870.227000	-0.657708
870.432000	-2.588705
870.637000	-1.419902
870.843000	-2.121429
871.048000	-2.157135
871.253000	-0.458049
871.458000	-1.262541
871.664000	-4.008253
871.869000	-3.714182
872.074000	-2.663002
872.279000	-1.883025
872.485000	-2.607626
872.690000	-2.511598
872.895000	-2.845310
873.100000	-3.639971
873.306000	-3.294237
873.511000	-2.007772
873.716000	-0.226005
873.921000	-1.970564
874.126000	-2.774834
874.332000	-2.250565
874.537000	-0.709552
874.742000	-0.817772
874.947000	-0.821241
875.153000	0.739329
875.358000	-1.092880
875.563000	-2.213648
875.768000	-4.851412
875.974000	-4.795940
876.179000	-1.480876
876.384000	-1.412151
876.589000	-2.957147
876.794000	-2.500329
877.000000	-3.154855
877.205000	-3.955820
877.410000	-2.203363
877.615000	-4.007030
877.821000	-5.206455
878.026000	-3.307065
878.231000	-3.539154
878.436000	-4.672374
878.642000	-3.961007
878.847000	-2.400724
879.052000	-0.634580
879.257000	-2.576192
879.463000	-4.162417
879.668000	-2.422218
879.873000	0.270206
880.078000	-3.553156
880.283000	-5.406471
880.489000	-5.446342
880.694000	-5.349521
880.899000	-3.042933
881.104000	-1.917681
881.310000	0.357525
881.515000	-0.495090
881.720000	0.398652
881.925000	2.364491
882.131000	4.369263
882.336000	0.568911
882.541000	-3.332283
882.746000	-3.682757
882.952000	-4.053831
883.157000	-3.687538
883.362000	-4.530665
883.567000	-4.633727
883.772000	-3.615781
883.978000	-2.812521
884.183000	-0.732406
884.388000	-1.197999
884.593000	-4.598431
884.799000	-0.563501
885.004000	-0.874508
885.209000	-2.607326
885.414000	-1.432999
885.620000	-3.182357
885.825000	-0.534204
886.030000	-1.319789
886.235000	-3.350516
886.440000	-2.979391
886.646000	-5.302429
886.851000	-5.284390
887.056000	-0.905979
887.261000	-1.400454
887.467000	-4.560987
887.672000	-1.461112
887.877000	-2.198286
888.082000	-4.637519
888.288000	-5.305469
888.493000	-8.224066
888.698000	-6.104428
888.903000	-2.323973
889.109000	-3.612715
889.314000	-1.211086
889.519000	-2.818194
889.724000	-1.115986
889.929000	-2.548529
890.135000	-2.833144
890.340000	-3.274036
890.545000	-4.671067
890.750000	-6.503474
890.956000	-4.040703
891.161000	-1.039141
891.366000	-3.107460
891.571000	-2.126690
891.777000	-2.552525
891.982000	-0.813983
892.187000	-1.530383
892.392000	-0.625870
892.598000	0.133518
892.803000	-0.971753
893.008000	-3.085382
893.213000	-3.268961
893.418000	-3.871239
893.624000	-4.424294
893.829000	-5.105670
894.034000	-2.636095
894.239000	-2.160306
894.445000	-4.642190
894.650000	-4.469556
894.855000	-3.739089
895.060000	-3.732848
895.266000	-4.101804
895.471000	-5.978751
895.676000	-3.277023
895.881000	-1.957176
896.087000	-3.405745
896.292000	-4.784986
896.497000	-0.818250
896.702000	-3.028471
896.907000	-4.645446
897.113000	0.495592
897.318000	-0.111199
897.523000	-1.125057
897.728000	-2.452095
897.934000	-2.900577
898.139000	-3.315369
898.344000	-0.574863
898.549000	-1.765383
898.755000	-3.318657
898.960000	-5.055536
899.165000	-6.046474
899.370000	-2.727702
899.575000	0.827733
899.781000	-4.318535
899.986000	-5.474633
900.191000	-2.654338
900.396000	-2.286863
900.602000	-2.726628
900.807000	-3.335837
901.012000	-2.493881
901.217000	-1.147219
901.423000	-4.271146
901.628000	-5.151191
901.833000	-0.554662
902.038000	-0.832980
902.244000	-4.765561
902.449000	-3.474277
902.654000	-2.233196
902.859000	-1.840013
903.064000	-1.180580
903.270000	-1.296602
903.475000	-5.212756
903.680000	-6.827777
903.885000	-6.262693
904.091000	-5.502393
904.296000	-5.922104
904.501000	-5.774425
904.706000	-5.392304
904.912000	-1.226656
905.117000	-2.800592
905.322000	-5.107762
905.527000	-5.025771
905.733000	-4.562338
905.938000	-4.003820
906.143000	-5.002533
906.348000	-7.503874
906.553000	-2.467332
906.759000	-0.490764
906.964000	-2.117151
907.169000	-3.217809
907.374000	-6.288470
907.580000	-4.562489
907.785000	-3.406773
907.990000	25.519679
908.195000	17.080473
908.401000	-0.885824
908.606000	-8.166768
908.811000	-9.349238
909.016000	-3.016331
909.221000	-2.711994
909.427000	-3.674461
909.632000	-5.553716
909.837000	-4.438020
910.042000	-5.930213
910.248000	-8.480552
910.453000	-4.754310
910.658000	-5.641334
910.863000	-6.812231
911.069000	-8.214964
911.274000	-3.516338
911.479000	-0.545327
911.684000	-7.122844
911.890000	-4.965935
912.095000	-5.173084
912.300000	-8.786769
912.506000	-5.820416
912.711000	-5.140945
912.917000	-2.408548
913.123000	-3.095558
913.328000	-4.010501
913.534000	-2.726010
913.740000	7.268995
913.946000	2.589954
914.151000	-5.864632
914.357000	-6.881488
914.563000	-2.338643
914.768000	-5.551746
914.974000	-7.762869
915.180000	-6.751727
915.385000	-6.196911
915.591000	-8.379942
915.797000	-3.106759
916.002000	0.355714
916.208000	-3.998531
916.414000	-7.025798
916.620000	-8.087231
916.825000	-3.314005
917.031000	-4.291979
917.237000	-10.636618
917.442000	-6.411289
917.648000	-6.691829
917.854000	-7.224244
918.059000	-1.559801
918.265000	-2.714665
918.471000	-4.046112
918.676000	-7.222916
918.882000	-9.793998
919.088000	-7.204895
919.294000	-12.673880
919.499000	-9.555092
919.705000	-2.917597
919.911000	-2.192132
920.116000	0.309319
920.322000	-6.474260
920.528000	-5.769252
920.733000	-7.933042
920.939000	-9.053518
921.145000	-8.365141
921.350000	-7.373191
921.556000	-4.961573
921.762000	-6.139626
921.968000	-7.095216
922.173000	-8.773916
922.379000	-11.711558
922.585000	-6.559931
922.790000	-6.571556
922.996000	-8.031833
923.202000	-8.039770
923.407000	-7.910715
923.613000	-7.113051
923.819000	-5.427984
924.024000	-5.304876
924.230000	-2.362579
924.436000	-5.825845
924.642000	6.320928
924.847000	1.281016
925.053000	-8.827905
925.259000	-12.089901
925.464000	-3.850653
925.670000	-3.567374
925.876000	-8.707434
926.081000	-9.323806
926.287000	-4.396024
926.493000	-4.086242
926.698000	-4.868993
926.904000	-1.658030
927.110000	-4.286302
927.316000	-4.304383
927.521000	0.964092
927.727000	-6.011333
927.933000	-7.842612
928.138000	-5.358732
928.344000	-11.942365
928.550000	-7.163766
928.755000	-1.052842
928.961000	-6.922612
929.167000	-6.239312
929.372000	0.603515
929.578000	-0.546064
929.784000	-4.675519
929.990000	-10.435485
930.195000	-9.184514
930.401000	-7.106035
930.607000	-5.724356
930.812000	-4.367823
931.018000	-5.258760
931.224000	-11.410258
931.429000	-8.018732
931.635000	-12.545108
931.841000	-13.003566
932.046000	-7.879960
932.252000	-4.988523
932.458000	1.571580
932.664000	-1.750501
932.869000	-6.940154
933.075000	-10.585588
933.281000	-10.500801
933.486000	-4.556322
933.692000	-3.378729
933.898000	-9.182455
934.103000	-4.857332
934.309000	-8.537048
934.515000	-5.918686
934.720000	-2.290047
934.926000	0.228388
935.132000	-1.295239
935.338000	-4.004832
935.543000	-9.921353
935.749000	-9.882989
935.955000	-14.021312
936.160000	-15.118655
936.366000	-3.656166
936.572000	-1.946349
936.777000	-2.685548
936.983000	-4.234062
937.189000	-6.386765
937.394000	-10.339748
937.600000	-0.748148
937.806000	2.579623
938.012000	-9.009312
938.217000	4.567870
938.423000	1.463780
938.629000	-7.499227
938.834000	-12.066631
939.040000	-12.481526
939.246000	-8.616114
939.451000	-10.432422
939.657000	-3.010161
939.863000	-10.843519
940.068000	-3.885030
940.274000	-8.275770
940.480000	-5.929069
940.686000	-2.701808
940.891000	-7.805725
941.097000	17.956516
941.303000	7.222220
941.508000	-5.635055
941.714000	-5.153743
941.920000	-18.015146
942.125000	-8.028137
942.331000	-5.272263
942.537000	-1.779351
942.742000	-1.268773
942.948000	-10.433643
943.154000	-14.645620
943.360000	-25.656416
943.565000	-11.540389
943.771000	0.871041
943.977000	4.649856
944.182000	-16.048712
944.388000	-17.925371
944.594000	-1.318433
944.799000	4.772311
945.005000	-2.400765
945.211000	2.334922
945.416000	-3.741650
945.622000	-17.492972
945.828000	-15.616966
946.034000	-4.998249
946.239000	-4.450638
946.445000	-7.404012
946.651000	-19.024620
946.856000	-20.203974
947.062000	-3.064065
947.268000	-0.038093
947.473000	-18.014788
947.679000	-20.433322
947.885000	-5.442642
948.090000	-1.398146
948.296000	8.056839
948.502000	-1.595949
948.708000	-11.622575
948.913000	-15.137829
949.119000	-1.826994
949.325000	-7.193386
949.530000	-19.128652
949.736000	-25.205688
949.942000	-19.185534
950.147000	-17.138163
950.353000	-13.838575
950.559000	-9.705143
950.764000	8.123270
950.970000	-1.443292
951.176000	-14.438173
951.382000	-18.047490
951.587000	-7.755443
951.793000	-0.251829
951.999000	-1.282620
952.204000	-14.664535
952.410000	-26.127826
952.616000	-12.982753
952.821000	-10.172420
953.027000	-18.888964
953.233000	-21.969350
953.438000	-21.490559
953.644000	0.382082
953.850000	-2.803807
954.056000	-8.414559
954.261000	-8.682844
954.467000	-2.641266
954.673000	0.172835
954.878000	-8.714824
955.084000	-6.772101
955.290000	-23.579988
955.495000	-23.867476
955.701000	-19.880072
955.907000	2.175366
956.112000	-0.044400
956.318000	5.236590
956.524000	3.961560
956.730000	-11.122161
956.935000	-16.824409
957.141000	-23.240997
957.347000	-5.987206
957.552000	-9.633432
957.758000	-27.686585
957.964000	-35.813637
958.169000	0.417378
958.375000	1.581645
958.581000	-11.032104
958.786000	-25.547178
958.992000	-34.628429
959.198000	-13.190001
959.404000	-6.714449
959.609000	-18.195389
959.815000	-20.958424
960.021000	0.678884
960.226000	-0.048921
960.432000	-28.474871
960.638000	-21.201840
960.843000	-18.149150
961.049000	-20.551211
961.255000	-6.823105
961.460000	-20.010314
961.666000	-35.702322
961.872000	-21.668942
962.078000	-23.982285
962.283000	-33.447996
962.489000	-28.909077
962.695000	-13.663638
962.900000	-15.114258
963.106000	-15.802802
963.312000	-19.996874
963.517000	-21.473879
963.723000	-23.083018
963.929000	-4.637896
964.134000	4.521172
964.340000	-20.736130
964.546000	-18.730794
964.752000	-19.099784
964.957000	-31.513466
965.163000	-7.632343
965.369000	-4.889686
965.574000	-8.386856
965.780000	-10.406081
966.000000	-19.908495
966.220000	-15.975759
966.440000	-14.605558
966.661000	-2.692904
966.881000	-19.143149
967.101000	-37.898546
967.321000	-40.056471
967.541000	-18.799893
967.761000	-21.123906
967.981000	-11.787614
968.202000	-11.142337
968.422000	-0.370842
968.642000	-4.682888
968.862000	-8.555042
969.082000	-17.805973
969.302000	-2.682608
969.522000	-7.459844
969.743000	5.573457
969.963000	-16.385001
970.183000	-33.034235
970.403000	-30.299572
970.623000	-31.561464
970.843000	-8.992608
971.063000	-7.117117
971.284000	-26.750004
971.504000	-34.709633
971.724000	-23.399384
971.944000	-33.460842
972.164000	-39.289596
972.384000	-23.202231
972.604000	-38.243143
972.825000	-42.372813
973.045000	-29.761586
973.265000	21.662864
973.485000	6.822388
973.705000	-25.252993
973.925000	-25.264568
974.145000	-50.936729
974.365000	-15.252275
974.586000	-14.960028
974.806000	-39.536712
975.026000	-7.739806
975.246000	-13.338339
975.466000	-24.092460
975.686000	-16.855619
975.906000	-24.888566
976.127000	-47.182405
976.347000	-42.662348
976.567000	-12.827854
976.787000	-14.066277
977.007000	-20.194623
977.227000	-25.636400
977.447000	-32.288458
977.668000	-53.877495
977.888000	-41.811844
978.108000	-41.755255
978.328000	-29.343739
978.548000	-9.831805
978.768000	0.345347
978.988000	-5.501934
979.209000	-24.332030
979.429000	-20.408422
979.649000	-4.943570
979.869000	-31.266635
980.089000	-53.065735
980.309000	-56.273389
980.529000	-64.308907
980.750000	-32.630576
980.970000	-42.789141
981.190000	-40.452972
981.410000	-34.898618
981.630000	-34.425961
981.850000	-20.529009
982.070000	-9.754095
982.291000	-45.053029
982.511000	-48.803883
982.731000	-16.120491
982.951000	-33.864777
983.171000	-23.547176
983.391000	-20.796659
983.611000	5.137236
983.832000	-33.314828
984.052000	-55.493049
984.272000	-29.330635
984.492000	-24.575315
984.712000	-48.218940
984.932000	-70.038836
985.152000	-66.877168
985.373000	-42.324540
985.593000	-7.474961
985.813000	-35.948332
986.033000	-64.613953
986.253000	-12.659520
986.473000	-0.113565
986.693000	-37.535536
986.914000	-47.852076
987.134000	1.713269
987.354000	-26.269233
987.574000	167.850667
987.794000	98.835720
988.014000	-55.145168
988.234000	-35.470789
988.455000	-11.369229
988.675000	-9.433214
988.895000	-21.449455
989.115000	-37.024187
989.335000	-30.588497
989.555000	-17.698595
989.775000	-44.846903
989.995000	-46.647411
990.216000	-22.576919
990.436000	-18.820485
990.656000	7.171775
990.876000	-30.937009
991.096000	-34.471090
991.316000	7.090508
991.536000	-34.410865
991.757000	-49.252434
991.977000	-85.803580
992.197000	-29.530104
992.417000	-39.569615
992.637000	-89.654841
992.857000	-92.949307
993.077000	-84.618741
993.298000	-65.989300
993.518000	-41.940626
993.738000	-82.382679
993.958000	-72.368069
994.178000	-81.098728
994.398000	-67.762955
994.618000	-104.812613
994.839000	-138.903826
995.059000	-36.398733
995.279000	6.242623
995.499000	-23.294785
995.719000	-13.537673
995.939000	-54.623300
996.159000	-42.130881
996.380000	-36.213404
996.600000	-75.178530
996.820000	-57.493643
997.040000	-12.823456
997.260000	-62.384475
997.480000	-41.664165
997.700000	-113.153122
997.921000	-76.868635
998.141000	17.449889
998.361000	-4.158234
998.581000	-56.193970
998.801000	-94.757548
999.021000	-76.925521
999.241000	-56.977904
999.462000	-63.243336
999.682000	-101.973853
999.902000	-56.431162
1000.122000	-85.322311
1000.342000	-157.715707
1000.562000	-87.560648
1000.782000	-78.313897
1001.003000	-1124.963458
