Wavelength	Irradiance
(nm)	(mW/cm2/nm)

294.396000	0.000000
294.577000	0.000000
294.757000	0.000000
294.938000	-0.000000
295.118000	0.000000
295.299000	0.000000
295.479000	-0.000000
295.660000	-0.000000
295.840000	-0.000000
296.021000	-0.000000
296.202000	-0.000000
296.382000	-0.000000
296.563000	-0.000000
296.743000	-0.000000
296.924000	0.000000
297.104000	-0.000000
297.285000	-0.000000
297.465000	-0.000000
297.646000	-0.000000
297.826000	-0.000000
298.007000	0.000000
298.187000	0.000000
298.368000	-0.000000
298.548000	0.000000
298.729000	0.000000
298.909000	-0.000000
299.090000	-0.000000
299.270000	-0.000000
299.451000	-0.000000
299.631000	-0.000000
299.812000	-0.000000
299.992000	0.000000
300.173000	0.000000
300.353000	-0.000000
300.534000	-0.000000
300.714000	0.000000
300.895000	0.000000
301.075000	-0.000000
301.256000	0.000000
301.436000	-0.000000
301.617000	-0.000000
301.797000	-0.000000
301.978000	-0.000000
302.159000	0.000000
302.339000	0.000000
302.520000	-0.000000
302.700000	-0.000000
302.881000	0.000000
303.061000	0.000000
303.242000	0.000000
303.422000	0.000000
303.603000	-0.000000
303.783000	-0.000000
303.964000	-0.000000
304.144000	-0.000000
304.325000	-0.000000
304.505000	0.000000
304.686000	-0.000000
304.866000	0.000000
305.047000	-0.000000
305.227000	-0.000000
305.408000	-0.000000
305.588000	-0.000000
305.769000	-0.000000
305.949000	-0.000000
306.130000	-0.000000
306.310000	-0.000000
306.491000	-0.000000
306.671000	0.000000
306.852000	-0.000000
307.032000	-0.000000
307.213000	-0.000000
307.393000	-0.000000
307.574000	0.000000
307.755000	0.000000
307.935000	0.000000
308.116000	-0.000000
308.296000	-0.000000
308.477000	0.000000
308.657000	0.000000
308.838000	0.000000
309.018000	0.000000
309.199000	-0.000000
309.379000	-0.000000
309.560000	0.000000
309.740000	-0.000000
309.921000	-0.000000
310.101000	0.000000
310.282000	-0.000000
310.462000	-0.000000
310.643000	-0.000000
310.823000	-0.000000
311.004000	-0.000000
311.184000	-0.000000
311.365000	0.000000
311.545000	0.000000
311.726000	0.000000
311.906000	-0.000000
312.087000	0.000000
312.267000	-0.000000
312.448000	-0.000000
312.628000	-0.000000
312.809000	-0.000000
312.989000	-0.000000
313.170000	-0.000000
313.344000	-0.000000
313.518000	-0.000000
313.691000	-0.000000
313.865000	-0.000000
314.039000	-0.000000
314.213000	-0.000000
314.387000	-0.000000
314.560000	-0.000000
314.734000	-0.000000
314.908000	-0.000000
315.082000	-0.000000
315.255000	0.000000
315.429000	0.000000
315.603000	0.000000
315.777000	-0.000000
315.951000	0.000000
316.124000	-0.000000
316.298000	-0.000000
316.472000	-0.000000
316.646000	-0.000000
316.820000	-0.000000
316.993000	-0.000000
317.167000	-0.000000
317.341000	-0.000000
317.515000	-0.000000
317.688000	-0.000000
317.862000	-0.000000
318.036000	-0.000000
318.210000	-0.000000
318.384000	-0.000000
318.557000	-0.000000
318.731000	-0.000000
318.905000	-0.000000
319.079000	0.000000
319.253000	-0.000000
319.426000	0.000000
319.600000	0.000000
319.774000	-0.000000
319.948000	-0.000000
320.122000	0.000000
320.295000	-0.000000
320.469000	-0.000000
320.643000	-0.000000
320.817000	-0.000000
320.990000	-0.000000
321.164000	-0.000000
321.338000	-0.000000
321.512000	-0.000000
321.686000	-0.000000
321.859000	-0.000000
322.033000	-0.000000
322.207000	-0.000000
322.381000	-0.000000
322.555000	0.000000
322.728000	-0.000000
322.902000	-0.000000
323.076000	-0.000000
323.250000	-0.000000
323.423000	-0.000000
323.597000	-0.000000
323.771000	-0.000000
323.945000	-0.000000
324.119000	-0.000000
324.292000	0.000000
324.466000	-0.000000
324.640000	0.000000
324.814000	0.000000
324.988000	-0.000000
325.161000	-0.000000
325.335000	-0.000000
325.509000	-0.000000
325.683000	-0.000000
325.856000	-0.000000
326.030000	-0.000000
326.204000	-0.000000
326.378000	-0.000000
326.552000	-0.000000
326.725000	-0.000000
326.899000	-0.000000
327.073000	-0.000000
327.247000	-0.000000
327.421000	0.000000
327.594000	-0.000000
327.768000	-0.000000
327.942000	-0.000000
328.116000	0.000000
328.289000	0.000000
328.463000	-0.000000
328.637000	0.000000
328.811000	-0.000000
328.985000	-0.000000
329.158000	-0.000000
329.332000	-0.000000
329.506000	0.000000
329.680000	-0.000000
329.854000	-0.000000
330.027000	0.000000
330.201000	0.000000
330.375000	0.000000
330.549000	0.000000
330.723000	-0.000000
330.896000	-0.000000
331.070000	-0.000000
331.244000	-0.000000
331.418000	-0.000000
331.591000	-0.000000
331.765000	-0.000000
331.939000	-0.000000
332.113000	-0.000000
332.287000	-0.000000
332.460000	0.000000
332.634000	0.000000
332.808000	-0.000000
332.982000	-0.000000
333.156000	-0.000000
333.329000	-0.000000
333.503000	-0.000000
333.677000	-0.000000
333.851000	-0.000000
334.024000	-0.000000
334.198000	-0.000000
334.372000	-0.000000
334.546000	-0.000000
334.720000	-0.000000
334.893000	-0.000000
335.067000	-0.000000
335.241000	-0.000000
335.415000	-0.000000
335.589000	-0.000000
335.762000	-0.000000
335.936000	-0.000000
336.110000	-0.000000
336.284000	-0.000000
336.458000	-0.000000
336.631000	-0.000000
336.805000	-0.000000
336.979000	-0.000000
337.153000	-0.000000
337.326000	-0.000000
337.500000	-0.000000
337.674000	-0.000000
337.848000	-0.000000
338.022000	-0.000000
338.195000	-0.000000
338.369000	-0.000000
338.543000	-0.000000
338.717000	-0.000000
338.891000	-0.000000
339.064000	0.000000
339.238000	-0.000000
339.412000	-0.000000
339.586000	-0.000000
339.759000	-0.000000
339.933000	-0.000000
340.107000	0.000000
340.281000	-0.000000
340.455000	-0.000000
340.628000	-0.000000
340.802000	-0.000000
340.976000	-0.000000
341.150000	-0.000000
341.324000	-0.000000
341.497000	-0.000000
341.671000	-0.000000
341.845000	-0.000000
342.019000	-0.000000
342.192000	-0.000000
342.366000	-0.000000
342.540000	-0.000000
342.714000	-0.000000
342.888000	-0.000000
343.061000	-0.000000
343.235000	-0.000000
343.409000	-0.000000
343.583000	-0.000000
343.757000	-0.000000
343.930000	-0.000000
344.104000	-0.000000
344.278000	0.000000
344.452000	0.000000
344.626000	-0.000000
344.799000	-0.000000
344.973000	-0.000000
345.147000	-0.000000
345.321000	-0.000000
345.494000	-0.000000
345.668000	0.000000
345.842000	0.000000
346.016000	-0.000000
346.190000	0.000000
346.363000	0.000000
346.537000	-0.000000
346.711000	-0.000000
346.885000	-0.000000
347.059000	-0.000000
347.232000	-0.000000
347.406000	0.000000
347.580000	-0.000000
347.754000	-0.000000
347.927000	0.000000
348.101000	0.000000
348.275000	-0.000000
348.449000	-0.000000
348.623000	-0.000000
348.796000	0.000000
348.970000	0.000000
349.144000	-0.000000
349.318000	-0.000000
349.492000	-0.000000
349.665000	-0.000000
349.839000	-0.000000
350.013000	-0.000000
350.187000	-0.000000
350.361000	-0.000000
350.534000	-0.000000
350.708000	-0.000000
350.882000	-0.000000
351.056000	0.000000
351.229000	0.000000
351.403000	-0.000000
351.577000	-0.000000
351.751000	-0.000000
351.925000	-0.000000
352.098000	-0.000000
352.272000	-0.000000
352.446000	-0.000000
352.620000	-0.000000
352.794000	-0.000000
352.967000	-0.000000
353.141000	0.000000
353.315000	0.000000
353.489000	-0.000000
353.662000	-0.000000
353.836000	-0.000000
354.010000	-0.000000
354.184000	-0.000000
354.358000	-0.000000
354.531000	-0.000000
354.705000	-0.000000
354.879000	-0.000000
355.053000	-0.000000
355.227000	-0.000000
355.400000	-0.000000
355.574000	0.000000
355.748000	0.000000
355.922000	-0.000000
356.095000	-0.000000
356.269000	-0.000000
356.443000	-0.000000
356.617000	-0.000000
356.791000	-0.000000
356.964000	-0.000000
357.138000	-0.000000
357.312000	-0.000000
357.486000	-0.000000
357.660000	-0.000000
357.833000	0.000000
358.007000	-0.000000
358.181000	-0.000000
358.355000	-0.000000
358.529000	-0.000000
358.702000	-0.000000
358.876000	-0.000000
359.050000	-0.000000
359.224000	-0.000000
359.397000	0.000000
359.571000	-0.000000
359.745000	-0.000000
359.919000	-0.000000
360.093000	-0.043482
360.266000	0.041272
360.440000	0.099746
360.614000	0.073118
360.788000	0.036637
360.962000	-0.185786
361.135000	-0.028873
361.309000	-0.160052
361.483000	-0.348200
361.657000	-0.324178
361.830000	-0.216953
362.004000	-0.023818
362.178000	-0.332662
362.352000	-0.202490
362.526000	-0.005342
362.699000	-0.058733
362.873000	-0.448841
363.047000	-0.429183
363.221000	-0.401140
363.395000	-0.227726
363.568000	-0.222555
363.742000	-0.217319
363.916000	-0.186262
364.090000	-0.293745
364.263000	-0.301600
364.437000	-0.378373
364.611000	-0.099122
364.785000	-0.077025
364.959000	-0.221096
365.132000	-0.219223
365.306000	-0.221505
365.480000	-0.126017
365.656000	-0.232561
365.831000	-0.258723
366.007000	-0.210280
366.183000	-0.192633
366.358000	-0.353716
366.534000	-0.281889
366.710000	-0.449236
366.886000	-0.340316
367.061000	-0.148024
367.237000	0.042330
367.413000	-0.074800
367.588000	-0.354719
367.764000	-0.397247
367.940000	-0.363829
368.115000	-0.257359
368.291000	-0.292711
368.467000	-0.182415
368.643000	0.102336
368.818000	-0.249566
368.994000	-0.365267
369.170000	-0.326484
369.345000	-0.267906
369.521000	-0.284671
369.697000	-0.187705
369.872000	-0.210432
370.048000	-0.315819
370.224000	-0.263626
370.399000	-0.545223
370.575000	-0.427257
370.751000	-0.443257
370.927000	-0.476835
371.102000	-0.481202
371.278000	-0.456985
371.454000	-0.342303
371.629000	0.001083
371.805000	-0.063858
371.981000	0.037601
372.156000	0.196842
372.332000	0.036549
372.508000	-0.013359
372.683000	-0.117362
372.859000	-0.150729
373.035000	-0.170614
373.211000	0.162399
373.386000	-0.068390
373.562000	-0.468949
373.738000	-0.490139
373.913000	-0.571691
374.089000	-0.478737
374.265000	-0.093802
374.440000	-0.020989
374.616000	0.041519
374.792000	-0.209823
374.968000	0.133522
375.143000	-0.052972
375.319000	-0.276422
375.495000	-0.348308
375.670000	-0.264636
375.846000	-0.223437
376.022000	-0.405076
376.197000	-0.245690
376.373000	-0.430744
376.549000	-0.407927
376.724000	-0.422152
376.900000	-0.346822
377.076000	-0.219765
377.252000	0.011522
377.427000	0.081869
377.603000	-0.279929
377.779000	-0.258683
377.954000	-0.366882
378.130000	-0.205204
378.306000	-0.178958
378.481000	-0.262589
378.657000	-0.282236
378.833000	-0.320167
379.009000	-0.204290
379.184000	-0.051810
379.360000	-0.107255
379.536000	-0.079964
379.711000	-0.185146
379.887000	-0.284752
380.063000	-0.243328
380.238000	-0.248555
380.414000	-0.044394
380.590000	-0.344830
380.765000	-0.364874
380.941000	-0.138127
381.117000	-0.102675
381.293000	-0.202456
381.468000	-0.353677
381.644000	-0.272416
381.820000	-0.192971
381.995000	-0.138887
382.171000	0.155712
382.347000	0.144992
382.522000	-0.351542
382.698000	-0.040639
382.874000	0.039191
383.050000	-0.285233
383.225000	0.032416
383.401000	0.231854
383.577000	-0.115166
383.752000	-0.289096
383.928000	-0.219523
384.104000	-0.228556
384.279000	-0.320658
384.455000	-0.181051
384.631000	-0.177875
384.806000	-0.338088
384.982000	-0.074747
385.158000	-0.186569
385.334000	-0.128977
385.509000	-0.146692
385.685000	-0.438628
385.861000	-0.309548
386.036000	-0.449836
386.212000	-0.573125
386.388000	-0.370964
386.563000	-0.319166
386.739000	-0.277792
386.915000	-0.471556
387.090000	-0.314217
387.266000	-0.102534
387.442000	0.001035
387.618000	-0.067410
387.793000	-0.337184
387.969000	-0.502585
388.145000	-0.363562
388.320000	-0.361130
388.496000	-0.395789
388.672000	-0.625531
388.847000	-0.114760
389.023000	-0.115499
389.199000	-0.408939
389.375000	-0.172179
389.550000	-0.285462
389.726000	-0.188200
389.902000	-0.351684
390.077000	-0.166037
390.253000	-0.162109
390.429000	-0.289544
390.604000	-0.141563
390.780000	-0.161127
390.956000	-0.287251
391.131000	-0.326847
391.307000	0.011048
391.483000	-0.139549
391.659000	-0.358240
391.834000	-0.149434
392.010000	-0.279433
392.186000	-0.349907
392.361000	-0.253535
392.537000	-0.410312
392.713000	0.000988
392.888000	0.291173
393.064000	-0.055266
393.240000	-0.246585
393.416000	-0.310682
393.591000	-0.369101
393.767000	-0.429941
393.943000	-0.375446
394.118000	0.007487
394.294000	0.199406
394.470000	0.046398
394.645000	0.043016
394.821000	0.231942
394.997000	-0.134806
395.172000	-0.195194
395.348000	-0.282574
395.524000	-0.484886
395.700000	-0.359090
395.875000	-0.168225
396.051000	-0.187133
396.227000	-0.175681
396.402000	-0.221817
396.578000	-0.185824
396.754000	-0.354578
396.929000	-0.289219
397.105000	-0.021333
397.281000	-0.107266
397.457000	-0.291028
397.632000	-0.228297
397.808000	-0.438327
397.984000	-0.553705
398.159000	-0.478478
398.335000	-0.366541
398.511000	0.013597
398.686000	-0.103295
398.862000	-0.325362
399.038000	-0.443443
399.213000	-0.154802
399.389000	-0.416343
399.565000	-0.174266
399.741000	0.097818
399.916000	0.013568
400.092000	0.230157
400.268000	-0.104945
400.443000	-0.257455
400.619000	0.117321
400.795000	0.067242
400.970000	-0.210895
401.146000	-0.246121
401.322000	0.092250
401.497000	0.419382
401.673000	0.083170
401.849000	-0.270117
402.025000	-0.061829
402.200000	-0.152431
402.376000	-0.280638
402.552000	0.161162
402.727000	-0.039711
402.903000	-0.373498
403.079000	-0.289445
403.254000	0.044689
403.430000	0.019557
403.606000	-0.117222
403.782000	-0.207133
403.957000	-0.366549
404.133000	-0.489266
404.309000	-0.289350
404.484000	-0.076822
404.660000	-0.070799
404.841000	-0.183191
405.023000	0.069213
405.204000	-0.042647
405.385000	-0.371196
405.566000	-0.394432
405.748000	-0.190937
405.929000	0.086303
406.110000	-0.014686
406.292000	-0.141375
406.473000	-0.064195
406.654000	-0.305394
406.835000	-0.139247
407.017000	-0.116998
407.198000	-0.091143
407.379000	-0.100072
407.560000	-0.164853
407.742000	-0.172319
407.923000	-0.123501
408.104000	-0.308681
408.286000	-0.104127
408.467000	-0.032979
408.648000	-0.311334
408.829000	-0.371856
409.011000	-0.187240
409.192000	-0.308741
409.373000	-0.104218
409.555000	0.025672
409.736000	-0.023657
409.917000	-0.144011
410.098000	-0.124678
410.280000	-0.050787
410.461000	-0.078019
410.642000	-0.017336
410.823000	0.162045
411.005000	0.089193
411.186000	-0.099609
411.367000	-0.206403
411.549000	-0.221487
411.730000	0.019188
411.911000	0.152942
412.092000	-0.087005
412.274000	-0.170592
412.455000	-0.014170
412.636000	0.088418
412.818000	-0.173427
412.999000	-0.294654
413.180000	-0.209335
413.361000	-0.179969
413.543000	-0.202995
413.724000	-0.262291
413.905000	-0.286226
414.087000	-0.256854
414.268000	-0.194753
414.449000	-0.212936
414.630000	-0.255503
414.812000	-0.382923
414.993000	-0.075809
415.174000	0.092372
415.355000	-0.061467
415.537000	-0.327258
415.718000	-0.031664
415.899000	-0.090580
416.081000	-0.195988
416.262000	0.053661
416.443000	-0.075171
416.624000	-0.039979
416.806000	0.003801
416.987000	0.200653
417.168000	0.149808
417.350000	-0.028320
417.531000	-0.100699
417.712000	-0.077477
417.893000	0.143004
418.075000	0.263841
418.256000	0.018259
418.437000	0.029972
418.618000	0.145840
418.800000	0.255615
418.981000	0.046952
419.162000	0.129645
419.344000	0.343668
419.525000	0.215193
419.706000	0.183537
419.887000	0.382832
420.069000	0.492273
420.250000	0.327421
420.431000	0.214195
420.613000	0.221003
420.794000	0.079224
420.975000	0.405811
421.156000	0.219555
421.338000	0.184874
421.519000	0.196335
421.700000	0.205567
421.882000	0.222826
422.063000	0.345928
422.244000	0.836273
422.425000	0.695869
422.607000	0.308481
422.788000	0.281054
422.969000	0.193053
423.150000	0.187534
423.332000	0.172675
423.513000	0.388681
423.694000	0.445591
423.876000	0.510459
424.057000	0.625719
424.238000	0.677204
424.419000	0.705263
424.601000	0.563156
424.782000	0.603123
424.963000	0.747432
425.145000	0.648700
425.326000	0.677451
425.507000	0.799548
425.688000	0.789226
425.870000	0.673934
426.051000	0.577518
426.232000	0.623369
426.413000	0.702061
426.595000	0.732831
426.776000	0.669372
426.957000	0.770231
427.139000	0.910441
427.320000	1.003809
427.501000	1.132132
427.682000	1.066137
427.864000	1.125961
428.045000	1.305285
428.226000	1.260720
428.408000	0.973068
428.589000	1.179256
428.770000	1.251320
428.951000	1.160236
429.133000	1.036607
429.314000	1.326583
429.495000	1.313635
429.677000	1.338293
429.858000	1.465619
430.039000	1.558996
430.220000	1.596511
430.402000	1.768575
430.583000	1.549442
430.764000	1.594592
430.945000	1.803374
431.127000	1.963513
431.308000	1.833107
431.489000	2.027785
431.671000	2.130160
431.852000	2.033803
432.033000	2.022700
432.214000	2.128956
432.396000	2.258635
432.577000	2.170396
432.758000	2.074186
432.940000	2.176660
433.121000	2.383507
433.302000	2.471394
433.483000	2.680168
433.665000	2.909463
433.846000	2.804823
434.027000	2.695031
434.208000	2.683127
434.390000	2.771465
434.571000	3.235072
434.752000	3.720294
434.934000	3.592022
435.115000	3.573260
435.296000	3.624793
435.477000	3.561628
435.659000	3.412001
435.840000	3.663896
436.026000	3.674938
436.211000	3.662711
436.397000	3.460992
436.582000	3.698005
436.768000	4.113884
436.953000	4.111020
437.139000	4.156281
437.325000	4.521251
437.510000	4.528701
437.696000	4.799280
437.881000	4.926054
438.067000	4.668084
438.252000	4.743763
438.438000	4.855293
438.624000	5.023841
438.809000	5.240160
438.995000	5.388196
439.180000	5.398070
439.366000	5.487732
439.551000	5.686578
439.737000	5.888731
439.923000	6.054910
440.108000	6.041669
440.294000	6.273024
440.479000	6.594066
440.665000	6.707443
440.850000	6.646895
441.036000	6.841106
441.222000	6.982120
441.407000	6.976474
441.593000	7.269668
441.778000	7.541861
441.964000	7.706214
442.149000	7.614933
442.335000	7.774402
442.521000	7.978738
442.706000	8.283645
442.892000	8.372859
443.077000	8.480200
443.263000	8.809211
443.448000	8.840566
443.634000	8.925485
443.820000	9.448602
444.005000	9.482776
444.191000	9.469669
444.376000	9.590996
444.562000	10.086820
444.747000	10.423222
444.933000	10.433517
445.119000	10.500922
445.304000	10.581125
445.490000	10.944496
445.675000	11.236061
445.861000	11.195998
446.046000	11.353613
446.232000	11.714061
446.418000	11.900056
446.603000	12.110178
446.789000	12.375418
446.974000	12.612184
447.160000	12.611517
447.345000	12.982601
447.531000	13.099593
447.717000	13.447972
447.902000	13.918027
448.088000	14.084400
448.273000	14.132860
448.459000	14.393151
448.644000	14.536238
448.830000	14.706647
449.016000	14.879485
449.201000	15.205905
449.387000	15.637741
449.572000	15.940599
449.758000	16.058150
449.943000	16.268388
450.129000	16.468621
450.315000	16.582201
450.500000	16.812404
450.686000	17.251039
450.871000	17.560217
451.057000	17.957283
451.243000	18.120451
451.428000	18.333892
451.614000	18.530524
451.799000	18.641877
451.985000	19.233191
452.170000	19.461771
452.356000	19.369647
452.542000	19.654529
452.727000	19.958410
452.913000	20.035296
453.098000	20.528965
453.284000	21.009307
453.469000	21.039042
453.655000	21.341684
453.841000	21.483520
454.026000	21.530141
454.212000	21.603866
454.397000	21.664477
454.583000	21.926605
454.768000	21.894559
454.954000	22.228634
455.140000	22.349968
455.325000	22.258035
455.511000	22.366137
455.696000	22.561601
455.882000	22.848666
456.067000	23.207001
456.253000	22.981741
456.439000	22.918021
456.624000	22.900326
456.810000	22.856521
456.995000	22.937801
457.181000	22.829358
457.366000	23.018150
457.552000	22.904695
457.738000	22.907578
457.923000	22.881426
458.109000	23.253330
458.294000	23.225254
458.480000	23.039517
458.665000	22.747755
458.851000	22.489575
459.037000	22.066799
459.222000	22.242686
459.408000	22.085431
459.593000	21.948356
459.779000	21.822012
459.964000	21.822987
460.150000	21.917968
460.336000	21.668484
460.521000	21.067430
460.707000	20.693546
460.892000	20.481985
461.078000	20.569404
461.263000	20.306366
461.449000	19.859321
461.635000	19.659628
461.820000	19.435306
462.006000	19.235117
462.191000	18.964855
462.377000	18.515684
462.562000	18.641348
462.748000	18.513943
462.934000	17.880501
463.119000	17.376093
463.305000	17.206634
463.490000	16.980826
463.676000	16.874503
463.861000	16.591012
464.047000	16.195979
464.233000	15.925045
464.418000	15.601649
464.604000	15.250763
464.789000	15.217025
464.975000	14.958056
465.160000	14.588189
465.346000	14.335405
465.532000	13.972113
465.717000	13.734129
465.903000	13.734625
466.088000	13.471633
466.274000	13.033601
466.459000	12.808085
466.645000	12.915046
466.831000	12.599011
467.016000	12.372518
467.202000	12.087854
467.387000	11.688019
467.573000	11.322935
467.758000	11.494994
467.944000	11.166706
468.130000	10.939428
468.315000	10.909970
468.501000	10.807231
468.686000	10.563464
468.872000	10.415430
469.057000	10.283028
469.243000	10.037830
469.429000	9.885248
469.614000	9.644440
469.800000	9.436365
469.985000	9.431039
470.171000	9.308692
470.356000	9.034976
470.542000	9.060849
470.728000	8.874322
470.913000	8.629932
471.099000	8.634929
471.284000	8.433540
471.470000	8.279084
471.655000	8.247434
471.841000	8.081324
472.027000	7.935879
472.212000	7.997060
472.398000	7.918474
472.583000	7.668913
472.769000	7.619707
472.954000	7.421931
473.140000	7.211589
473.326000	7.175061
473.511000	7.321547
473.697000	7.247367
473.882000	6.981890
474.068000	6.852716
474.253000	6.596356
474.439000	6.678979
474.625000	6.625313
474.810000	6.466273
474.996000	6.265371
475.181000	6.066003
475.367000	6.170266
475.552000	6.222949
475.738000	5.765426
475.924000	5.804582
476.109000	5.819702
476.295000	5.611041
476.480000	5.494444
476.666000	5.357367
476.851000	5.341433
477.037000	5.312381
477.223000	5.086250
477.408000	4.926022
477.594000	4.777354
477.779000	4.850563
477.965000	4.793204
478.151000	4.630384
478.336000	4.711266
478.522000	4.514404
478.707000	4.393845
478.893000	4.394181
479.078000	4.146223
479.264000	4.103409
479.450000	4.089692
479.635000	4.095107
479.821000	3.957374
480.006000	4.042132
480.192000	3.985695
480.377000	3.891121
480.563000	3.775382
480.749000	3.540659
480.934000	3.499577
481.120000	3.523901
481.305000	3.595428
481.491000	3.489537
481.676000	3.536933
481.862000	3.542901
482.048000	3.239128
482.233000	3.200297
482.419000	3.130815
482.604000	3.057225
482.790000	3.006825
482.975000	3.007413
483.161000	3.094765
483.347000	3.006727
483.532000	2.882689
483.718000	2.657469
483.903000	2.656811
484.089000	2.689852
484.274000	2.552132
484.460000	2.616456
484.646000	2.647373
484.831000	2.517618
485.017000	2.476909
485.202000	2.448190
485.388000	2.645127
485.573000	2.681292
485.759000	2.513429
485.945000	2.520501
486.130000	2.333128
486.316000	2.310018
486.501000	2.369218
486.687000	2.239789
486.872000	2.146079
487.058000	2.306453
487.244000	2.327489
487.429000	2.112190
487.615000	2.201660
487.800000	2.288188
487.986000	2.197243
488.171000	2.254385
488.357000	2.147318
488.543000	2.128729
488.728000	2.196214
488.914000	2.094150
489.099000	1.970069
489.285000	1.951436
489.470000	2.109794
489.656000	2.117816
489.842000	2.146090
490.027000	2.222844
490.213000	2.031973
490.398000	1.773372
490.584000	2.049153
490.769000	2.068372
490.955000	2.058408
491.141000	2.073015
491.326000	2.067883
491.512000	2.274611
491.697000	2.170557
491.883000	1.947168
492.068000	1.856418
492.254000	1.944519
492.440000	1.985734
492.625000	1.889004
492.811000	1.874645
492.996000	2.042585
493.182000	2.004600
493.367000	1.846168
493.553000	1.781423
493.739000	1.873328
493.924000	2.010140
494.110000	2.033141
494.295000	1.855487
494.481000	2.025273
494.666000	2.058138
494.852000	2.182454
495.038000	2.013057
495.223000	1.861353
495.409000	1.950843
495.594000	1.985410
495.780000	2.038590
495.965000	2.007274
496.151000	2.248614
496.337000	2.304797
496.522000	2.024260
496.708000	2.141900
496.893000	2.333214
497.079000	2.161281
497.264000	2.119864
497.450000	2.203583
497.636000	2.332118
497.821000	2.177093
498.007000	2.390258
498.192000	2.461445
498.378000	2.380426
498.563000	2.341788
498.749000	2.398148
498.935000	2.440124
499.120000	2.529311
499.306000	2.445968
499.491000	2.414575
499.677000	2.514985
499.862000	2.619843
500.048000	2.699179
500.234000	2.634384
500.419000	2.643338
500.605000	2.799328
500.790000	2.754744
500.976000	2.667776
501.161000	2.613065
501.347000	2.777008
501.533000	2.905538
501.718000	2.814527
501.904000	2.819005
502.089000	3.006656
502.275000	3.077854
502.460000	3.023181
502.646000	3.130440
502.832000	3.213109
503.017000	3.200871
503.203000	3.007406
503.388000	2.981207
503.574000	3.244220
503.759000	3.384968
503.945000	3.511744
504.131000	3.394901
504.316000	3.401175
504.502000	3.519270
504.687000	3.557945
504.873000	3.388351
505.058000	3.402572
505.244000	3.449860
505.430000	3.559049
505.615000	3.731430
505.801000	3.832770
505.986000	3.703406
506.172000	3.812410
506.358000	3.848374
506.543000	3.900808
506.729000	4.138141
506.914000	4.136723
507.100000	4.311220
507.285000	4.128276
507.471000	4.018121
507.657000	4.376487
507.842000	4.332516
508.028000	4.168797
508.213000	4.242647
508.399000	4.389177
508.584000	4.580196
508.770000	4.498008
508.956000	4.476110
509.141000	4.550463
509.327000	4.631982
509.512000	4.552374
509.698000	4.584681
509.883000	4.735416
510.069000	4.716261
510.255000	4.760934
510.440000	4.845682
510.626000	4.898567
510.811000	4.867220
510.997000	4.953621
511.182000	5.212020
511.368000	5.164344
511.554000	4.921851
511.739000	5.033880
511.925000	5.154467
512.110000	5.151750
512.296000	5.260869
512.481000	5.327086
512.667000	5.245188
512.853000	5.017281
513.038000	5.193492
513.224000	5.188331
513.409000	5.127828
513.595000	5.266939
513.780000	5.071299
513.966000	5.157449
514.152000	5.179480
514.337000	5.125932
514.523000	5.250527
514.708000	5.333021
514.894000	5.347735
515.079000	5.264801
515.265000	5.319403
515.451000	5.300132
515.636000	5.167442
515.822000	5.300692
516.007000	5.166101
516.193000	5.334968
516.378000	5.419397
516.564000	5.289074
516.750000	5.327434
516.935000	5.355928
517.121000	5.380697
517.306000	5.497479
517.492000	5.404481
517.677000	5.114276
517.863000	5.070023
518.049000	5.252471
518.234000	5.106509
518.420000	5.235656
518.605000	5.354451
518.791000	5.254920
518.976000	5.094242
519.162000	4.981361
519.348000	5.103231
519.533000	5.037652
519.719000	5.238993
519.904000	5.072196
520.090000	5.005897
520.275000	5.097643
520.461000	5.038612
520.647000	4.819505
520.832000	4.566160
521.018000	4.709842
521.203000	4.698735
521.389000	4.460806
521.574000	4.536457
521.760000	4.658910
521.946000	4.660087
522.131000	4.540709
522.317000	4.451561
522.502000	4.304882
522.688000	4.375960
522.873000	4.332497
523.059000	4.266270
523.245000	4.277426
523.430000	4.100912
523.616000	4.121417
523.801000	4.050983
523.987000	3.971369
524.172000	4.073025
524.358000	4.137777
524.544000	4.007359
524.729000	4.091924
524.915000	4.114738
525.100000	3.918011
525.286000	3.893410
525.471000	3.839087
525.657000	3.882280
525.843000	3.629366
526.028000	3.745471
526.214000	3.689496
526.399000	3.546925
526.585000	3.451305
526.770000	3.365518
526.956000	3.470492
527.142000	3.388678
527.327000	3.482658
527.513000	3.403385
527.698000	3.299293
527.884000	3.264898
528.069000	3.220834
528.255000	3.331070
528.441000	3.204593
528.626000	3.212216
528.812000	3.409089
528.997000	3.220567
529.183000	3.003875
529.368000	3.066882
529.554000	3.070531
529.740000	3.002951
529.925000	2.925102
530.111000	2.901396
530.296000	2.932666
530.482000	2.993967
530.667000	2.873414
530.853000	2.964043
531.039000	2.845834
531.224000	2.838332
531.410000	2.867080
531.595000	2.755723
531.781000	2.801764
531.967000	2.631619
532.152000	2.655943
532.338000	2.541340
532.523000	2.396024
532.709000	2.435019
532.894000	2.519229
533.080000	2.521934
533.266000	2.351107
533.451000	2.331735
533.637000	2.304058
533.822000	2.468972
534.008000	2.353647
534.193000	2.312683
534.379000	2.389863
534.565000	2.313660
534.750000	2.243252
534.936000	2.419943
535.121000	2.214236
535.307000	2.266327
535.492000	2.209561
535.678000	1.977224
535.864000	2.126266
536.049000	2.391628
536.235000	2.182728
536.420000	2.088926
536.606000	1.968517
536.791000	1.803196
536.977000	1.740228
537.163000	2.007919
537.348000	2.007052
537.534000	2.028120
537.719000	1.862542
537.905000	1.775194
538.090000	1.936234
538.276000	1.979132
538.462000	1.905455
538.647000	1.926148
538.833000	1.761881
539.018000	1.846135
539.204000	1.813313
539.389000	1.654068
539.575000	1.827260
539.761000	1.754032
539.946000	1.484735
540.132000	1.624481
540.317000	1.532420
540.503000	1.629971
540.688000	1.572491
540.874000	1.748515
541.060000	1.916398
541.245000	1.720649
541.431000	1.502479
541.616000	1.547810
541.802000	1.485883
541.987000	1.619755
542.173000	1.606562
542.359000	1.411661
542.544000	1.503710
542.730000	1.315186
542.915000	1.318362
543.101000	1.475204
543.286000	1.310699
543.472000	1.200848
543.658000	1.201718
543.843000	1.182124
544.029000	1.383904
544.214000	1.297890
544.400000	0.984647
544.585000	1.040797
544.771000	1.135427
544.957000	1.332145
545.142000	1.376130
545.328000	1.417017
545.513000	1.448381
545.699000	1.388287
545.884000	1.262231
546.070000	1.181952
546.261000	1.134091
546.451000	1.006783
546.642000	0.775540
546.833000	0.908156
547.023000	0.835034
547.214000	0.853054
547.405000	1.005147
547.595000	1.240978
547.786000	1.101552
547.977000	0.841916
548.167000	0.745161
548.358000	0.813712
548.549000	1.105516
548.740000	0.917937
548.930000	0.581693
549.121000	0.723755
549.312000	0.648564
549.502000	0.502852
549.693000	0.694654
549.884000	0.797006
550.074000	0.814887
550.265000	0.626443
550.456000	0.727931
550.646000	0.763057
550.837000	0.760284
551.028000	0.642683
551.218000	0.800635
551.409000	0.611728
551.600000	0.636703
551.790000	0.786513
551.981000	0.522578
552.172000	0.508180
552.362000	0.781454
552.553000	0.834842
552.744000	0.729345
552.934000	0.621854
553.125000	0.514649
553.316000	0.449946
553.506000	0.838757
553.697000	0.670575
553.888000	0.669397
554.079000	0.897067
554.269000	0.792068
554.460000	0.463076
554.651000	0.316641
554.841000	0.198084
555.032000	0.326884
555.223000	0.380696
555.413000	0.503995
555.604000	0.490444
555.795000	0.460271
555.985000	0.483284
556.176000	0.375413
556.367000	0.186565
556.557000	0.256632
556.748000	0.383643
556.939000	0.370420
557.129000	0.269140
557.320000	0.417695
557.511000	0.398008
557.701000	0.378501
557.892000	0.383180
558.083000	0.635203
558.273000	0.521702
558.464000	0.303950
558.655000	0.262692
558.845000	0.302795
559.036000	0.384820
559.227000	0.363062
559.418000	0.493070
559.608000	0.565404
559.799000	0.259201
559.990000	0.154443
560.180000	0.217382
560.371000	0.016650
560.562000	0.123276
560.752000	0.314909
560.943000	0.205115
561.134000	0.079257
561.324000	0.207446
561.515000	0.381954
561.706000	0.244812
561.896000	0.038373
562.087000	0.103772
562.278000	0.085041
562.468000	-0.002183
562.659000	0.140867
562.850000	0.452120
563.040000	0.480125
563.231000	0.007162
563.422000	0.078527
563.612000	0.013361
563.803000	0.112588
563.994000	0.081181
564.185000	0.004006
564.375000	0.256990
564.566000	0.204295
564.757000	0.090535
564.947000	-0.008333
565.138000	0.105501
565.329000	0.068453
565.519000	-0.035896
565.710000	0.056202
565.901000	0.277515
566.091000	0.384796
566.282000	0.157180
566.473000	0.120040
566.663000	0.119901
566.854000	-0.050748
567.045000	0.149424
567.235000	0.152428
567.426000	0.100874
567.617000	0.124658
567.807000	0.133770
567.998000	0.184728
568.189000	0.088274
568.379000	0.103076
568.570000	0.153948
568.761000	0.093732
568.951000	0.048735
569.142000	0.015868
569.333000	-0.008083
569.524000	-0.097531
569.714000	-0.175063
569.905000	-0.228353
570.096000	0.125913
570.286000	0.208978
570.477000	0.362569
570.668000	0.160826
570.858000	0.128240
571.049000	0.024495
571.240000	-0.064075
571.430000	0.148329
571.621000	0.044958
571.812000	0.079892
572.002000	0.094692
572.193000	-0.089855
572.384000	0.076943
572.574000	0.123853
572.765000	0.038871
572.956000	-0.022434
573.146000	0.181783
573.337000	0.053291
573.528000	0.009593
573.718000	0.183531
573.909000	0.270127
574.100000	0.171076
574.290000	-0.007764
574.481000	-0.033571
574.672000	0.029588
574.863000	0.183969
575.053000	-0.041979
575.244000	0.012250
575.435000	-0.027608
575.625000	-0.058656
575.816000	-0.095375
576.007000	-0.007641
576.197000	0.017858
576.388000	0.046024
576.579000	0.198431
576.769000	0.153091
576.960000	-0.125929
577.155000	-0.291337
577.350000	-0.007576
577.545000	0.132476
577.740000	-0.049426
577.935000	0.290651
578.130000	0.201634
578.326000	-0.107599
578.521000	0.106437
578.716000	0.136376
578.911000	-0.134568
579.106000	0.003579
579.301000	0.118833
579.496000	-0.012858
579.691000	-0.316260
579.886000	-0.239098
580.081000	-0.078125
580.276000	0.011676
580.471000	-0.061630
580.666000	-0.172645
580.861000	-0.191549
581.057000	-0.191674
581.252000	-0.042574
581.447000	-0.150705
581.642000	-0.113015
581.837000	-0.091211
582.032000	-0.101747
582.227000	0.137646
582.422000	0.099896
582.617000	-0.143165
582.812000	-0.270437
583.007000	-0.219793
583.202000	-0.216736
583.397000	0.053664
583.592000	0.235656
583.788000	-0.064973
583.983000	-0.030748
584.178000	0.058512
584.373000	-0.130013
584.568000	-0.202835
584.763000	-0.226549
584.958000	-0.273564
585.153000	-0.158611
585.348000	-0.163747
585.543000	-0.007059
585.738000	-0.033186
585.933000	-0.226612
586.128000	-0.030570
586.324000	-0.007073
586.519000	-0.014921
586.714000	0.079381
586.909000	0.069024
587.104000	0.127185
587.299000	0.008665
587.494000	0.008653
587.689000	-0.025485
587.884000	-0.046643
588.079000	-0.157333
588.274000	-0.073135
588.469000	-0.083528
588.664000	-0.041423
588.859000	-0.020345
589.055000	-0.007142
589.250000	-0.041551
589.445000	-0.192636
589.640000	-0.163621
589.835000	0.107126
590.030000	0.202762
590.225000	0.224063
590.420000	-0.009848
590.615000	-0.180352
590.810000	-0.212083
591.005000	-0.095387
591.200000	-0.119484
591.395000	-0.196971
591.591000	-0.060564
591.786000	0.019460
591.981000	-0.082081
592.176000	-0.092965
592.371000	-0.082280
592.566000	-0.133107
592.761000	0.062393
592.956000	0.070546
593.151000	0.084000
593.346000	-0.031486
593.541000	0.011560
593.736000	-0.001888
593.931000	-0.163756
594.126000	-0.131577
594.322000	-0.037013
594.517000	-0.101833
594.712000	-0.264016
594.907000	-0.254118
595.102000	-0.132250
595.297000	-0.031752
595.492000	0.000816
595.687000	-0.162687
595.882000	-0.228203
596.077000	-0.146694
596.272000	0.085486
596.467000	0.112834
596.662000	-0.045670
596.857000	-0.007413
597.053000	0.006326
597.248000	0.009072
597.443000	0.000826
597.638000	-0.081953
597.833000	-0.278134
598.028000	-0.087445
598.223000	0.028468
598.418000	-0.057315
598.613000	-0.179120
598.808000	-0.049040
599.003000	-0.060187
599.198000	-0.285207
599.393000	-0.262911
599.589000	-0.096598
599.784000	-0.202524
599.979000	-0.135866
600.174000	0.037131
600.369000	-0.155665
600.564000	-0.094304
600.759000	0.154928
600.954000	0.238574
601.149000	0.062562
601.344000	-0.235055
601.539000	-0.122867
601.734000	-0.142361
601.929000	-0.331324
602.124000	-0.309062
602.320000	-0.047131
602.515000	0.173030
602.710000	0.074390
602.905000	-0.279134
603.100000	-0.326685
603.295000	-0.183020
603.490000	-0.095602
603.685000	-0.104130
603.880000	-0.078690
604.075000	-0.249768
604.270000	-0.227465
604.465000	-0.127477
604.660000	-0.327371
604.856000	-0.238716
605.051000	-0.027718
605.246000	-0.044826
605.441000	-0.287727
605.636000	-0.344971
605.831000	-0.239661
606.026000	-0.313978
606.221000	-0.320140
606.416000	-0.182802
606.611000	0.018097
606.806000	0.089831
607.001000	0.225009
607.196000	-0.016395
607.391000	-0.249727
607.587000	-0.071289
607.782000	-0.097394
607.977000	-0.327819
608.172000	0.050035
608.367000	0.084740
608.562000	-0.123741
608.757000	-0.135290
608.952000	-0.257562
609.147000	0.238681
609.342000	0.224527
609.537000	-0.130075
609.732000	-0.118623
609.927000	-0.196925
610.122000	-0.182693
610.318000	0.100040
610.513000	0.210981
610.708000	0.012562
610.903000	-0.002047
611.098000	0.033118
611.293000	0.006743
611.488000	0.041928
611.683000	0.077247
611.878000	-0.016747
612.073000	-0.004996
612.268000	-0.002059
612.463000	0.109986
612.658000	0.121783
612.854000	0.000886
613.049000	-0.075976
613.244000	0.065962
613.439000	0.098538
613.634000	-0.180064
613.829000	0.000890
614.024000	-0.094287
614.219000	-0.121039
614.414000	0.164566
614.609000	-0.094476
614.804000	-0.294234
614.999000	-0.270139
615.194000	-0.214105
615.389000	-0.175491
615.585000	-0.277647
615.780000	-0.113010
615.975000	-0.131257
616.170000	-0.146381
616.365000	0.076123
616.560000	0.178595
616.755000	0.115700
616.950000	0.009973
617.145000	0.031157
617.340000	-0.117178
617.535000	-0.374539
617.730000	-0.117336
617.925000	-0.260259
618.120000	-0.293756
618.316000	0.080069
618.511000	-0.005180
618.706000	-0.210086
618.901000	-0.185526
619.096000	-0.029760
619.291000	-0.097173
619.486000	-0.088256
619.681000	-0.368380
619.876000	-0.435898
620.071000	-0.297730
620.266000	-0.017592
620.461000	0.031847
620.656000	-0.039341
620.852000	-0.088792
621.047000	-0.200657
621.242000	-0.300295
621.437000	0.060078
621.632000	0.194345
621.827000	-0.055265
622.022000	-0.367778
622.217000	-0.183916
622.412000	-0.002196
622.607000	-0.030454
622.802000	-0.215802
622.997000	-0.191337
623.192000	-0.125130
623.387000	-0.096784
623.583000	-0.324409
623.778000	0.070636
623.973000	0.070683
624.168000	0.007307
624.363000	-0.008565
624.558000	0.035908
624.753000	-0.196692
624.948000	0.023315
625.143000	0.077667
625.338000	-0.031055
625.533000	-0.248837
625.728000	-0.191398
625.923000	0.116453
626.119000	0.039551
626.314000	-0.230774
626.509000	-0.247625
626.704000	-0.212672
626.899000	-0.199896
627.094000	-0.216396
627.289000	-0.194130
627.484000	-0.122880
627.679000	-0.152351
627.874000	-0.136215
628.069000	0.099121
628.264000	-0.012093
628.459000	-0.103850
628.654000	-0.113782
628.850000	-0.216186
629.045000	-0.183485
629.240000	-0.180371
629.435000	-0.246640
629.630000	-0.157791
629.825000	-0.141247
630.020000	-0.062101
630.215000	-0.281128
630.410000	-0.212265
630.605000	-0.189093
630.800000	-0.152385
630.995000	-0.045785
631.190000	0.252190
631.385000	0.001005
631.581000	-0.163480
631.776000	-0.072891
631.971000	-0.224771
632.166000	-0.127143
632.361000	-0.269040
632.556000	-0.164624
632.751000	-0.015939
632.946000	-0.199134
633.141000	-0.257586
633.336000	-0.186421
633.531000	-0.135717
633.726000	-0.128721
633.921000	-0.266016
634.117000	-0.479341
634.312000	-0.534777
634.507000	-0.463150
634.702000	-0.388200
634.897000	-0.316315
635.092000	-0.144222
635.287000	-0.089065
635.482000	-0.117095
635.677000	0.025373
635.872000	0.063613
636.067000	0.105570
636.262000	-0.166842
636.457000	-0.469236
636.652000	-0.421094
636.848000	-0.436001
637.043000	-0.371102
637.238000	-0.329832
637.433000	-0.397014
637.628000	-0.372341
637.823000	-0.129470
638.018000	0.001060
638.213000	-0.211486
638.408000	-0.357060
638.603000	-0.375327
638.798000	-0.382984
638.993000	-0.348092
639.188000	-0.294751
639.383000	-0.291433
639.579000	0.065210
639.774000	-0.134714
639.969000	-0.345683
640.164000	-0.410967
640.359000	-0.443692
640.554000	-0.228777
640.749000	-0.139373
640.944000	-0.049446
641.139000	-0.067354
641.334000	-0.237066
641.529000	-0.678628
641.724000	-0.429687
641.919000	-0.278235
642.115000	-0.126179
642.310000	-0.067902
642.505000	-0.198551
642.700000	-0.253457
642.895000	-0.308941
643.090000	-0.228624
643.285000	-0.086429
643.480000	-0.039110
643.675000	-0.024510
643.870000	0.261335
644.065000	0.111274
644.260000	-0.321987
644.455000	-0.249022
644.650000	-0.297576
644.846000	-0.205395
645.041000	-0.400664
645.236000	-0.538351
645.431000	-0.487321
645.626000	-0.686720
645.821000	-0.453569
646.016000	-0.336259
646.211000	0.079116
646.406000	-0.039819
646.601000	-0.084392
646.796000	-0.247918
646.991000	-0.508182
647.186000	-0.282037
647.381000	-0.181560
647.577000	-0.170539
647.772000	-0.047395
647.967000	-0.096098
648.162000	-0.107401
648.357000	-0.137524
648.552000	0.031090
648.747000	-0.010119
648.942000	-0.055130
649.137000	-0.156866
649.332000	-0.345406
649.527000	-0.296314
649.722000	0.012421
649.917000	0.084180
650.113000	-0.232629
650.308000	-0.372659
650.503000	-0.338496
650.698000	-0.165385
650.893000	-0.290481
651.088000	-0.142873
651.283000	0.016331
651.478000	-0.306500
651.673000	-0.116481
651.868000	-0.283993
652.063000	-0.078853
652.258000	0.107887
652.453000	0.214060
652.648000	-0.090235
652.844000	-0.120781
653.039000	-0.132434
653.234000	-0.556248
653.429000	-0.633732
653.624000	-0.365741
653.819000	-0.079284
654.014000	-0.155917
654.209000	-0.398307
654.404000	-0.202208
654.599000	-0.306585
654.794000	-0.306056
654.989000	-0.006547
655.184000	-0.126091
655.380000	-0.407248
655.575000	-0.403441
655.770000	-0.265162
655.965000	-0.180293
656.160000	-0.273093
656.355000	-0.184214
656.550000	-0.211896
656.745000	-0.115129
656.940000	-0.235491
657.135000	-0.165618
657.330000	-0.138524
657.525000	-0.313357
657.720000	-0.166094
657.915000	-0.041582
658.111000	-0.162116
658.306000	0.067310
658.501000	-0.127520
658.696000	-0.376951
658.891000	-0.022230
659.086000	-0.111883
659.281000	-0.213590
659.476000	-0.409407
659.671000	-0.769082
659.866000	-0.542545
660.061000	-0.127997
660.256000	0.001175
660.451000	-0.065456
660.646000	-0.261778
660.842000	-0.136345
661.037000	-0.344725
661.232000	-0.341282
661.427000	-0.164016
661.622000	-0.325878
661.817000	-0.451851
662.012000	-0.208128
662.207000	-0.405872
662.402000	-0.450475
662.597000	-0.240656
662.792000	-0.537512
662.987000	-0.544987
663.182000	-0.224881
663.378000	-0.205214
663.573000	-0.563834
663.768000	-0.534869
663.963000	-0.368497
664.158000	-0.415819
664.353000	0.128805
664.548000	0.348011
664.743000	-0.006785
664.938000	-0.417804
665.133000	-0.342520
665.328000	0.049233
665.523000	-0.018849
665.718000	-0.267532
665.913000	-0.223747
666.109000	-0.248403
666.304000	-0.103434
666.499000	-0.248166
666.694000	0.001210
666.889000	0.348059
667.084000	-0.099953
667.279000	-0.281885
667.474000	-0.261811
667.669000	-0.083743
667.864000	-0.205352
668.059000	-0.250287
668.254000	-0.181556
668.449000	-0.336279
668.644000	-0.283677
668.840000	-0.019104
669.035000	-0.295921
669.230000	-0.566488
669.425000	-0.133646
669.620000	-0.260324
669.815000	-0.376109
670.010000	-0.478205
670.205000	-0.298153
670.400000	-0.240308
670.595000	-0.199976
670.790000	-0.274257
670.985000	-0.319822
671.180000	-0.068815
671.376000	-0.308090
671.571000	-0.453445
671.766000	-0.396492
671.961000	-0.450524
672.156000	-0.451084
672.351000	-0.372325
672.546000	-0.393907
672.741000	-0.289285
672.936000	-0.223170
673.131000	0.267948
673.326000	-0.065606
673.521000	-0.429529
673.716000	-0.554988
673.911000	-0.701868
674.107000	-0.158081
674.302000	0.068395
674.497000	-0.166773
674.692000	-0.465362
674.887000	-0.551312
675.082000	-0.387389
675.277000	-0.049496
675.472000	-0.206293
675.667000	-0.406007
675.862000	-0.308587
676.057000	-0.185616
676.252000	-0.220060
676.447000	-0.361408
676.643000	-0.186312
676.838000	0.095254
677.033000	-0.148430
677.228000	0.065610
677.423000	-0.020167
677.618000	-0.342906
677.813000	-0.497503
678.008000	-0.279101
678.203000	-0.128255
678.398000	-0.379407
678.593000	-0.171809
678.788000	-0.150657
678.983000	-0.414994
679.178000	-0.285045
679.374000	-0.320219
679.569000	-0.203344
679.764000	-0.339329
679.959000	-0.480227
680.154000	-0.458432
680.349000	-0.622587
680.544000	-0.599813
680.739000	-0.433305
680.934000	-0.591946
681.129000	-0.545127
681.324000	-0.479615
681.519000	-0.295228
681.714000	-0.352892
681.909000	-0.485134
682.105000	-0.628414
682.300000	-0.150034
682.495000	-0.038713
682.690000	-0.123539
682.885000	-0.181662
683.080000	-0.334345
683.275000	-0.312122
683.470000	0.001345
683.665000	0.136149
683.860000	0.455964
684.055000	0.181499
684.250000	-0.345771
684.445000	-0.385730
684.641000	0.019412
684.836000	-0.165957
685.031000	-0.284552
685.226000	-0.262214
685.421000	0.069726
685.616000	-0.253837
685.811000	-0.400628
686.006000	-0.121959
686.201000	-0.149564
686.396000	-0.659779
686.591000	-0.582894
686.786000	-0.132246
686.981000	-0.256684
687.176000	-0.155678
687.372000	-0.197476
687.567000	0.061537
687.762000	-0.114597
687.957000	-0.133150
688.152000	-0.282211
688.347000	-0.310666
688.542000	-0.474860
688.737000	-0.843356
688.932000	-0.891540
689.127000	-0.490164
689.322000	-0.148830
689.517000	-0.280229
689.712000	-0.464932
689.908000	-0.493694
690.103000	-0.537172
690.298000	-0.428581
690.493000	-0.339688
690.688000	-0.586768
690.883000	-0.407915
691.078000	-0.050947
691.273000	-0.022381
691.468000	-0.241899
691.663000	-0.247609
691.858000	-0.137478
692.053000	-0.147052
692.248000	-0.060895
692.443000	-0.099250
692.639000	-0.205158
692.834000	-0.109336
693.029000	0.401369
693.224000	0.354862
693.419000	-0.274753
693.614000	-0.498598
693.809000	-0.639858
694.004000	-0.548580
694.199000	-0.475442
694.394000	-0.262210
694.589000	-0.511777
694.784000	-0.556334
694.979000	-0.321481
695.174000	-0.322295
695.370000	0.128798
695.565000	-0.116348
695.760000	-0.436441
695.955000	-0.082370
696.150000	0.021216
696.345000	-0.414567
696.540000	-0.206902
696.740000	-0.310880
696.940000	-0.087827
697.140000	0.081297
697.340000	-0.193353
697.539000	-0.213451
697.739000	-0.373563
697.939000	-0.303762
698.139000	-0.554554
698.339000	-0.823135
698.539000	-0.531189
698.739000	-0.542694
698.939000	-0.484334
699.138000	-0.551036
699.338000	0.072244
699.538000	0.250015
699.738000	-0.227351
699.938000	-0.431160
700.138000	-0.503277
700.338000	-0.540527
700.538000	-0.270166
700.737000	-0.336700
700.937000	-0.841555
701.137000	-0.786555
701.337000	-0.193931
701.537000	-0.163425
701.737000	-0.348579
701.937000	-0.297763
702.137000	-0.478406
702.337000	-0.567089
702.536000	-0.568247
702.736000	-0.563744
702.936000	-0.824271
703.136000	-0.310992
703.336000	-0.258841
703.536000	-0.416235
703.736000	-0.710619
703.936000	-0.646437
704.135000	-0.619998
704.335000	-0.307462
704.535000	-0.570909
704.735000	-0.771280
704.935000	-0.307962
705.135000	-0.288374
705.335000	-0.373971
705.535000	-0.199547
705.735000	-0.178344
705.934000	-0.209989
706.134000	-0.495783
706.334000	-0.475744
706.534000	-0.587967
706.734000	-0.615012
706.934000	-0.678761
707.134000	-0.726787
707.334000	-0.520543
707.533000	-0.441437
707.733000	-0.366442
707.933000	-0.494951
708.133000	-0.281039
708.333000	-0.159208
708.533000	-0.428027
708.733000	-0.057455
708.933000	-0.331601
709.132000	-0.488406
709.332000	-0.354383
709.532000	-0.565995
709.732000	-0.349250
709.932000	-0.772137
710.132000	-0.733800
710.332000	-0.938855
710.532000	-0.420360
710.732000	-0.063471
710.931000	-0.394680
711.131000	-0.494325
711.331000	-0.412891
711.531000	-0.550181
711.731000	-0.425588
711.931000	-0.360457
712.131000	-0.497020
712.331000	-0.393029
712.530000	-0.441826
712.730000	-0.657073
712.930000	-0.508691
713.130000	-0.367298
713.330000	-0.455969
713.530000	-0.380174
713.730000	0.261870
713.930000	-0.026013
714.129000	-0.518051
714.329000	-0.614005
714.529000	-0.386302
714.729000	-0.103855
714.929000	-0.203829
715.129000	-0.632529
715.329000	-0.510613
715.529000	-0.356154
715.729000	0.280704
715.928000	0.018462
716.128000	-0.390187
716.328000	-0.284665
716.528000	-0.369307
716.728000	-0.228834
716.928000	-0.436909
717.128000	-0.280089
717.328000	-0.364563
717.527000	-0.556816
717.727000	-0.421831
717.927000	-0.304219
718.127000	-0.417761
718.327000	-0.935278
718.527000	-0.770210
718.727000	-0.373247
718.927000	-0.499134
719.127000	-0.889711
719.326000	-0.664149
719.526000	-0.089514
719.726000	-0.272534
719.926000	-0.783954
720.126000	-0.795553
720.326000	-0.520157
720.526000	-0.525990
720.726000	-0.424019
720.925000	-0.217038
721.125000	-0.656994
721.325000	-0.350318
721.525000	-0.478443
721.725000	-0.582643
721.925000	-0.578482
722.125000	-0.688781
722.325000	-0.178124
722.524000	-0.341616
722.724000	-0.738273
722.924000	-0.965464
723.124000	-0.727477
723.324000	-0.377836
723.524000	-0.296347
723.724000	-0.788048
723.924000	-0.444463
724.124000	-0.268414
724.323000	-0.092332
724.523000	-0.203894
724.723000	0.084206
724.923000	-0.104258
725.123000	-0.133850
725.323000	-0.051391
725.523000	-0.264547
725.723000	-0.548050
725.922000	-0.584180
726.122000	-0.306343
726.322000	-0.420056
726.522000	-0.581041
726.722000	0.090887
726.922000	-0.182244
727.122000	-0.343716
727.322000	-0.010140
727.521000	-0.231395
727.721000	-0.525148
727.921000	-0.441337
728.121000	-0.459187
728.321000	-0.741930
728.521000	-0.533368
728.721000	-0.492111
728.921000	-0.112598
729.121000	0.568742
729.320000	0.013887
729.520000	-0.511454
729.720000	-0.717943
729.920000	-0.569433
730.120000	-0.386134
730.320000	-0.381004
730.520000	-0.685116
730.720000	-0.589702
730.919000	-0.370095
731.119000	-0.175308
731.319000	-0.652818
731.519000	-0.756726
731.719000	-0.359365
731.919000	-0.524942
732.119000	-1.059600
732.319000	-0.958296
732.519000	-0.404584
732.718000	-0.602430
732.918000	-0.609119
733.118000	-0.431221
733.318000	-0.196686
733.518000	-0.506958
733.718000	-1.104182
733.918000	-0.986697
734.118000	-0.563719
734.317000	-0.347597
734.517000	-0.696101
734.717000	-0.630573
734.917000	-0.048326
735.117000	-0.123770
735.317000	-0.312173
735.517000	0.234925
735.717000	0.374591
735.916000	-0.408763
736.116000	-0.686150
736.316000	-0.588764
736.516000	-0.461594
736.716000	-0.353835
736.916000	-0.865552
737.116000	-0.600568
737.316000	0.040373
737.516000	-0.068706
737.715000	-0.203679
737.915000	-0.718021
738.115000	-0.758992
738.315000	-0.520781
738.515000	-0.811023
738.715000	-0.517249
738.915000	0.021446
739.115000	-0.421158
739.314000	-0.583366
739.514000	-0.167741
739.714000	-0.076557
739.914000	-0.208031
740.114000	-0.510861
740.314000	-0.248053
740.514000	0.278746
740.714000	-0.500534
740.913000	-0.984648
741.113000	-0.793859
741.313000	-0.429096
741.513000	-0.496811
741.713000	-0.444797
741.913000	-0.239195
742.113000	-0.499739
742.313000	-0.996918
742.513000	-0.722718
742.712000	-0.502896
742.912000	-0.765654
743.112000	-0.646621
743.312000	-0.843967
743.512000	-0.567758
743.712000	-0.413064
743.912000	-1.102148
744.112000	-1.211979
744.311000	-1.187900
744.511000	-0.813234
744.711000	-0.396298
744.911000	-0.665111
745.111000	-0.665936
745.311000	-0.384323
745.511000	-0.702686
745.711000	-0.848583
745.911000	-0.475740
746.110000	-0.843162
746.310000	-1.154778
746.510000	-0.888031
746.710000	-0.319257
746.910000	-0.221651
747.110000	-0.782281
747.310000	-1.071292
747.510000	-0.793676
747.709000	-0.470108
747.909000	-0.365321
748.109000	-0.139674
748.309000	-0.495186
748.509000	-0.794821
748.709000	-0.869186
748.909000	-0.561905
749.109000	-0.514161
749.308000	-0.012203
749.508000	-0.314842
749.708000	-0.466296
749.908000	-0.170845
750.108000	-0.243654
750.308000	-0.984545
750.508000	-0.245129
750.708000	-0.667237
750.908000	-1.164537
751.107000	-0.414732
751.307000	0.177532
751.507000	-0.401323
751.707000	-0.393485
751.907000	-0.401798
752.107000	-0.410528
752.307000	-0.929569
752.507000	-0.768884
752.706000	-0.746133
752.906000	0.262110
753.106000	-0.586390
753.306000	-1.133779
753.506000	-0.297519
753.706000	-0.621007
753.906000	-0.215546
754.106000	-0.148149
754.305000	-0.381772
754.505000	-0.254427
754.705000	-0.362090
754.905000	-0.423445
755.105000	-0.294643
755.305000	-0.912607
755.505000	-0.731729
755.705000	-0.280961
755.905000	-0.527523
756.104000	-1.258081
756.304000	-1.508050
756.504000	-1.688761
756.704000	-0.641911
756.904000	-0.261428
757.104000	-0.439230
757.304000	-0.579221
757.504000	-0.122482
757.703000	-0.668454
757.903000	-0.146210
758.103000	0.159046
758.303000	-0.406196
758.503000	-0.596328
758.703000	-0.613512
758.903000	-0.866568
759.103000	-0.425373
759.303000	-0.363740
759.502000	-0.468686
759.702000	-0.021550
759.902000	-0.486943
760.102000	-0.801722
760.302000	-0.570438
760.502000	-0.142385
760.702000	-0.086198
760.902000	-0.344716
761.101000	-0.880055
761.301000	-1.027585
761.501000	-0.784526
761.701000	-0.908042
761.901000	-0.618592
762.101000	-0.218649
762.301000	-0.529842
762.501000	-0.923683
762.700000	-0.993806
762.900000	-0.911795
763.100000	-0.550009
763.300000	-0.336984
763.500000	-0.544515
763.703000	-0.716160
763.905000	-0.893006
764.108000	-0.313706
764.311000	-0.555092
764.513000	-0.405782
764.716000	-0.290301
764.919000	-0.483366
765.121000	-1.019903
765.324000	-1.174270
765.527000	-0.893218
765.729000	-0.850940
765.932000	0.044860
766.135000	-0.065154
766.337000	-0.454621
766.540000	-0.651470
766.743000	-0.254139
766.945000	-0.928291
767.148000	-1.375475
767.351000	-1.109982
767.553000	-0.169225
767.756000	-0.590768
767.958000	-1.029224
768.161000	-0.677278
768.364000	-0.964811
768.566000	-1.209302
768.769000	-0.700904
768.972000	-0.344759
769.174000	-0.798758
769.377000	-1.290232
769.580000	-1.284227
769.782000	-0.495926
769.985000	-0.927457
770.188000	-1.774010
770.390000	-0.969617
770.593000	0.549971
770.796000	0.294184
770.998000	-0.465843
771.201000	-1.006110
771.404000	-0.626494
771.606000	-0.931461
771.809000	-0.797754
772.012000	-0.710184
772.214000	-1.566844
772.417000	-1.495664
772.620000	-0.468562
772.822000	-0.776833
773.025000	-1.171287
773.228000	-1.236322
773.430000	-1.067510
773.633000	-0.528910
773.836000	-0.466474
774.038000	-0.350498
774.241000	-0.287023
774.444000	-0.623945
774.646000	0.193294
774.849000	-0.233750
775.052000	-0.406492
775.254000	-0.225062
775.457000	-0.743759
775.659000	-0.699914
775.862000	-0.855248
776.065000	-0.637235
776.267000	-0.162101
776.470000	0.186743
776.673000	-0.567981
776.875000	-0.264973
777.078000	-0.338296
777.281000	-1.024293
777.483000	-0.219991
777.686000	-0.183204
777.889000	-0.406835
778.091000	-0.146666
778.294000	-1.200575
778.497000	-1.258161
778.699000	-1.053512
778.902000	-0.907032
779.105000	-0.644440
779.307000	0.124939
779.510000	-0.731537
779.713000	-0.450837
779.915000	-0.689395
780.118000	0.335069
780.321000	0.221436
780.523000	-0.825883
780.726000	-1.159768
780.929000	-1.121245
781.131000	-1.142062
781.334000	-1.586820
781.537000	-1.447211
781.739000	-0.487330
781.942000	-0.978334
782.145000	-1.428192
782.347000	-1.312986
782.550000	-1.042737
782.753000	-1.279292
782.955000	-1.253549
783.158000	-0.912108
783.361000	-0.524025
783.563000	-0.690030
783.766000	-0.848384
783.968000	1.178977
784.171000	0.898874
784.374000	-0.607508
784.576000	-0.666387
784.779000	-0.291884
784.982000	-0.066225
785.184000	-0.672803
785.387000	0.052752
785.590000	0.460585
785.792000	0.042938
785.995000	-0.087007
786.198000	-0.177304
786.400000	-0.691083
786.603000	-0.874367
786.806000	-0.841506
787.008000	-0.580048
787.211000	-0.491340
787.414000	-1.100439
787.616000	-0.708284
787.819000	-0.801626
788.022000	-1.322887
788.224000	-0.600205
788.427000	-1.521313
788.630000	-0.828519
788.832000	-0.571233
789.035000	-1.205154
789.238000	-1.611723
789.440000	-1.269382
789.643000	-0.378890
789.846000	-0.980465
790.048000	-0.401647
790.251000	-0.235648
790.454000	-0.628863
790.656000	-0.121661
790.859000	-0.674335
791.062000	-1.009630
791.264000	-0.487186
791.467000	-1.411167
791.669000	-1.780438
791.872000	-0.671659
792.075000	-1.197479
792.277000	-0.881664
792.480000	-0.642866
792.683000	-1.190332
792.885000	-1.350066
793.088000	-1.121576
793.291000	-1.358406
793.493000	-1.552706
793.696000	-0.583159
793.899000	0.056659
794.101000	-0.489686
794.304000	-0.791498
794.507000	-0.287169
794.709000	-0.255610
794.912000	-0.949671
795.115000	-1.255283
795.317000	-0.962083
795.520000	-0.748411
795.723000	-0.795180
795.925000	-1.114003
796.128000	-1.462645
796.331000	-1.182084
796.533000	-1.558959
796.736000	-0.693280
796.939000	-0.473268
797.141000	-0.996818
797.344000	-0.430476
797.547000	-0.219226
797.749000	-0.520435
797.952000	-1.105518
798.155000	-1.382511
798.357000	-1.503273
798.560000	-1.409995
798.763000	-0.527498
798.965000	-0.763978
799.168000	-0.935972
799.371000	-0.631131
799.573000	-0.962928
799.776000	-1.431185
799.978000	-1.344752
800.181000	-0.454451
800.384000	1.069668
800.586000	0.095382
800.789000	-1.489839
800.992000	-1.408477
801.194000	-1.676188
801.397000	-1.369100
801.600000	-1.130739
801.802000	-0.124022
802.005000	-0.356972
802.208000	-1.699002
802.410000	-0.777119
802.613000	-0.452882
802.816000	-0.840040
803.018000	-1.582352
803.221000	-1.408768
803.424000	-0.114398
803.626000	-0.374439
803.829000	-0.849616
804.032000	0.074850
804.234000	0.906234
804.437000	-0.652486
804.640000	-0.687694
804.842000	-0.677322
805.045000	-1.208917
805.248000	-1.066848
805.450000	-1.246045
805.653000	-1.072564
805.856000	-1.083472
806.058000	-0.178104
806.261000	-1.259384
806.464000	-1.418680
806.666000	-0.690373
806.869000	-1.062415
807.072000	-2.152783
807.274000	-2.399409
807.477000	-1.151959
807.679000	-0.734570
807.882000	-1.525547
808.085000	-1.225437
808.287000	-0.418826
808.490000	-1.166743
808.693000	-1.142645
808.895000	-1.069081
809.098000	-1.057118
809.301000	-0.910384
809.503000	-1.090408
809.706000	-0.173242
809.909000	0.003793
810.111000	-0.388695
810.314000	-0.706832
810.517000	-1.248428
810.719000	-1.471704
810.922000	-0.903112
811.125000	-0.098147
811.327000	-0.149986
811.530000	-0.703995
811.735000	-1.255512
811.940000	-1.683342
812.146000	-1.367084
812.351000	-0.228943
812.556000	-0.541106
812.761000	-1.545159
812.967000	-0.335989
813.172000	-0.165859
813.377000	-0.690380
813.582000	-0.127611
813.788000	-0.419918
813.993000	-1.489148
814.198000	-0.710253
814.403000	-1.529435
814.609000	-0.727628
814.814000	-0.744271
815.019000	0.310769
815.224000	0.017330
815.429000	-1.431852
815.635000	-0.951732
815.840000	-1.047098
816.045000	-0.957107
816.250000	-0.633225
816.456000	-1.557924
816.661000	-2.288250
816.866000	-1.650560
817.071000	-1.622188
817.277000	-2.444160
817.482000	-1.566580
817.687000	-0.505338
817.892000	-0.563588
818.097000	-0.356981
818.303000	0.018057
818.508000	0.503228
818.713000	1.701284
818.918000	0.226908
819.124000	-0.135378
819.329000	-1.243201
819.534000	-1.260964
819.739000	-1.303244
819.945000	-1.380018
820.150000	-0.947495
820.355000	-0.650446
820.560000	-0.464165
820.766000	-0.579202
820.971000	-0.668421
821.176000	-1.990046
821.381000	-2.599483
821.586000	-1.837885
821.792000	-0.168978
821.997000	-0.472712
822.202000	-1.153278
822.407000	-1.824425
822.613000	-1.784622
822.818000	-0.899745
823.023000	-0.652636
823.228000	-0.700935
823.434000	-0.245206
823.639000	-0.142731
823.844000	-1.308615
824.049000	-0.586138
824.255000	0.048879
824.460000	-0.828877
824.665000	-1.172772
824.870000	-0.399226
825.075000	-0.594357
825.281000	-0.461001
825.486000	0.472798
825.691000	-1.644436
825.896000	-2.814806
826.102000	-0.935818
826.307000	-0.573197
826.512000	-1.109477
826.717000	-1.036358
826.923000	-1.100725
827.128000	-0.903127
827.333000	-1.667724
827.538000	-0.850197
827.744000	-0.042068
827.949000	-1.161670
828.154000	-1.119534
828.359000	-0.338657
828.564000	-0.857949
828.770000	-0.971743
828.975000	-0.074190
829.180000	-0.391870
829.385000	-1.914201
829.591000	-1.778919
829.796000	-1.083568
830.001000	-1.278070
830.206000	-1.619925
830.412000	-1.136165
830.617000	-1.348327
830.822000	-0.464636
831.027000	-0.980510
831.232000	-1.620262
831.438000	-1.288017
831.643000	-0.796964
831.848000	-1.110610
832.053000	-0.933707
832.259000	-1.033791
832.464000	-2.855453
832.669000	-2.583676
832.874000	-2.347539
833.080000	-1.775510
833.285000	-0.128338
833.490000	-0.378615
833.695000	-1.472387
833.901000	-1.529918
834.106000	-1.633613
834.311000	-0.894974
834.516000	-0.811304
834.721000	-1.551371
834.927000	-0.424225
835.132000	-0.752023
835.337000	0.763484
835.542000	-0.376211
835.748000	-2.192324
835.953000	-0.133696
836.158000	-0.342892
836.363000	-1.025815
836.569000	-0.963323
836.774000	-1.794189
836.979000	-1.955342
837.184000	-2.137151
837.390000	-1.821756
837.595000	-1.310839
837.800000	-1.153405
838.005000	-0.963172
838.210000	-1.107142
838.416000	-1.705876
838.621000	-1.096359
838.826000	-1.402554
839.031000	-1.591191
839.237000	-1.895550
839.442000	-2.228132
839.647000	-2.371053
839.852000	-1.775401
840.058000	-1.505423
840.263000	-1.753536
840.468000	-2.348432
840.673000	-1.347657
840.878000	-1.478812
841.084000	-2.551548
841.289000	-1.809477
841.494000	1.249273
841.699000	1.366837
841.905000	0.365828
842.110000	0.329690
842.315000	-1.923149
842.520000	-1.158073
842.726000	-1.409456
842.931000	-2.459292
843.136000	-1.514734
843.341000	-2.262868
843.547000	-1.600309
843.752000	-1.582769
843.957000	-2.005894
844.162000	-2.388276
844.367000	-2.078809
844.573000	-1.080420
844.778000	-0.801772
844.983000	-0.665504
845.188000	-0.688766
845.394000	-2.397405
845.599000	-1.892038
845.804000	-1.337164
846.009000	-1.205105
846.215000	-2.427462
846.420000	-1.478302
846.625000	-0.238686
846.830000	0.046752
847.036000	-1.464518
847.241000	-1.901486
847.446000	-0.506591
847.651000	-1.270778
847.856000	-2.175942
848.062000	-2.203241
848.267000	-0.348202
848.472000	-1.458317
848.677000	-2.511449
848.883000	-1.061509
849.088000	0.704265
849.293000	-0.588140
849.498000	-1.499223
849.704000	-0.312593
849.909000	-1.315440
850.114000	-2.722643
850.319000	-1.339793
850.524000	-0.745558
850.730000	-0.296026
850.935000	-1.273467
851.140000	-0.472012
851.345000	-0.428448
851.551000	-0.386109
851.756000	-0.366255
851.961000	-1.642635
852.166000	-2.369527
852.372000	-1.758041
852.577000	-1.304279
852.782000	-1.784318
852.987000	-0.283517
853.193000	-0.710228
853.398000	-0.620795
853.603000	-2.127097
853.808000	-3.004668
854.013000	-1.892973
854.219000	-0.627606
854.424000	0.962120
854.629000	0.736290
854.834000	-1.737129
855.040000	-1.170894
855.245000	-0.269303
855.450000	-2.723754
855.655000	-3.797331
855.861000	-3.218187
856.066000	-2.659548
856.271000	-2.382687
856.476000	0.077581
856.682000	-1.102109
856.887000	-4.095673
857.092000	-2.284864
857.297000	0.102011
857.502000	-0.777284
857.708000	-1.493294
857.913000	-0.255279
858.118000	-1.124430
858.323000	-1.489961
858.529000	-1.318879
858.734000	-1.757649
858.939000	-1.762830
859.144000	-2.547358
859.350000	-3.229055
859.555000	-3.239151
859.760000	-1.097058
859.965000	-0.434279
860.171000	-2.333562
860.376000	-0.586445
860.581000	-2.622493
860.786000	-4.925681
860.991000	-4.146407
861.197000	-3.443645
861.402000	-1.070917
861.607000	-1.523330
861.812000	-2.966516
862.018000	-2.547783
862.223000	-1.563995
862.428000	-0.961267
862.633000	-0.272950
862.839000	-0.967734
863.044000	-2.218253
863.249000	-2.625254
863.454000	-1.155018
863.659000	-1.754633
863.865000	-2.596849
864.070000	-2.708121
864.275000	-3.209666
864.480000	-2.593672
864.686000	-4.423158
864.891000	-3.291754
865.096000	-0.867157
865.301000	-1.267301
865.507000	-1.221308
865.712000	-0.927277
865.917000	-1.578705
866.122000	-0.504294
866.328000	-3.544652
866.533000	-3.813194
866.738000	-0.914488
866.943000	-0.753256
867.148000	0.281666
867.354000	-2.499770
867.559000	-3.410264
867.764000	-1.515385
867.969000	-0.103023
868.175000	-2.017432
868.380000	-2.859931
868.585000	-3.588632
868.790000	-1.838282
868.996000	-1.963091
869.201000	-3.380167
869.406000	-3.933595
869.611000	-3.001942
869.817000	-2.856760
870.022000	1.859511
870.227000	0.122749
870.432000	-2.142911
870.637000	-1.427369
870.843000	-2.388919
871.048000	-2.534575
871.253000	-0.164828
871.458000	-1.008521
871.664000	-3.471830
871.869000	-4.051354
872.074000	-3.296292
872.279000	-1.731416
872.485000	-2.692528
872.690000	-3.240868
872.895000	-2.895007
873.100000	-2.988349
873.306000	-2.790349
873.511000	-1.961094
873.716000	-0.294657
873.921000	-2.475324
874.126000	-2.995145
874.332000	-2.105308
874.537000	-0.668285
874.742000	-0.911705
874.947000	-1.439637
875.153000	0.538316
875.358000	-0.739191
875.563000	-2.203054
875.768000	-4.371403
875.974000	-4.672146
876.179000	-1.816466
876.384000	-0.939536
876.589000	-2.799458
876.794000	-2.515030
877.000000	-2.964873
877.205000	-4.334664
877.410000	-2.205289
877.615000	-3.803859
877.821000	-5.809736
878.026000	-3.483675
878.231000	-3.838611
878.436000	-4.590096
878.642000	-3.643318
878.847000	-1.820811
879.052000	-0.643067
879.257000	-2.887680
879.463000	-3.320306
879.668000	-2.562722
879.873000	-0.983472
880.078000	-3.442286
880.283000	-4.855294
880.489000	-5.321713
880.694000	-4.508136
880.899000	-2.552638
881.104000	-1.039421
881.310000	1.262848
881.515000	-0.598572
881.720000	-0.023729
881.925000	0.828390
882.131000	2.942162
882.336000	0.182079
882.541000	-4.040705
882.746000	-3.503908
882.952000	-3.395570
883.157000	-2.916165
883.362000	-3.932578
883.567000	-5.035288
883.772000	-5.188136
883.978000	-4.556538
884.183000	-2.047472
884.388000	-1.582463
884.593000	-3.920567
884.799000	0.046247
885.004000	0.371594
885.209000	-1.974262
885.414000	-2.075402
885.620000	-5.061194
885.825000	-1.047245
886.030000	-1.627885
886.235000	-3.543252
886.440000	-2.464352
886.646000	-4.770851
886.851000	-4.906614
887.056000	-1.110048
887.261000	-1.447585
887.467000	-3.819601
887.672000	-1.539008
887.877000	-3.333154
888.082000	-5.105701
888.288000	-5.201216
888.493000	-7.025488
888.698000	-6.222176
888.903000	-2.958976
889.109000	-3.992312
889.314000	-1.067019
889.519000	-2.636301
889.724000	-0.526481
889.929000	-2.181486
890.135000	-2.804596
890.340000	-2.242543
890.545000	-3.601197
890.750000	-5.049693
890.956000	-3.386784
891.161000	-1.197509
891.366000	-4.408493
891.571000	-3.595454
891.777000	-2.853145
891.982000	-1.250158
892.187000	-1.810003
892.392000	-0.304242
892.598000	0.011921
892.803000	-1.030283
893.008000	-3.272011
893.213000	-4.062235
893.418000	-3.889743
893.624000	-4.434805
893.829000	-6.822929
894.034000	-3.716635
894.239000	-0.802376
894.445000	-3.848174
894.650000	-5.011097
894.855000	-4.158632
895.060000	-4.233337
895.266000	-4.547974
895.471000	-6.194979
895.676000	-2.380214
895.881000	-1.360537
896.087000	-2.567625
896.292000	-3.212609
896.497000	0.012627
896.702000	-1.287016
896.907000	-3.178419
897.113000	1.150481
897.318000	1.023536
897.523000	-0.029562
897.728000	-2.488554
897.934000	-2.100213
898.139000	-2.572123
898.344000	-1.441434
898.549000	-2.439016
898.755000	-4.380937
898.960000	-5.014793
899.165000	-6.404649
899.370000	-2.207766
899.575000	1.628399
899.781000	-2.788835
899.986000	-3.795990
900.191000	-2.894921
900.396000	-3.692331
900.602000	-2.960060
900.807000	-3.561980
901.012000	-2.055743
901.217000	-0.392327
901.423000	-3.401997
901.628000	-4.856297
901.833000	-0.303614
902.038000	0.105036
902.244000	-3.402020
902.449000	-3.880159
902.654000	-3.828468
902.859000	-2.433953
903.064000	-0.635768
903.270000	-0.265468
903.475000	-4.646922
903.680000	-6.923694
903.885000	-5.758637
904.091000	-5.316527
904.296000	-7.468937
904.501000	-5.881887
904.706000	-4.803654
904.912000	-0.323058
905.117000	-1.825421
905.322000	-4.573751
905.527000	-4.309609
905.733000	-4.506913
905.938000	-4.779731
906.143000	-4.787658
906.348000	-6.674405
906.553000	-2.879552
906.759000	-0.932651
906.964000	-1.739232
907.169000	-3.311561
907.374000	-5.667871
907.580000	-4.231830
907.785000	-3.636154
907.990000	24.080918
908.195000	15.756189
908.401000	-1.595939
908.606000	-8.818060
908.811000	-10.375858
909.016000	-2.331086
909.221000	-2.390781
909.427000	-3.930158
909.632000	-5.450751
909.837000	-5.381848
910.042000	-7.380607
910.248000	-8.332961
910.453000	-3.501866
910.658000	-4.837455
910.863000	-5.813060
911.069000	-6.381032
911.274000	-2.792580
911.479000	0.016626
911.684000	-6.738574
911.890000	-4.445025
912.095000	-4.115461
912.300000	-7.744099
912.506000	-6.622805
912.711000	-6.933212
912.917000	-4.031353
913.123000	-3.407168
913.328000	-2.911403
913.534000	-3.807373
913.740000	5.503101
913.946000	1.777074
914.151000	-5.749290
914.357000	-6.896987
914.563000	-2.682630
914.768000	-5.720949
914.974000	-8.232802
915.180000	-6.682906
915.385000	-5.618678
915.591000	-8.481450
915.797000	-3.294490
916.002000	-0.352009
916.208000	-4.285018
916.414000	-7.128972
916.620000	-6.708216
916.825000	-2.542986
917.031000	-3.232740
917.237000	-9.585763
917.442000	-6.453168
917.648000	-7.846784
917.854000	-8.736325
918.059000	-1.718098
918.265000	-1.587411
918.471000	-4.502140
918.676000	-6.900418
918.882000	-8.983089
919.088000	-7.485348
919.294000	-12.916690
919.499000	-9.465580
919.705000	-2.464913
919.911000	-2.934932
920.116000	-2.421644
920.322000	-9.516562
920.528000	-7.444417
920.733000	-8.173311
920.939000	-8.695115
921.145000	-7.284017
921.350000	-6.884181
921.556000	-4.667459
921.762000	-5.860424
921.968000	-8.293386
922.173000	-8.563582
922.379000	-10.734151
922.585000	-7.029536
922.790000	-6.532232
922.996000	-7.537182
923.202000	-7.405443
923.407000	-8.423446
923.613000	-8.210245
923.819000	-4.936580
924.024000	-5.652859
924.230000	-3.208719
924.436000	-5.043923
924.642000	5.458844
924.847000	0.874123
925.053000	-6.931575
925.259000	-11.506453
925.464000	-5.818038
925.670000	-5.891148
925.876000	-6.902042
926.081000	-7.730277
926.287000	-3.068653
926.493000	-2.073784
926.698000	-6.603531
926.904000	-3.510460
927.110000	-7.087268
927.316000	-7.036010
927.521000	0.680439
927.727000	-4.135704
927.933000	-5.574406
928.138000	-5.095160
928.344000	-10.588829
928.550000	-7.202884
928.755000	-1.608509
928.961000	-7.271146
929.167000	-8.524641
929.372000	-0.320834
929.578000	-1.286401
929.784000	-7.290072
929.990000	-9.537523
930.195000	-8.142111
930.401000	-5.966421
930.607000	-3.918458
930.812000	-3.504037
931.018000	-7.155332
931.224000	-13.700786
931.429000	-8.672151
931.635000	-11.331602
931.841000	-11.722233
932.046000	-7.455281
932.252000	-3.263608
932.458000	4.014363
932.664000	-1.314795
932.869000	-8.905762
933.075000	-11.384537
933.281000	-11.350361
933.486000	-5.138783
933.692000	-7.058988
933.898000	-10.377840
934.103000	-2.587758
934.309000	-8.502094
934.515000	-7.178915
934.720000	-6.364736
934.926000	-1.131365
935.132000	-1.978837
935.338000	-4.567477
935.543000	-11.034576
935.749000	-13.437973
935.955000	-16.140352
936.160000	-13.767503
936.366000	-4.671021
936.572000	-5.219963
936.777000	-3.928080
936.983000	-2.067961
937.189000	-5.616679
937.394000	-11.301640
937.600000	-4.879749
937.806000	0.398537
938.012000	-8.182477
938.217000	2.014510
938.423000	-3.198907
938.629000	-10.419743
938.834000	-15.634963
939.040000	-15.332909
939.246000	-9.671409
939.451000	-11.216406
939.657000	-6.493273
939.863000	-11.222460
940.068000	-5.043582
940.274000	-10.870030
940.480000	-8.148375
940.686000	-5.795544
940.891000	-10.019001
941.097000	18.116242
941.303000	6.370065
941.508000	-6.888233
941.714000	-5.219160
941.920000	-18.830611
942.125000	-9.803479
942.331000	-6.212076
942.537000	0.188983
942.742000	0.484601
942.948000	-10.383707
943.154000	-13.451556
943.360000	-23.515436
943.565000	-10.590674
943.771000	0.196589
943.977000	2.448083
944.182000	-20.045896
944.388000	-20.434079
944.594000	-6.515868
944.799000	3.283276
945.005000	-2.379547
945.211000	-0.106409
945.416000	-5.510598
945.622000	-19.297360
945.828000	-16.377167
946.034000	-4.721628
946.239000	-2.030284
946.445000	-6.248709
946.651000	-18.908692
946.856000	-19.271048
947.062000	-2.316962
947.268000	-2.174486
947.473000	-17.323137
947.679000	-21.597367
947.885000	-4.937621
948.090000	-0.598743
948.296000	11.239422
948.502000	-2.708572
948.708000	-10.912524
948.913000	-14.022027
949.119000	-4.418545
949.325000	-5.746098
949.530000	-19.171734
949.736000	-25.710990
949.942000	-17.879523
950.147000	-17.015559
950.353000	-13.421315
950.559000	-7.841045
950.764000	13.323091
950.970000	7.567262
951.176000	-7.553679
951.382000	-14.954317
951.587000	-8.113333
951.793000	-5.193980
951.999000	-2.189418
952.204000	-16.311336
952.410000	-28.243034
952.616000	-14.670647
952.821000	-8.046274
953.027000	-17.553067
953.233000	-24.896488
953.438000	-22.244427
953.644000	-3.838510
953.850000	-7.735249
954.056000	-14.077930
954.261000	-14.885389
954.467000	-4.456235
954.673000	3.654749
954.878000	-8.436614
955.084000	-11.521977
955.290000	-22.646523
955.495000	-25.080521
955.701000	-19.200691
955.907000	0.795414
956.112000	-1.794491
956.318000	6.655750
956.524000	6.361494
956.730000	-10.304577
956.935000	-14.870631
957.141000	-17.396967
957.347000	-7.941046
957.552000	-11.547182
957.758000	-27.736080
957.964000	-38.401972
958.169000	0.057969
958.375000	1.608781
958.581000	-13.575877
958.786000	-24.963310
958.992000	-31.142533
959.198000	-13.480723
959.404000	-5.496166
959.609000	-13.493342
959.815000	-20.369569
960.021000	-4.788555
960.226000	-3.811761
960.432000	-26.867288
960.638000	-18.985211
960.843000	-15.847447
961.049000	-17.442376
961.255000	-4.536194
961.460000	-17.412174
961.666000	-34.951096
961.872000	-22.024944
962.078000	-20.310377
962.283000	-28.408532
962.489000	-27.069168
962.695000	-17.821188
962.900000	-14.867548
963.106000	-14.590904
963.312000	-19.434019
963.517000	-25.146572
963.723000	-25.670375
963.929000	-5.325491
964.134000	5.449627
964.340000	-18.754133
964.546000	-27.803522
964.752000	-27.991856
964.957000	-32.408946
965.163000	-7.178705
965.369000	-11.774098
965.574000	-9.741582
965.780000	-10.707915
966.000000	-21.025711
966.220000	-19.945581
966.440000	-17.141649
966.661000	-6.268807
966.881000	-27.329879
967.101000	-46.732671
967.321000	-43.551364
967.541000	-13.311633
967.761000	-20.486979
967.981000	-16.964742
968.202000	-16.852016
968.422000	-6.103449
968.642000	-2.233614
968.862000	-9.881284
969.082000	-21.570996
969.302000	-5.370669
969.522000	-9.565964
969.743000	0.861068
969.963000	-17.787753
970.183000	-29.568687
970.403000	-27.029716
970.623000	-30.452635
970.843000	-4.049980
971.063000	-4.672007
971.284000	-26.091387
971.504000	-36.863108
971.724000	-18.784696
971.944000	-32.569234
972.164000	-40.625626
972.384000	-31.275824
972.604000	-47.482901
972.825000	-49.149433
973.045000	-31.642062
973.265000	17.607015
973.485000	3.719653
973.705000	-11.464810
973.925000	-19.664626
974.145000	-52.576029
974.365000	-19.507989
974.586000	-21.530482
974.806000	-34.982975
975.026000	-7.567385
975.246000	-27.203191
975.466000	-37.668677
975.686000	-19.607686
975.906000	-26.307317
976.127000	-46.293517
976.347000	-40.692398
976.567000	-13.179757
976.787000	-16.550520
977.007000	-30.555776
977.227000	-34.896395
977.447000	-39.795595
977.668000	-54.454357
977.888000	-36.423792
978.108000	-33.530077
978.328000	-16.744289
978.548000	11.406872
978.768000	7.302658
978.988000	-4.772853
979.209000	-18.593203
979.429000	-24.720378
979.649000	-15.706132
979.869000	-29.210401
980.089000	-49.272119
980.309000	-55.213233
980.529000	-58.863898
980.750000	-36.426474
980.970000	-49.691381
981.190000	-40.554652
981.410000	-40.474774
981.630000	-47.827856
981.850000	-27.959284
982.070000	-14.690413
982.291000	-41.455044
982.511000	-50.282012
982.731000	-20.107557
982.951000	-35.795208
983.171000	-38.934528
983.391000	-30.048241
983.611000	-2.489987
983.832000	-36.465989
984.052000	-60.497560
984.272000	-33.860711
984.492000	-28.408412
984.712000	-42.232575
984.932000	-56.250997
985.152000	-67.583481
985.373000	-54.046499
985.593000	-28.644577
985.813000	-43.907481
986.033000	-52.103211
986.253000	-5.324562
986.473000	2.507902
986.693000	-35.908217
986.914000	-48.800551
987.134000	-10.554961
987.354000	-35.637763
987.574000	177.082037
987.794000	103.619746
988.014000	-51.487795
988.234000	-42.375158
988.455000	-30.681495
988.675000	-29.174316
988.895000	-31.337745
989.115000	-49.701955
989.335000	-27.464229
989.555000	-15.030296
989.775000	-61.321516
989.995000	-42.203071
990.216000	-24.764341
990.436000	-20.008297
990.656000	7.501091
990.876000	-28.529983
991.096000	-18.684012
991.316000	17.665975
991.536000	-16.304558
991.757000	-29.855772
991.977000	-71.824490
992.197000	-17.844325
992.417000	-37.712421
992.637000	-91.948862
992.857000	-94.971669
993.077000	-88.948883
993.298000	-49.848526
993.518000	-37.488423
993.738000	-103.588892
993.958000	-63.315374
994.178000	-54.162168
994.398000	-38.040165
994.618000	-92.106722
994.839000	-144.652953
995.059000	-47.309298
995.279000	22.415301
995.499000	-19.797486
995.719000	-17.590068
995.939000	-20.602743
996.159000	-38.683520
996.380000	-36.721500
996.600000	-80.008350
996.820000	-44.329954
997.040000	0.242868
997.260000	-60.056950
997.480000	-47.782326
997.700000	-119.086433
997.921000	-91.498578
998.141000	2.695910
998.361000	-19.553600
998.581000	-67.704564
998.801000	-103.309098
999.021000	-54.169252
999.241000	-48.846000
999.462000	-84.687257
999.682000	-110.052254
999.902000	-76.417199
1000.122000	-106.120954
1000.342000	-154.397153
1000.562000	-87.247405
1000.782000	-96.034390
1001.003000	-1026.602559
