Wavelength	Irradiance
(nm)	(mW/cm2/nm)

294.396000	0.000000
294.577000	0.000000
294.757000	0.000000
294.938000	-0.000000
295.118000	-0.000000
295.299000	0.000000
295.479000	-0.000000
295.660000	-0.000000
295.840000	-0.000000
296.021000	-0.000000
296.202000	-0.000000
296.382000	-0.000000
296.563000	-0.000000
296.743000	-0.000000
296.924000	-0.000000
297.104000	-0.000000
297.285000	-0.000000
297.465000	-0.000000
297.646000	-0.000000
297.826000	-0.000000
298.007000	0.000000
298.187000	0.000000
298.368000	-0.000000
298.548000	0.000000
298.729000	0.000000
298.909000	-0.000000
299.090000	-0.000000
299.270000	-0.000000
299.451000	-0.000000
299.631000	-0.000000
299.812000	-0.000000
299.992000	0.000000
300.173000	0.000000
300.353000	-0.000000
300.534000	-0.000000
300.714000	0.000000
300.895000	0.000000
301.075000	-0.000000
301.256000	0.000000
301.436000	-0.000000
301.617000	-0.000000
301.797000	-0.000000
301.978000	0.000000
302.159000	0.000000
302.339000	0.000000
302.520000	-0.000000
302.700000	-0.000000
302.881000	0.000000
303.061000	0.000000
303.242000	0.000000
303.422000	0.000000
303.603000	-0.000000
303.783000	-0.000000
303.964000	0.000000
304.144000	-0.000000
304.325000	-0.000000
304.505000	0.000000
304.686000	0.000000
304.866000	0.000000
305.047000	0.000000
305.227000	-0.000000
305.408000	-0.000000
305.588000	-0.000000
305.769000	-0.000000
305.949000	-0.000000
306.130000	-0.000000
306.310000	-0.000000
306.491000	-0.000000
306.671000	0.000000
306.852000	-0.000000
307.032000	-0.000000
307.213000	-0.000000
307.393000	-0.000000
307.574000	0.000000
307.755000	0.000000
307.935000	0.000000
308.116000	-0.000000
308.296000	-0.000000
308.477000	0.000000
308.657000	0.000000
308.838000	0.000000
309.018000	0.000000
309.199000	-0.000000
309.379000	-0.000000
309.560000	0.000000
309.740000	-0.000000
309.921000	-0.000000
310.101000	0.000000
310.282000	-0.000000
310.462000	-0.000000
310.643000	-0.000000
310.823000	-0.000000
311.004000	-0.000000
311.184000	-0.000000
311.365000	0.000000
311.545000	0.000000
311.726000	0.000000
311.906000	-0.000000
312.087000	0.000000
312.267000	-0.000000
312.448000	-0.000000
312.628000	-0.000000
312.809000	-0.000000
312.989000	-0.000000
313.170000	-0.000000
313.344000	-0.000000
313.518000	-0.000000
313.691000	-0.000000
313.865000	-0.000000
314.039000	-0.000000
314.213000	-0.000000
314.387000	-0.000000
314.560000	-0.000000
314.734000	-0.000000
314.908000	-0.000000
315.082000	-0.000000
315.255000	-0.000000
315.429000	0.000000
315.603000	0.000000
315.777000	-0.000000
315.951000	0.000000
316.124000	-0.000000
316.298000	-0.000000
316.472000	-0.000000
316.646000	-0.000000
316.820000	-0.000000
316.993000	-0.000000
317.167000	-0.000000
317.341000	-0.000000
317.515000	-0.000000
317.688000	-0.000000
317.862000	-0.000000
318.036000	-0.000000
318.210000	-0.000000
318.384000	-0.000000
318.557000	-0.000000
318.731000	-0.000000
318.905000	0.000000
319.079000	0.000000
319.253000	0.000000
319.426000	0.000000
319.600000	0.000000
319.774000	-0.000000
319.948000	-0.000000
320.122000	0.000000
320.295000	0.000000
320.469000	-0.000000
320.643000	-0.000000
320.817000	-0.000000
320.990000	-0.000000
321.164000	-0.000000
321.338000	-0.000000
321.512000	-0.000000
321.686000	-0.000000
321.859000	-0.000000
322.033000	-0.000000
322.207000	-0.000000
322.381000	-0.000000
322.555000	0.000000
322.728000	-0.000000
322.902000	-0.000000
323.076000	-0.000000
323.250000	-0.000000
323.423000	-0.000000
323.597000	-0.000000
323.771000	-0.000000
323.945000	-0.000000
324.119000	-0.000000
324.292000	0.000000
324.466000	-0.000000
324.640000	0.000000
324.814000	0.000000
324.988000	-0.000000
325.161000	-0.000000
325.335000	-0.000000
325.509000	-0.000000
325.683000	-0.000000
325.856000	-0.000000
326.030000	-0.000000
326.204000	-0.000000
326.378000	-0.000000
326.552000	-0.000000
326.725000	-0.000000
326.899000	-0.000000
327.073000	-0.000000
327.247000	-0.000000
327.421000	0.000000
327.594000	-0.000000
327.768000	-0.000000
327.942000	-0.000000
328.116000	0.000000
328.289000	-0.000000
328.463000	-0.000000
328.637000	0.000000
328.811000	-0.000000
328.985000	-0.000000
329.158000	-0.000000
329.332000	-0.000000
329.506000	-0.000000
329.680000	-0.000000
329.854000	-0.000000
330.027000	-0.000000
330.201000	-0.000000
330.375000	0.000000
330.549000	0.000000
330.723000	0.000000
330.896000	-0.000000
331.070000	-0.000000
331.244000	-0.000000
331.418000	-0.000000
331.591000	-0.000000
331.765000	-0.000000
331.939000	-0.000000
332.113000	-0.000000
332.287000	-0.000000
332.460000	0.000000
332.634000	0.000000
332.808000	-0.000000
332.982000	-0.000000
333.156000	-0.000000
333.329000	0.000000
333.503000	-0.000000
333.677000	-0.000000
333.851000	-0.000000
334.024000	-0.000000
334.198000	-0.000000
334.372000	-0.000000
334.546000	-0.000000
334.720000	-0.000000
334.893000	-0.000000
335.067000	-0.000000
335.241000	-0.000000
335.415000	-0.000000
335.589000	-0.000000
335.762000	-0.000000
335.936000	-0.000000
336.110000	-0.000000
336.284000	-0.000000
336.458000	-0.000000
336.631000	-0.000000
336.805000	-0.000000
336.979000	-0.000000
337.153000	-0.000000
337.326000	-0.000000
337.500000	-0.000000
337.674000	-0.000000
337.848000	-0.000000
338.022000	-0.000000
338.195000	-0.000000
338.369000	-0.000000
338.543000	-0.000000
338.717000	-0.000000
338.891000	0.000000
339.064000	0.000000
339.238000	-0.000000
339.412000	-0.000000
339.586000	-0.000000
339.759000	-0.000000
339.933000	-0.000000
340.107000	0.000000
340.281000	-0.000000
340.455000	-0.000000
340.628000	-0.000000
340.802000	-0.000000
340.976000	-0.000000
341.150000	-0.000000
341.324000	-0.000000
341.497000	-0.000000
341.671000	-0.000000
341.845000	-0.000000
342.019000	-0.000000
342.192000	-0.000000
342.366000	-0.000000
342.540000	-0.000000
342.714000	-0.000000
342.888000	-0.000000
343.061000	-0.000000
343.235000	-0.000000
343.409000	-0.000000
343.583000	-0.000000
343.757000	-0.000000
343.930000	-0.000000
344.104000	-0.000000
344.278000	0.000000
344.452000	0.000000
344.626000	-0.000000
344.799000	-0.000000
344.973000	-0.000000
345.147000	-0.000000
345.321000	-0.000000
345.494000	-0.000000
345.668000	0.000000
345.842000	0.000000
346.016000	-0.000000
346.190000	0.000000
346.363000	-0.000000
346.537000	-0.000000
346.711000	0.000000
346.885000	-0.000000
347.059000	-0.000000
347.232000	0.000000
347.406000	0.000000
347.580000	-0.000000
347.754000	-0.000000
347.927000	-0.000000
348.101000	0.000000
348.275000	-0.000000
348.449000	-0.000000
348.623000	-0.000000
348.796000	0.000000
348.970000	0.000000
349.144000	-0.000000
349.318000	-0.000000
349.492000	-0.000000
349.665000	-0.000000
349.839000	-0.000000
350.013000	-0.000000
350.187000	-0.000000
350.361000	-0.000000
350.534000	-0.000000
350.708000	-0.000000
350.882000	-0.000000
351.056000	0.000000
351.229000	0.000000
351.403000	-0.000000
351.577000	-0.000000
351.751000	-0.000000
351.925000	-0.000000
352.098000	-0.000000
352.272000	-0.000000
352.446000	-0.000000
352.620000	-0.000000
352.794000	-0.000000
352.967000	-0.000000
353.141000	0.000000
353.315000	0.000000
353.489000	-0.000000
353.662000	-0.000000
353.836000	-0.000000
354.010000	-0.000000
354.184000	0.000000
354.358000	-0.000000
354.531000	-0.000000
354.705000	-0.000000
354.879000	-0.000000
355.053000	-0.000000
355.227000	0.000000
355.400000	-0.000000
355.574000	0.000000
355.748000	0.000000
355.922000	-0.000000
356.095000	-0.000000
356.269000	-0.000000
356.443000	-0.000000
356.617000	-0.000000
356.791000	-0.000000
356.964000	-0.000000
357.138000	-0.000000
357.312000	-0.000000
357.486000	-0.000000
357.660000	-0.000000
357.833000	0.000000
358.007000	-0.000000
358.181000	-0.000000
358.355000	-0.000000
358.529000	-0.000000
358.702000	-0.000000
358.876000	-0.000000
359.050000	-0.000000
359.224000	-0.000000
359.397000	0.000000
359.571000	-0.000000
359.745000	-0.000000
359.919000	-0.000000
360.093000	-0.020329
360.266000	0.088788
360.440000	0.100799
360.614000	0.069991
360.788000	-0.103330
360.962000	-0.330682
361.135000	-0.074036
361.309000	-0.161922
361.483000	-0.318919
361.657000	-0.296513
361.830000	-0.283219
362.004000	-0.082000
362.178000	-0.266419
362.352000	-0.258219
362.526000	-0.109012
362.699000	-0.093539
362.873000	-0.348578
363.047000	-0.303444
363.221000	-0.280040
363.395000	-0.141365
363.568000	-0.272744
363.742000	-0.216414
363.916000	-0.178467
364.090000	-0.272038
364.263000	-0.203373
364.437000	-0.311484
364.611000	-0.072089
364.785000	-0.151027
364.959000	-0.288566
365.132000	-0.178558
365.306000	-0.210747
365.480000	-0.159716
365.656000	-0.279546
365.831000	-0.222168
366.007000	-0.104900
366.183000	-0.153930
366.358000	-0.300037
366.534000	-0.215674
366.710000	-0.439830
366.886000	-0.354534
367.061000	-0.074879
367.237000	0.094609
367.413000	-0.119579
367.588000	-0.329709
367.764000	-0.269850
367.940000	-0.348002
368.115000	-0.332564
368.291000	-0.333055
368.467000	-0.233360
368.643000	0.078872
368.818000	-0.214876
368.994000	-0.430210
369.170000	-0.234207
369.345000	-0.149751
369.521000	-0.261620
369.697000	-0.215067
369.872000	-0.294481
370.048000	-0.425457
370.224000	-0.276276
370.399000	-0.442217
370.575000	-0.330702
370.751000	-0.424350
370.927000	-0.443793
371.102000	-0.467550
371.278000	-0.304591
371.454000	-0.276262
371.629000	-0.048457
371.805000	-0.077929
371.981000	0.076464
372.156000	0.212364
372.332000	0.109162
372.508000	0.022451
372.683000	-0.071650
372.859000	-0.113564
373.035000	-0.174567
373.211000	0.202757
373.386000	0.010772
373.562000	-0.406641
373.738000	-0.464682
373.913000	-0.558805
374.089000	-0.393776
374.265000	-0.156480
374.440000	-0.079537
374.616000	0.052910
374.792000	-0.164947
374.968000	0.156985
375.143000	-0.007076
375.319000	-0.293982
375.495000	-0.378401
375.670000	-0.206825
375.846000	-0.024889
376.022000	-0.216759
376.197000	-0.125897
376.373000	-0.398269
376.549000	-0.449279
376.724000	-0.418941
376.900000	-0.262561
377.076000	-0.141048
377.252000	-0.023997
377.427000	0.096595
377.603000	-0.129213
377.779000	-0.269002
377.954000	-0.465603
378.130000	-0.315767
378.306000	-0.197537
378.481000	-0.139204
378.657000	-0.201447
378.833000	-0.235388
379.009000	-0.157587
379.184000	-0.087665
379.360000	-0.098330
379.536000	-0.110674
379.711000	-0.153534
379.887000	-0.232113
380.063000	-0.223936
380.238000	-0.242771
380.414000	-0.052625
380.590000	-0.330360
380.765000	-0.289033
380.941000	-0.052379
381.117000	-0.136900
381.293000	-0.221237
381.468000	-0.442011
381.644000	-0.278678
381.820000	-0.018141
381.995000	0.021754
382.171000	0.108132
382.347000	0.119491
382.522000	-0.189656
382.698000	0.050017
382.874000	-0.012486
383.050000	-0.463888
383.225000	-0.086696
383.401000	0.233476
383.577000	-0.001153
383.752000	-0.323290
383.928000	-0.333842
384.104000	-0.128328
384.279000	-0.192067
384.455000	-0.158533
384.631000	-0.282623
384.806000	-0.449538
384.982000	-0.018037
385.158000	-0.131896
385.334000	-0.107486
385.509000	-0.147285
385.685000	-0.366586
385.861000	-0.258121
386.036000	-0.485474
386.212000	-0.700165
386.388000	-0.498135
386.563000	-0.374564
386.739000	-0.305299
386.915000	-0.453702
387.090000	-0.267574
387.266000	-0.108465
387.442000	-0.029348
387.618000	-0.101907
387.793000	-0.339977
387.969000	-0.486561
388.145000	-0.327572
388.320000	-0.333407
388.496000	-0.311896
388.672000	-0.491460
388.847000	-0.112562
389.023000	-0.068420
389.199000	-0.350653
389.375000	-0.106697
389.550000	-0.155523
389.726000	-0.133801
389.902000	-0.347378
390.077000	-0.208830
390.253000	-0.095653
390.429000	-0.258436
390.604000	-0.162210
390.780000	-0.078491
390.956000	-0.209519
391.131000	-0.302182
391.307000	0.141336
391.483000	-0.033952
391.659000	-0.259317
391.834000	-0.088621
392.010000	-0.197761
392.186000	-0.252655
392.361000	-0.138109
392.537000	-0.212770
392.713000	0.079742
392.888000	0.166196
393.064000	-0.055236
393.240000	-0.238752
393.416000	-0.307074
393.591000	-0.374178
393.767000	-0.413337
393.943000	-0.408149
394.118000	-0.006392
394.294000	0.201210
394.470000	0.062650
394.645000	-0.001058
394.821000	0.174600
394.997000	-0.085698
395.172000	-0.048411
395.348000	-0.117048
395.524000	-0.438612
395.700000	-0.356701
395.875000	-0.173419
396.051000	-0.214926
396.227000	-0.232295
396.402000	-0.318063
396.578000	-0.090643
396.754000	-0.215944
396.929000	-0.209761
397.105000	0.129211
397.281000	0.004167
397.457000	-0.182805
397.632000	-0.119216
397.808000	-0.394055
397.984000	-0.540422
398.159000	-0.453049
398.335000	-0.239503
398.511000	0.226643
398.686000	-0.021710
398.862000	-0.386088
399.038000	-0.390214
399.213000	-0.051988
399.389000	-0.401483
399.565000	-0.103416
399.741000	0.167736
399.916000	-0.021686
400.092000	0.219910
400.268000	-0.113127
400.443000	-0.284642
400.619000	0.132791
400.795000	0.081621
400.970000	-0.159042
401.146000	-0.200604
401.322000	0.050490
401.497000	0.385089
401.673000	0.061062
401.849000	-0.243440
402.025000	-0.036978
402.200000	-0.159801
402.376000	-0.241644
402.552000	0.132631
402.727000	-0.031723
402.903000	-0.348224
403.079000	-0.256490
403.254000	0.050115
403.430000	0.054860
403.606000	-0.097690
403.782000	-0.199200
403.957000	-0.322071
404.133000	-0.353559
404.309000	-0.169575
404.484000	-0.041733
404.660000	-0.062264
404.841000	-0.128691
405.023000	0.151350
405.204000	0.060108
405.385000	-0.430868
405.566000	-0.439119
405.748000	-0.227511
405.929000	-0.104495
406.110000	-0.149306
406.292000	-0.168064
406.473000	-0.051762
406.654000	-0.261888
406.835000	-0.092775
407.017000	-0.163521
407.198000	-0.231999
407.379000	-0.176274
407.560000	-0.131614
407.742000	-0.117448
407.923000	-0.026471
408.104000	-0.218866
408.286000	-0.117301
408.467000	-0.016139
408.648000	-0.238792
408.829000	-0.384151
409.011000	-0.233201
409.192000	-0.411467
409.373000	-0.142706
409.555000	0.039479
409.736000	-0.101554
409.917000	-0.273500
410.098000	-0.251639
410.280000	-0.105501
410.461000	-0.105313
410.642000	-0.120438
410.823000	0.163179
411.005000	-0.010959
411.186000	-0.205367
411.367000	-0.280378
411.549000	-0.310087
411.730000	0.013955
411.911000	0.148270
412.092000	-0.115088
412.274000	-0.183147
412.455000	-0.015787
412.636000	0.053330
412.818000	-0.158372
412.999000	-0.181726
413.180000	-0.143507
413.361000	-0.070047
413.543000	-0.108926
413.724000	-0.250573
413.905000	-0.304416
414.087000	-0.236391
414.268000	-0.204697
414.449000	-0.253676
414.630000	-0.313206
414.812000	-0.453763
414.993000	-0.126465
415.174000	0.114935
415.355000	-0.064139
415.537000	-0.402481
415.718000	-0.209195
415.899000	-0.169948
416.081000	-0.226947
416.262000	-0.044145
416.443000	-0.106256
416.624000	-0.110785
416.806000	-0.039232
416.987000	0.047112
417.168000	-0.043963
417.350000	-0.153833
417.531000	-0.119668
417.712000	-0.143400
417.893000	0.013290
418.075000	0.079444
418.256000	-0.114769
418.437000	0.032379
418.618000	0.127152
418.800000	0.169585
418.981000	-0.066932
419.162000	0.036529
419.344000	0.267749
419.525000	0.074882
419.706000	-0.062629
419.887000	0.164781
420.069000	0.339622
420.250000	0.254413
420.431000	0.140578
420.613000	0.089107
420.794000	-0.124416
420.975000	0.271637
421.156000	0.135610
421.338000	0.050812
421.519000	0.116656
421.700000	0.083977
421.882000	0.032076
422.063000	0.220214
422.244000	0.705993
422.425000	0.454914
422.607000	0.122516
422.788000	0.032141
422.969000	-0.015021
423.150000	-0.043235
423.332000	-0.104027
423.513000	0.271708
423.694000	0.296763
423.876000	0.248751
424.057000	0.305333
424.238000	0.453098
424.419000	0.487621
424.601000	0.316820
424.782000	0.264381
424.963000	0.581699
425.145000	0.569153
425.326000	0.562018
425.507000	0.575244
425.688000	0.385131
425.870000	0.202314
426.051000	0.163373
426.232000	0.280716
426.413000	0.277645
426.595000	0.365437
426.776000	0.449778
426.957000	0.413996
427.139000	0.459198
427.320000	0.536685
427.501000	0.709216
427.682000	0.639792
427.864000	0.719477
428.045000	0.967138
428.226000	0.961120
428.408000	0.633508
428.589000	0.644959
428.770000	0.695239
428.951000	0.647100
429.133000	0.621761
429.314000	0.882709
429.495000	0.833180
429.677000	0.854836
429.858000	0.762133
430.039000	0.866141
430.220000	0.997549
430.402000	1.083217
430.583000	0.921812
430.764000	1.011449
430.945000	1.106908
431.127000	1.205753
431.308000	1.089346
431.489000	1.230096
431.671000	1.370405
431.852000	1.282475
432.033000	1.227011
432.214000	1.432716
432.396000	1.530408
432.577000	1.427464
432.758000	1.255126
432.940000	1.309345
433.121000	1.474458
433.302000	1.561770
433.483000	1.705894
433.665000	1.863316
433.846000	1.803117
434.027000	1.714080
434.208000	1.707267
434.390000	1.731902
434.571000	2.012388
434.752000	2.407241
434.934000	2.240131
435.115000	2.345578
435.296000	2.426494
435.477000	2.202227
435.659000	2.035816
435.840000	2.230620
436.026000	2.331459
436.211000	2.257355
436.397000	2.012698
436.582000	2.195444
436.768000	2.523038
436.953000	2.461826
437.139000	2.620584
437.325000	3.010945
437.510000	2.984022
437.696000	3.169884
437.881000	3.257215
438.067000	2.910682
438.252000	2.939109
438.438000	3.177485
438.624000	3.216980
438.809000	3.256102
438.995000	3.461060
439.180000	3.363668
439.366000	3.451119
439.551000	3.489762
439.737000	3.646724
439.923000	3.967018
440.108000	3.910000
440.294000	4.009927
440.479000	4.218689
440.665000	4.348916
440.850000	4.307820
441.036000	4.377092
441.222000	4.493699
441.407000	4.329624
441.593000	4.539478
441.778000	4.837197
441.964000	5.018968
442.149000	4.826696
442.335000	4.894887
442.521000	5.057393
442.706000	5.304461
442.892000	5.418176
443.077000	5.440510
443.263000	5.642982
443.448000	5.567791
443.634000	5.696302
443.820000	6.064391
444.005000	6.122297
444.191000	6.011072
444.376000	6.118508
444.562000	6.518411
444.747000	6.704472
444.933000	6.754975
445.119000	6.771481
445.304000	6.885359
445.490000	7.149304
445.675000	7.215330
445.861000	7.304076
446.046000	7.320775
446.232000	7.465565
446.418000	7.839934
446.603000	7.953039
446.789000	8.013583
446.974000	8.151982
447.160000	8.077956
447.345000	8.403432
447.531000	8.396082
447.717000	8.744118
447.902000	9.029513
448.088000	9.118599
448.273000	9.305809
448.459000	9.319876
448.644000	9.296706
448.830000	9.513325
449.016000	9.646741
449.201000	9.689546
449.387000	10.014452
449.572000	10.258480
449.758000	10.404800
449.943000	10.637431
450.129000	10.603051
450.315000	10.659285
450.500000	10.941405
450.686000	11.246888
450.871000	11.354255
451.057000	11.615999
451.243000	11.771106
451.428000	11.867301
451.614000	12.043617
451.799000	12.192663
451.985000	12.431561
452.170000	12.743734
452.356000	12.658648
452.542000	12.773855
452.727000	12.996982
452.913000	13.150297
453.098000	13.512579
453.284000	13.874886
453.469000	13.871301
453.655000	14.038882
453.841000	14.016823
454.026000	13.935632
454.212000	14.105417
454.397000	14.120476
454.583000	14.267549
454.768000	14.225568
454.954000	14.546807
455.140000	14.754814
455.325000	14.591248
455.511000	14.586981
455.696000	14.750509
455.882000	14.930553
456.067000	15.127188
456.253000	14.962370
456.439000	14.707510
456.624000	14.808632
456.810000	14.983703
456.995000	15.066796
457.181000	14.889873
457.366000	15.036328
457.552000	15.028971
457.738000	15.054863
457.923000	15.089137
458.109000	15.286921
458.294000	15.111977
458.480000	15.048761
458.665000	14.961257
458.851000	14.624550
459.037000	14.365418
459.222000	14.474372
459.408000	14.432332
459.593000	14.312808
459.779000	14.301391
459.964000	14.368699
460.150000	14.328965
460.336000	14.130423
460.521000	13.808165
460.707000	13.498843
460.892000	13.275560
461.078000	13.177480
461.263000	13.069368
461.449000	13.127416
461.635000	12.745585
461.820000	12.617920
462.006000	12.726193
462.191000	12.420417
462.377000	11.960965
462.562000	12.284512
462.748000	12.283303
462.934000	11.536670
463.119000	11.259534
463.305000	11.237550
463.490000	11.016642
463.676000	10.848173
463.861000	10.735489
464.047000	10.564179
464.233000	10.365694
464.418000	10.162920
464.604000	9.864988
464.789000	9.817069
464.975000	9.712552
465.160000	9.493832
465.346000	9.279215
465.532000	9.046419
465.717000	9.024405
465.903000	9.116285
466.088000	8.779294
466.274000	8.406846
466.459000	8.270757
466.645000	8.468379
466.831000	8.244739
467.016000	8.180514
467.202000	7.907975
467.387000	7.639022
467.573000	7.467304
467.758000	7.496941
467.944000	7.252586
468.130000	7.170763
468.315000	7.236116
468.501000	7.224748
468.686000	6.930373
468.872000	6.720563
469.057000	6.693607
469.243000	6.609387
469.429000	6.377814
469.614000	6.229748
469.800000	6.172510
469.985000	6.174761
470.171000	6.091108
470.356000	5.863284
470.542000	5.910912
470.728000	5.883380
470.913000	5.779312
471.099000	5.818083
471.284000	5.601425
471.470000	5.455218
471.655000	5.499127
471.841000	5.281291
472.027000	5.075080
472.212000	5.282462
472.398000	5.278360
472.583000	5.130141
472.769000	4.967657
472.954000	4.913396
473.140000	4.724874
473.326000	4.666715
473.511000	4.849548
473.697000	4.869515
473.882000	4.588867
474.068000	4.375226
474.253000	4.295758
474.439000	4.374128
474.625000	4.351850
474.810000	4.329945
474.996000	4.254901
475.181000	4.078982
475.367000	4.097448
475.552000	4.224732
475.738000	3.912293
475.924000	3.917517
476.109000	3.926652
476.295000	3.757272
476.480000	3.671744
476.666000	3.591189
476.851000	3.460811
477.037000	3.543487
477.223000	3.458101
477.408000	3.305367
477.594000	3.202267
477.779000	3.219569
477.965000	3.231435
478.151000	3.112675
478.336000	3.194347
478.522000	3.040214
478.707000	2.943429
478.893000	2.970999
479.078000	2.741457
479.264000	2.806784
479.450000	2.825869
479.635000	2.936813
479.821000	2.765908
480.006000	2.727905
480.192000	2.725321
480.377000	2.760009
480.563000	2.717801
480.749000	2.460831
480.934000	2.494094
481.120000	2.560055
481.305000	2.502948
481.491000	2.473694
481.676000	2.482860
481.862000	2.481389
482.048000	2.267348
482.233000	2.264661
482.419000	2.262609
482.604000	2.225431
482.790000	2.211119
482.975000	2.155662
483.161000	2.170713
483.347000	2.177965
483.532000	2.153355
483.718000	2.006101
483.903000	2.001730
484.089000	2.022006
484.274000	1.846945
484.460000	2.026461
484.646000	2.066101
484.831000	1.909594
485.017000	1.907184
485.202000	1.935718
485.388000	2.116530
485.573000	2.208572
485.759000	2.017682
485.945000	2.043112
486.130000	1.859473
486.316000	1.974488
486.501000	2.022700
486.687000	1.788622
486.872000	1.740395
487.058000	1.891195
487.244000	1.874541
487.429000	1.719802
487.615000	1.912109
487.800000	1.950894
487.986000	1.854936
488.171000	1.923118
488.357000	1.902465
488.543000	1.920209
488.728000	1.970193
488.914000	1.865631
489.099000	1.793988
489.285000	1.820894
489.470000	1.988559
489.656000	2.046319
489.842000	1.999927
490.027000	2.067225
490.213000	1.923720
490.398000	1.697002
490.584000	1.949747
490.769000	1.981200
490.955000	2.030125
491.141000	2.056980
491.326000	2.049783
491.512000	2.132062
491.697000	2.027337
491.883000	1.979694
492.068000	2.007639
492.254000	2.045905
492.440000	2.058555
492.625000	2.028241
492.811000	1.989646
492.996000	1.997249
493.182000	2.083595
493.367000	2.051651
493.553000	1.941993
493.739000	2.073209
493.924000	2.144445
494.110000	2.220032
494.295000	2.086674
494.481000	2.209160
494.666000	2.320441
494.852000	2.429694
495.038000	2.342724
495.223000	2.346225
495.409000	2.388500
495.594000	2.306983
495.780000	2.406685
495.965000	2.415942
496.151000	2.648267
496.337000	2.747977
496.522000	2.506628
496.708000	2.604263
496.893000	2.760745
497.079000	2.665472
497.264000	2.734959
497.450000	2.763150
497.636000	2.840336
497.821000	2.765241
498.007000	2.988768
498.192000	3.044057
498.378000	2.923382
498.563000	2.937891
498.749000	3.066568
498.935000	3.106027
499.120000	3.294723
499.306000	3.174076
499.491000	3.087776
499.677000	3.306396
499.862000	3.437614
500.048000	3.521785
500.234000	3.492559
500.419000	3.481958
500.605000	3.668515
500.790000	3.633903
500.976000	3.588759
501.161000	3.570803
501.347000	3.777937
501.533000	3.895963
501.718000	3.849489
501.904000	3.875491
502.089000	4.082531
502.275000	4.143374
502.460000	4.015831
502.646000	4.180084
502.832000	4.280873
503.017000	4.316758
503.203000	4.203469
503.388000	4.281919
503.574000	4.492285
503.759000	4.606948
503.945000	4.717222
504.131000	4.672823
504.316000	4.721155
504.502000	4.862885
504.687000	4.934046
504.873000	4.813539
505.058000	4.884832
505.244000	4.938417
505.430000	5.129475
505.615000	5.242425
505.801000	5.310378
505.986000	5.219719
506.172000	5.418131
506.358000	5.481978
506.543000	5.516752
506.729000	5.774130
506.914000	5.762735
507.100000	6.010308
507.285000	5.895939
507.471000	5.778826
507.657000	6.092460
507.842000	6.053025
508.028000	5.967363
508.213000	6.089535
508.399000	6.251258
508.584000	6.375478
508.770000	6.402346
508.956000	6.372696
509.141000	6.446708
509.327000	6.682191
509.512000	6.593511
509.698000	6.620836
509.883000	6.774741
510.069000	6.803450
510.255000	6.879630
510.440000	6.982303
510.626000	6.947314
510.811000	6.918918
510.997000	7.060078
511.182000	7.327208
511.368000	7.279310
511.554000	7.028548
511.739000	7.090333
511.925000	7.328859
512.110000	7.276591
512.296000	7.592223
512.481000	7.684339
512.667000	7.591191
512.853000	7.421034
513.038000	7.501531
513.224000	7.541912
513.409000	7.446509
513.595000	7.605931
513.780000	7.549440
513.966000	7.552221
514.152000	7.584662
514.337000	7.580721
514.523000	7.682969
514.708000	7.788985
514.894000	7.789383
515.079000	7.727458
515.265000	7.743482
515.451000	7.686942
515.636000	7.586453
515.822000	7.782312
516.007000	7.667457
516.193000	7.645865
516.378000	7.764563
516.564000	7.820049
516.750000	7.755950
516.935000	7.773946
517.121000	7.828735
517.306000	7.930931
517.492000	7.830036
517.677000	7.504217
517.863000	7.473912
518.049000	7.539655
518.234000	7.442437
518.420000	7.624430
518.605000	7.833243
518.791000	7.656748
518.976000	7.446662
519.162000	7.436538
519.348000	7.505181
519.533000	7.265133
519.719000	7.452454
519.904000	7.376092
520.090000	7.301206
520.275000	7.429572
520.461000	7.331168
520.647000	7.156594
520.832000	6.899537
521.018000	6.920512
521.203000	6.894341
521.389000	6.759071
521.574000	6.857639
521.760000	6.877290
521.946000	6.816773
522.131000	6.744725
522.317000	6.621128
522.502000	6.540502
522.688000	6.624753
522.873000	6.517718
523.059000	6.384140
523.245000	6.353395
523.430000	6.166520
523.616000	6.044318
523.801000	5.960068
523.987000	6.073847
524.172000	6.293549
524.358000	6.242903
524.544000	6.154597
524.729000	6.003735
524.915000	5.986178
525.100000	5.873853
525.286000	5.843460
525.471000	5.721014
525.657000	5.748318
525.843000	5.505135
526.028000	5.598345
526.214000	5.439087
526.399000	5.221970
526.585000	5.172868
526.770000	5.104192
526.956000	5.174404
527.142000	5.047798
527.327000	5.172251
527.513000	5.070674
527.698000	4.921404
527.884000	4.917629
528.069000	4.803070
528.255000	4.849129
528.441000	4.742757
528.626000	4.782726
528.812000	4.938447
528.997000	4.813985
529.183000	4.623042
529.368000	4.604368
529.554000	4.601925
529.740000	4.644246
529.925000	4.487441
530.111000	4.389536
530.296000	4.359231
530.482000	4.421579
530.667000	4.249947
530.853000	4.270947
531.039000	4.139312
531.224000	4.254793
531.410000	4.301956
531.595000	4.126836
531.781000	4.190920
531.967000	4.041670
532.152000	4.129594
532.338000	3.964267
532.523000	3.748787
532.709000	3.645036
532.894000	3.743038
533.080000	3.773773
533.266000	3.555084
533.451000	3.522297
533.637000	3.483747
533.822000	3.713851
534.008000	3.463695
534.193000	3.406842
534.379000	3.489032
534.565000	3.405557
534.750000	3.332014
534.936000	3.482266
535.121000	3.353312
535.307000	3.327534
535.492000	3.273576
535.678000	3.038538
535.864000	3.129531
536.049000	3.461218
536.235000	3.243667
536.420000	3.149329
536.606000	3.016411
536.791000	2.981280
536.977000	2.943754
537.163000	3.148150
537.348000	3.129407
537.534000	3.083856
537.719000	2.820659
537.905000	2.701945
538.090000	2.838650
538.276000	2.903467
538.462000	2.874852
538.647000	2.725145
538.833000	2.658938
539.018000	2.770024
539.204000	2.660343
539.389000	2.410623
539.575000	2.745684
539.761000	2.733307
539.946000	2.379342
540.132000	2.366681
540.317000	2.210800
540.503000	2.396228
540.688000	2.486700
540.874000	2.623255
541.060000	2.631278
541.245000	2.451540
541.431000	2.285966
541.616000	2.301219
541.802000	2.262688
541.987000	2.359417
542.173000	2.232520
542.359000	2.085478
542.544000	2.195669
542.730000	1.945232
542.915000	2.022857
543.101000	2.201898
543.286000	1.891136
543.472000	1.755783
543.658000	1.899718
543.843000	1.885945
544.029000	2.026218
544.214000	1.977846
544.400000	1.539330
544.585000	1.677549
544.771000	1.920945
544.957000	1.990543
545.142000	1.978147
545.328000	1.997423
545.513000	2.076344
545.699000	1.948421
545.884000	1.812776
546.070000	1.728549
546.261000	1.763305
546.451000	1.621297
546.642000	1.333400
546.833000	1.321379
547.023000	1.311534
547.214000	1.273711
547.405000	1.570524
547.595000	1.802820
547.786000	1.718264
547.977000	1.471845
548.167000	1.260434
548.358000	1.251434
548.549000	1.597087
548.740000	1.431434
548.930000	1.120008
549.121000	1.191657
549.312000	1.137338
549.502000	1.036798
549.693000	1.178480
549.884000	1.262406
550.074000	1.281652
550.265000	0.963276
550.456000	1.104413
550.646000	1.241186
550.837000	1.211794
551.028000	1.103922
551.218000	1.178271
551.409000	1.018501
551.600000	1.029373
551.790000	1.224251
551.981000	0.978149
552.172000	0.924635
552.362000	1.251086
552.553000	1.328199
552.744000	1.059631
552.934000	1.009996
553.125000	0.890261
553.316000	0.759078
553.506000	1.111009
553.697000	1.053983
553.888000	1.041957
554.079000	1.170066
554.269000	1.110079
554.460000	0.765425
554.651000	0.720179
554.841000	0.603213
555.032000	0.732349
555.223000	0.882310
555.413000	1.047132
555.604000	0.928343
555.795000	0.879299
555.985000	0.808883
556.176000	0.683828
556.367000	0.575567
556.557000	0.587817
556.748000	0.568261
556.939000	0.541548
557.129000	0.463645
557.320000	0.546594
557.511000	0.488851
557.701000	0.472633
557.892000	0.614098
558.083000	0.845790
558.273000	0.587722
558.464000	0.370834
558.655000	0.468562
558.845000	0.631830
559.036000	0.673471
559.227000	0.539998
559.418000	0.664884
559.608000	0.757503
559.799000	0.411263
559.990000	0.465466
560.180000	0.522539
560.371000	0.209745
560.562000	0.353147
560.752000	0.528150
560.943000	0.379333
561.134000	0.178393
561.324000	0.347138
561.515000	0.556024
561.706000	0.398043
561.896000	0.177658
562.087000	0.325339
562.278000	0.340505
562.468000	0.182667
562.659000	0.253407
562.850000	0.599809
563.040000	0.645635
563.231000	0.223194
563.422000	0.329119
563.612000	0.171859
563.803000	0.298430
563.994000	0.307101
564.185000	0.175480
564.375000	0.357424
564.566000	0.306568
564.757000	0.347872
564.947000	0.327257
565.138000	0.426812
565.329000	0.325492
565.519000	0.109445
565.710000	0.205040
565.901000	0.446573
566.091000	0.521622
566.282000	0.339930
566.473000	0.333880
566.663000	0.338485
566.854000	0.133266
567.045000	0.177557
567.235000	0.311412
567.426000	0.365824
567.617000	0.315116
567.807000	0.255956
567.998000	0.285022
568.189000	0.171563
568.379000	0.298982
568.570000	0.411511
568.761000	0.185231
568.951000	0.126226
569.142000	0.160689
569.333000	0.160687
569.524000	-0.049782
569.714000	-0.083939
569.905000	-0.122770
570.096000	0.193862
570.286000	0.251973
570.477000	0.430781
570.668000	0.251054
570.858000	0.125036
571.049000	0.052157
571.240000	0.032856
571.430000	0.201704
571.621000	0.205796
571.812000	0.209747
572.002000	0.176538
572.193000	0.008621
572.384000	0.051703
572.574000	0.200272
572.765000	0.228603
572.956000	0.180212
573.146000	0.295076
573.337000	0.137237
573.528000	0.089430
573.718000	0.184085
573.909000	0.335428
574.100000	0.263419
574.290000	0.003765
574.481000	0.102355
574.672000	0.097772
574.863000	0.148882
575.053000	0.162619
575.244000	0.213514
575.435000	0.036328
575.625000	-0.005564
575.816000	0.003705
576.007000	0.077803
576.197000	0.115033
576.388000	0.100724
576.579000	0.266970
576.769000	0.317408
576.960000	0.008298
577.155000	-0.249170
577.350000	0.035814
577.545000	0.209904
577.740000	0.117892
577.935000	0.409490
578.130000	0.204448
578.326000	-0.037307
578.521000	0.140064
578.716000	0.148472
578.911000	-0.050642
579.106000	0.102705
579.301000	0.142809
579.496000	-0.018802
579.691000	-0.233486
579.886000	-0.081195
580.081000	-0.018708
580.276000	0.101311
580.471000	0.007997
580.666000	-0.102892
580.861000	-0.111723
581.057000	-0.129541
581.252000	0.021299
581.447000	-0.146991
581.642000	-0.142803
581.837000	-0.062890
582.032000	-0.014132
582.227000	0.183529
582.422000	0.213864
582.617000	0.095104
582.812000	-0.105303
583.007000	-0.135689
583.202000	-0.252646
583.397000	0.016438
583.592000	0.279822
583.788000	0.063706
583.983000	0.012041
584.178000	0.050664
584.373000	-0.052224
584.568000	-0.026485
584.763000	-0.043614
584.958000	-0.244562
585.153000	-0.116303
585.348000	-0.111966
585.543000	0.011978
585.738000	-0.009407
585.933000	-0.253201
586.128000	-0.039335
586.324000	0.050583
586.519000	0.119084
586.714000	0.123466
586.909000	0.153748
587.104000	0.193040
587.299000	0.080776
587.494000	0.016305
587.689000	-0.052450
587.884000	-0.069857
588.079000	-0.056924
588.274000	-0.018146
588.469000	-0.026733
588.664000	0.120024
588.859000	0.137492
589.055000	0.081378
589.250000	0.020787
589.445000	-0.039891
589.640000	0.025169
589.835000	0.177472
590.030000	0.246997
590.225000	0.273138
590.420000	-0.031359
590.615000	-0.188320
590.810000	-0.105376
591.005000	-0.114552
591.200000	-0.228324
591.395000	-0.202049
591.591000	-0.040166
591.786000	0.055836
591.981000	-0.154003
592.176000	-0.079789
592.371000	0.003509
592.566000	-0.057849
592.761000	0.126198
592.956000	0.007901
593.151000	0.100126
593.346000	0.016734
593.541000	0.043111
593.736000	0.078545
593.931000	-0.084760
594.126000	0.034485
594.322000	0.038904
594.517000	-0.093705
594.712000	-0.217561
594.907000	-0.280474
595.102000	-0.209743
595.297000	0.030198
595.492000	0.079215
595.687000	-0.107913
595.882000	-0.223965
596.077000	-0.081356
596.272000	0.052737
596.467000	0.124284
596.662000	-0.023270
596.857000	-0.014377
597.053000	-0.027903
597.248000	-0.045885
597.443000	-0.054955
597.638000	0.017158
597.833000	-0.204288
598.028000	-0.055070
598.223000	0.008141
598.418000	-0.086992
598.613000	-0.145873
598.808000	0.062565
599.003000	0.058094
599.198000	-0.191771
599.393000	-0.278029
599.589000	-0.014577
599.784000	-0.114874
599.979000	-0.188087
600.174000	0.012791
600.369000	-0.165548
600.564000	-0.092497
600.759000	0.187045
600.954000	0.218767
601.149000	0.077124
601.344000	-0.235285
601.539000	-0.111339
601.734000	-0.193899
601.929000	-0.323365
602.124000	-0.263703
602.320000	-0.065578
602.515000	0.193071
602.710000	0.151814
602.905000	-0.181410
603.100000	-0.245803
603.295000	-0.213853
603.490000	-0.121623
603.685000	-0.010214
603.880000	-0.010227
604.075000	-0.196666
604.270000	-0.164391
604.465000	-0.066267
604.660000	-0.225114
604.856000	-0.154944
605.051000	-0.019639
605.246000	-0.085032
605.441000	-0.253414
605.636000	-0.304932
605.831000	-0.183670
606.026000	-0.207011
606.221000	-0.216675
606.416000	-0.085466
606.611000	0.022563
606.806000	0.041328
607.001000	0.187155
607.196000	-0.057422
607.391000	-0.231895
607.587000	-0.104848
607.782000	-0.029321
607.977000	-0.180226
608.172000	0.145766
608.367000	0.136299
608.562000	-0.019917
608.757000	-0.081537
608.952000	-0.153001
609.147000	0.288537
609.342000	0.231947
609.537000	-0.067617
609.732000	-0.082032
609.927000	-0.105668
610.122000	-0.086777
610.318000	0.170861
610.513000	0.276002
610.708000	0.037287
610.903000	0.051685
611.098000	0.056592
611.293000	-0.024945
611.488000	-0.010555
611.683000	-0.024993
611.878000	0.013462
612.073000	0.071175
612.268000	0.100138
612.463000	0.090712
612.658000	0.061763
612.854000	0.100575
613.049000	-0.029993
613.244000	0.100678
613.439000	0.158823
613.634000	-0.068930
613.829000	-0.059238
614.024000	-0.151854
614.219000	-0.215096
614.414000	0.106158
614.609000	-0.010729
614.804000	-0.205858
614.999000	-0.293397
615.194000	-0.147569
615.389000	-0.035223
615.585000	-0.250936
615.780000	-0.103990
615.975000	-0.148433
616.170000	-0.148540
616.365000	0.048251
616.560000	0.215859
616.755000	0.186855
616.950000	-0.025716
617.145000	0.028710
617.340000	-0.119903
617.535000	-0.347812
617.730000	-0.020838
617.925000	-0.160015
618.120000	-0.189891
618.316000	0.128531
618.511000	-0.135631
618.706000	-0.321259
618.901000	-0.211061
619.096000	-0.031127
619.291000	-0.116374
619.486000	-0.096615
619.681000	-0.429063
619.876000	-0.423845
620.071000	-0.232765
620.266000	0.014141
620.461000	0.059702
620.656000	-0.082117
620.852000	-0.026325
621.047000	-0.148188
621.242000	-0.239852
621.437000	0.055012
621.632000	0.198060
621.827000	0.050071
622.022000	-0.179983
622.217000	-0.093311
622.412000	0.070829
622.607000	0.096585
622.802000	-0.165514
622.997000	-0.243462
623.192000	-0.160919
623.387000	-0.104207
623.583000	-0.249143
623.778000	0.154461
623.973000	0.019709
624.168000	-0.157008
624.363000	-0.037375
624.558000	0.108156
624.753000	-0.209704
624.948000	-0.042856
625.143000	0.066945
625.338000	0.004191
625.533000	-0.111099
625.728000	-0.137450
625.923000	0.072444
626.119000	0.035780
626.314000	-0.322328
626.509000	-0.323319
626.704000	-0.239421
626.899000	-0.112392
627.094000	-0.277123
627.289000	-0.224549
627.484000	-0.209077
627.679000	-0.139865
627.874000	-0.113320
628.069000	0.154169
628.264000	0.063109
628.459000	-0.113649
628.654000	-0.135214
628.850000	-0.237993
629.045000	-0.135840
629.240000	-0.162954
629.435000	-0.168569
629.630000	-0.022735
629.825000	-0.147231
630.020000	-0.147811
630.215000	-0.337825
630.410000	-0.213749
630.605000	-0.197552
630.800000	-0.093850
630.995000	0.048124
631.190000	0.333208
631.385000	0.119545
631.581000	-0.165891
631.776000	-0.138514
631.971000	-0.199620
632.166000	-0.172181
632.361000	-0.177866
632.556000	0.037614
632.751000	0.109878
632.946000	-0.101032
633.141000	-0.212701
633.336000	-0.185151
633.531000	-0.107405
633.726000	-0.090511
633.921000	-0.202803
634.117000	-0.416612
634.312000	-0.417031
634.507000	-0.355591
634.702000	-0.299863
634.897000	-0.187399
635.092000	-0.176575
635.287000	-0.057843
635.482000	-0.080738
635.677000	0.038676
635.872000	0.106939
636.067000	0.095783
636.262000	-0.109893
636.457000	-0.411567
636.652000	-0.423600
636.848000	-0.401641
637.043000	-0.248188
637.238000	-0.266118
637.433000	-0.398904
637.628000	-0.375831
637.823000	-0.151246
638.018000	-0.064779
638.213000	-0.325780
638.408000	-0.239050
638.603000	-0.297499
638.798000	-0.350301
638.993000	-0.246032
639.188000	-0.205292
639.383000	-0.246325
639.579000	0.103791
639.774000	-0.059642
639.969000	-0.281954
640.164000	-0.317777
640.359000	-0.312251
640.554000	-0.106961
640.749000	-0.195653
640.944000	-0.048429
641.139000	-0.089587
641.334000	-0.314119
641.529000	-0.663804
641.724000	-0.344750
641.919000	-0.161460
642.115000	0.040462
642.310000	0.016637
642.505000	-0.167500
642.700000	-0.155902
642.895000	-0.281717
643.090000	-0.168261
643.285000	0.058481
643.480000	0.082539
643.675000	0.064651
643.870000	0.292690
644.065000	0.076921
644.260000	-0.271554
644.455000	-0.085471
644.650000	-0.025343
644.846000	0.059134
645.041000	-0.278658
645.236000	-0.593741
645.431000	-0.552209
645.626000	-0.642646
645.821000	-0.454879
646.016000	-0.340944
646.211000	-0.068074
646.406000	-0.019486
646.601000	-0.068135
646.796000	-0.250587
646.991000	-0.402706
647.186000	-0.354824
647.381000	-0.135433
647.577000	-0.117243
647.772000	-0.105036
647.967000	-0.074648
648.162000	-0.099202
648.357000	-0.105468
648.552000	0.078456
648.747000	0.023305
648.942000	0.139921
649.137000	0.041858
649.332000	-0.247780
649.527000	-0.315448
649.722000	-0.025868
649.917000	0.011119
650.113000	-0.309715
650.308000	-0.390473
650.503000	-0.211187
650.698000	-0.026010
650.893000	-0.242934
651.088000	-0.156274
651.283000	-0.175260
651.478000	-0.361710
651.673000	-0.081954
651.868000	-0.237646
652.063000	0.017454
652.258000	0.160946
652.453000	0.272509
652.648000	-0.019937
652.844000	-0.169585
653.039000	-0.182362
653.234000	-0.538512
653.429000	-0.652125
653.624000	-0.451521
653.819000	-0.214348
654.014000	-0.195584
654.209000	-0.177242
654.404000	-0.038928
654.599000	-0.322287
654.794000	-0.359434
654.989000	-0.032772
655.184000	-0.076979
655.380000	-0.455199
655.575000	-0.310226
655.770000	-0.228635
655.965000	-0.253962
656.160000	-0.323624
656.355000	-0.209808
656.550000	-0.210452
656.745000	-0.166192
656.940000	-0.248858
657.135000	-0.204369
657.330000	-0.172705
657.525000	-0.236368
657.720000	-0.160401
657.915000	-0.090301
658.111000	-0.122144
658.306000	0.100594
658.501000	-0.148047
658.696000	-0.384004
658.891000	-0.192729
659.086000	-0.339372
659.281000	-0.199355
659.476000	-0.276422
659.671000	-0.756250
659.866000	-0.570958
660.061000	-0.219057
660.256000	-0.014098
660.451000	0.024372
660.646000	-0.110463
660.842000	-0.162028
661.037000	-0.322891
661.232000	-0.381326
661.427000	-0.284480
661.622000	-0.336588
661.817000	-0.523441
662.012000	-0.305029
662.207000	-0.272904
662.402000	-0.331940
662.597000	-0.182952
662.792000	-0.500386
662.987000	-0.493500
663.182000	-0.176530
663.378000	-0.163681
663.573000	-0.411508
663.768000	-0.482130
663.963000	-0.372075
664.158000	-0.339241
664.353000	0.135730
664.548000	0.253099
664.743000	-0.131917
664.938000	-0.419218
665.133000	-0.302153
665.328000	-0.007860
665.523000	-0.099752
665.718000	-0.132581
665.913000	-0.152500
666.109000	-0.238485
666.304000	-0.113276
666.499000	-0.264583
666.694000	-0.120127
666.889000	0.269266
667.084000	-0.087408
667.279000	-0.358689
667.474000	-0.259567
667.669000	-0.034424
667.864000	-0.167021
668.059000	-0.246931
668.254000	-0.187427
668.449000	-0.314063
668.644000	-0.181151
668.840000	0.025275
669.035000	-0.254439
669.230000	-0.536004
669.425000	-0.148471
669.620000	-0.262145
669.815000	-0.390614
670.010000	-0.443896
670.205000	-0.229515
670.400000	-0.068330
670.595000	-0.088696
670.790000	-0.270482
670.985000	-0.142792
671.180000	0.059338
671.376000	-0.318551
671.571000	-0.393659
671.766000	-0.306437
671.961000	-0.394722
672.156000	-0.259401
672.351000	-0.089657
672.546000	-0.225975
672.741000	-0.116816
672.936000	-0.150971
673.131000	0.271395
673.326000	0.032822
673.521000	-0.487284
673.716000	-0.391461
673.911000	-0.425983
674.107000	-0.021957
674.302000	0.142818
674.497000	-0.083864
674.692000	-0.407235
674.887000	-0.401721
675.082000	-0.229507
675.277000	-0.022152
675.472000	-0.174677
675.667000	-0.417925
675.862000	-0.404246
676.057000	-0.209904
676.252000	-0.175522
676.447000	-0.350508
676.643000	-0.189761
676.838000	0.159366
677.033000	-0.071396
677.228000	0.075785
677.423000	-0.071618
677.618000	-0.487195
677.813000	-0.564308
678.008000	-0.269650
678.203000	-0.156873
678.398000	-0.270427
678.593000	-0.150131
678.788000	-0.129304
678.983000	-0.398792
679.178000	-0.228604
679.374000	-0.307144
679.569000	-0.450310
679.764000	-0.465937
679.959000	-0.359603
680.154000	-0.574622
680.349000	-0.734786
680.544000	-0.539940
680.739000	-0.346261
680.934000	-0.512005
681.129000	-0.304313
681.324000	-0.376889
681.519000	-0.225978
681.714000	-0.305757
681.909000	-0.370514
682.105000	-0.589267
682.300000	-0.322004
682.495000	-0.190773
682.690000	0.027732
682.885000	-0.052588
683.080000	-0.345697
683.275000	-0.331215
683.470000	-0.140864
683.665000	0.108822
683.860000	0.477283
684.055000	0.116441
684.250000	-0.495727
684.445000	-0.428652
684.641000	0.161044
684.836000	-0.230867
685.031000	-0.283685
685.226000	-0.172524
685.421000	0.140197
685.616000	-0.061150
685.811000	-0.315452
686.006000	-0.150985
686.201000	-0.300875
686.396000	-0.610067
686.591000	-0.513425
686.786000	-0.031669
686.981000	-0.122163
687.176000	-0.046867
687.372000	-0.258817
687.567000	-0.152937
687.762000	0.036442
687.957000	-0.145761
688.152000	-0.389524
688.347000	-0.222551
688.542000	-0.375915
688.737000	-0.742333
688.932000	-0.797145
689.127000	-0.430537
689.322000	-0.162872
689.517000	-0.331820
689.712000	-0.479449
689.908000	-0.557094
690.103000	-0.449941
690.298000	-0.210317
690.493000	-0.249630
690.688000	-0.560421
690.883000	-0.484461
691.078000	0.014024
691.273000	0.052987
691.468000	-0.196747
691.663000	-0.283703
691.858000	-0.072114
692.053000	-0.134816
692.248000	-0.040800
692.443000	0.014122
692.639000	-0.072331
692.834000	0.037832
693.029000	0.392652
693.224000	0.275686
693.419000	-0.413913
693.614000	-0.486196
693.809000	-0.526303
694.004000	-0.638808
694.199000	-0.551048
694.394000	-0.209342
694.589000	-0.497513
694.784000	-0.369911
694.979000	0.094483
695.174000	-0.138069
695.370000	0.134630
695.565000	-0.146205
695.760000	-0.597428
695.955000	-0.058112
696.150000	0.062974
696.345000	-0.406867
696.540000	-0.285793
696.740000	-0.212572
696.940000	-0.107179
697.140000	-0.107731
697.340000	-0.345010
697.539000	-0.116155
697.739000	-0.091652
697.939000	-0.206360
698.139000	-0.395114
698.339000	-0.643441
698.539000	-0.634850
698.739000	-0.653047
698.939000	-0.399172
699.138000	-0.482785
699.338000	0.138885
699.538000	0.313682
699.738000	-0.201412
699.938000	-0.268220
700.138000	-0.427208
700.338000	-0.595802
700.538000	-0.236565
700.737000	-0.135854
700.937000	-0.745819
701.137000	-0.780461
701.337000	-0.060606
701.537000	-0.001687
701.737000	-0.338703
701.937000	-0.238135
702.137000	-0.246592
702.337000	-0.509238
702.536000	-0.628947
702.736000	-0.612731
702.936000	-0.707125
703.136000	-0.291528
703.336000	-0.121017
703.536000	-0.335001
703.736000	-0.721521
703.936000	-0.651616
704.135000	-0.480347
704.335000	-0.164564
704.535000	-0.500196
704.735000	-0.586741
704.935000	-0.113322
705.135000	-0.105247
705.335000	-0.417201
705.535000	-0.287556
705.735000	-0.148949
705.934000	-0.122906
706.134000	-0.304772
706.334000	-0.331531
706.534000	-0.557982
706.734000	-0.506236
706.934000	-0.419230
707.134000	-0.497639
707.334000	-0.402795
707.533000	-0.324927
707.733000	-0.438159
707.933000	-0.560916
708.133000	-0.272264
708.333000	-0.308768
708.533000	-0.485100
708.733000	-0.028117
708.933000	-0.168854
709.132000	-0.213240
709.332000	-0.257733
709.532000	-0.603295
709.732000	-0.620081
709.932000	-0.825213
710.132000	-0.621176
710.332000	-0.673959
710.532000	-0.355882
710.732000	-0.117177
710.931000	-0.366006
711.131000	-0.438784
711.331000	-0.394495
711.531000	-0.565032
711.731000	-0.449937
711.931000	-0.342950
712.131000	-0.396341
712.331000	-0.172221
712.530000	-0.288478
712.730000	-0.594645
712.930000	-0.468732
713.130000	-0.371253
713.330000	-0.561178
713.530000	-0.345914
713.730000	0.269973
713.930000	-0.101434
714.129000	-0.562733
714.329000	-0.609921
714.529000	-0.337378
714.729000	-0.038169
714.929000	-0.038171
715.129000	-0.302230
715.329000	-0.211393
715.529000	-0.175663
715.729000	0.272130
715.928000	-0.111689
716.128000	-0.432376
716.328000	-0.158028
716.528000	-0.240992
716.728000	-0.287053
716.928000	-0.544717
717.128000	-0.269279
717.328000	-0.324557
717.527000	-0.601897
717.727000	-0.519319
717.927000	-0.409746
718.127000	-0.354327
718.327000	-0.708079
718.527000	-0.744875
718.727000	-0.364415
718.927000	-0.439581
719.127000	-0.740568
719.326000	-0.551310
719.526000	-0.132483
719.726000	-0.273002
719.926000	-0.743237
720.126000	-0.649499
720.326000	-0.405407
720.526000	-0.546275
720.726000	-0.482023
720.925000	-0.152612
721.125000	-0.521939
721.325000	-0.322983
721.525000	-0.437368
721.725000	-0.588902
721.925000	-0.581067
722.125000	-0.562124
722.325000	-0.115831
722.524000	-0.430446
722.724000	-0.850521
722.924000	-0.850468
723.124000	-0.660600
723.324000	-0.250369
723.524000	-0.021042
723.724000	-0.528450
723.924000	-0.290153
724.124000	-0.271031
724.323000	-0.050042
724.523000	0.084613
724.723000	0.402776
724.923000	0.123374
725.123000	-0.137013
725.323000	-0.040597
725.523000	-0.331209
725.723000	-0.630765
725.922000	-0.621791
726.122000	-0.224950
726.322000	-0.235279
726.522000	-0.546926
726.722000	-0.069988
726.922000	-0.128224
727.122000	-0.196904
727.322000	-0.040993
727.521000	-0.275913
727.721000	-0.442895
727.921000	-0.393921
728.121000	-0.491788
728.321000	-0.708615
728.521000	-0.415237
728.721000	-0.287809
728.921000	-0.001971
729.121000	0.807303
729.320000	0.225268
729.520000	-0.436743
729.720000	-0.635410
729.920000	-0.350046
730.120000	-0.388835
730.320000	-0.330126
730.520000	-0.519267
730.720000	-0.461029
730.919000	-0.480897
731.119000	-0.101953
731.319000	-0.492576
731.519000	-0.782808
731.719000	-0.222398
731.919000	-0.453052
732.119000	-1.046158
732.319000	-0.948728
732.519000	-0.395011
732.718000	-0.496429
732.918000	-0.405967
733.118000	-0.214626
733.318000	-0.123867
733.518000	-0.489414
733.718000	-1.008660
733.918000	-0.876989
734.118000	-0.520721
734.317000	-0.145007
734.517000	-0.664885
734.717000	-0.493893
734.917000	-0.043134
735.117000	-0.104865
735.317000	-0.413185
735.517000	0.111307
735.717000	0.494094
735.916000	-0.394921
736.116000	-0.539188
736.316000	-0.376227
736.516000	-0.324160
736.716000	-0.511435
736.916000	-0.962330
737.116000	-0.526510
737.316000	0.039849
737.516000	-0.285798
737.715000	-0.422661
737.915000	-0.643747
738.115000	-0.709104
738.315000	-0.392830
738.515000	-0.783397
738.715000	-0.607459
738.915000	-0.034029
739.115000	-0.470807
739.314000	-0.512951
739.514000	0.051266
739.714000	0.072810
739.914000	-0.206181
740.114000	-0.486295
740.314000	-0.131354
740.514000	0.386040
740.714000	-0.445774
740.913000	-0.966528
741.113000	-0.783549
741.313000	-0.371156
741.513000	-0.524563
741.713000	-0.515060
741.913000	-0.473639
742.113000	-0.440077
742.313000	-0.638486
742.513000	-0.320639
742.712000	-0.497938
742.912000	-0.707435
743.112000	-0.676658
743.312000	-0.788531
743.512000	-0.379616
743.712000	-0.503324
743.912000	-1.017196
744.112000	-1.017847
744.311000	-1.132506
744.511000	-0.854279
744.711000	-0.305700
744.911000	-0.745084
745.111000	-0.824892
745.311000	-0.273235
745.511000	-0.284919
745.711000	-0.703915
745.911000	-0.659502
746.110000	-1.056614
746.310000	-1.085657
746.510000	-0.958140
746.710000	-0.379527
746.910000	-0.013730
747.110000	-0.586759
747.310000	-1.035512
747.510000	-0.566976
747.709000	-0.267571
747.909000	-0.360760
748.109000	-0.327173
748.309000	-0.595230
748.509000	-0.747534
748.709000	-0.855487
748.909000	-0.586505
749.109000	-0.483456
749.308000	-0.108066
749.508000	-0.273514
749.708000	-0.450506
749.908000	-0.155707
750.108000	-0.097015
750.308000	-0.809692
750.508000	-0.169018
750.708000	-0.740595
750.908000	-1.052439
751.107000	-0.301624
751.307000	0.416035
751.507000	-0.338560
751.707000	-0.577938
751.907000	-0.435119
752.107000	-0.388350
752.307000	-0.873702
752.507000	-0.596935
752.706000	-0.620778
752.906000	0.131224
753.106000	-0.477945
753.306000	-0.919688
753.506000	-0.137348
753.706000	-0.629131
753.906000	-0.272830
754.106000	-0.002461
754.305000	-0.002464
754.505000	0.158133
754.705000	-0.151544
754.905000	-0.413009
755.105000	-0.264119
755.305000	-0.938182
755.505000	-0.828279
755.705000	-0.403382
755.905000	-0.542811
756.104000	-1.058892
756.304000	-1.213053
756.504000	-1.430361
756.704000	-0.535996
756.904000	-0.446832
757.104000	-0.268735
757.304000	-0.091356
757.504000	0.086808
757.703000	-0.615202
757.903000	-0.220062
758.103000	0.048718
758.303000	-0.362555
758.503000	-0.608431
758.703000	-0.532328
758.903000	-0.959135
759.103000	-0.663659
759.303000	-0.601723
759.502000	-0.551361
759.702000	0.049630
759.902000	-0.383312
760.102000	-0.660560
760.302000	-0.438335
760.502000	-0.028960
760.702000	0.142370
760.902000	-0.438582
761.101000	-0.956527
761.301000	-0.971476
761.501000	-0.639893
761.701000	-0.694389
761.901000	-0.684633
762.101000	-0.284088
762.301000	-0.431497
762.501000	-0.874433
762.700000	-0.784147
762.900000	-0.851817
763.100000	-0.474970
763.300000	-0.192390
763.500000	-0.558755
763.703000	-0.529855
763.905000	-0.816799
764.108000	-0.520145
764.311000	-0.506596
764.513000	-0.507208
764.716000	-0.386054
764.919000	-0.400279
765.121000	-0.839266
765.324000	-0.855543
765.527000	-0.777139
765.729000	-0.694149
765.932000	0.135733
766.135000	0.080308
766.337000	-0.362958
766.540000	-0.808913
766.743000	-0.534883
766.945000	-1.050878
767.148000	-1.179312
767.351000	-1.053110
767.553000	-0.241772
767.756000	-0.678246
767.958000	-1.212838
768.161000	-1.002657
768.364000	-1.077020
768.566000	-1.107707
768.769000	-0.585548
768.972000	-0.130735
769.174000	-0.401952
769.377000	-1.046353
769.580000	-1.091557
769.782000	-0.475173
769.985000	-0.692063
770.188000	-1.960231
770.390000	-1.058728
770.593000	0.719384
770.796000	0.286233
770.998000	-0.465762
771.201000	-1.074407
771.404000	-0.640914
771.606000	-0.832710
771.809000	-0.512270
772.012000	-0.382027
772.214000	-1.432997
772.417000	-1.330992
772.620000	-0.075655
772.822000	-0.809333
773.025000	-1.190758
773.228000	-1.060754
773.430000	-1.091955
773.633000	-0.710675
773.836000	-0.268712
774.038000	-0.151166
774.241000	-0.565980
774.444000	-0.775782
774.646000	0.130678
774.849000	-0.389941
775.052000	-0.419636
775.254000	-0.345918
775.457000	-0.896781
775.659000	-0.913862
775.862000	-0.988758
776.065000	-0.406926
776.267000	-0.167845
776.470000	0.222787
776.673000	-0.319348
776.875000	0.163164
777.078000	0.012067
777.281000	-0.926633
777.483000	-0.382770
777.686000	-0.398704
777.889000	-0.444835
778.091000	-0.018344
778.294000	-0.857880
778.497000	-0.920121
778.699000	-0.982042
778.902000	-0.847257
779.105000	-0.586366
779.307000	0.012297
779.510000	-0.973671
779.713000	-0.575340
779.915000	-0.654826
780.118000	0.338606
780.321000	0.665603
780.523000	-0.205756
780.726000	-0.860794
780.929000	-0.891661
781.131000	-1.205293
781.334000	-1.554522
781.537000	-1.260297
781.739000	-0.412094
781.942000	-0.680033
782.145000	-1.031653
782.347000	-1.285630
782.550000	-0.969595
782.753000	-1.068152
782.955000	-0.672597
783.158000	-0.863348
783.361000	-0.849511
783.563000	-0.977417
783.766000	-0.931914
783.968000	1.392000
784.171000	0.963405
784.374000	-0.486579
784.576000	-0.631399
784.779000	-0.099707
784.982000	0.287905
785.184000	-0.539904
785.387000	0.045604
785.590000	0.615320
785.792000	0.503273
785.995000	0.078552
786.198000	-0.003278
786.400000	-0.530041
786.603000	-0.531386
786.806000	-0.529745
787.008000	-0.069090
787.211000	-0.201415
787.414000	-1.179495
787.616000	-1.001039
787.819000	-0.936727
788.022000	-1.138274
788.224000	-0.655885
788.427000	-1.258941
788.630000	-0.692159
788.832000	-0.691409
789.035000	-1.109185
789.238000	-1.652771
789.440000	-1.120690
789.643000	-0.189210
789.846000	-0.952135
790.048000	-0.665732
790.251000	-0.479035
790.454000	-0.410263
790.656000	0.370940
790.859000	-0.429786
791.062000	-0.652648
791.264000	-0.122911
791.467000	-0.894873
791.669000	-1.359721
791.872000	-0.624594
792.075000	-1.192596
792.277000	-0.675684
792.480000	-0.263424
792.683000	-1.195997
792.885000	-1.197154
793.088000	-0.854277
793.291000	-1.430838
793.493000	-1.555516
793.696000	-0.561740
793.899000	-0.265900
794.101000	-0.757470
794.304000	-0.899771
794.507000	-0.584311
794.709000	-0.215312
794.912000	-0.818644
795.115000	-1.157539
795.317000	-0.642506
795.520000	-0.591836
795.723000	-0.862696
795.925000	-1.079050
796.128000	-1.399890
796.331000	-0.883645
796.533000	-1.281813
796.736000	-0.691169
796.939000	-0.438909
797.141000	-0.803759
797.344000	-0.167458
797.547000	-0.131111
797.749000	-0.350131
797.952000	-0.865108
798.155000	-1.357009
798.357000	-1.493971
798.560000	-1.261872
798.763000	-0.410333
798.965000	-0.613070
799.168000	-0.633378
799.371000	-0.393079
799.573000	-1.008299
799.776000	-1.736426
799.978000	-1.667671
800.181000	-0.771744
800.384000	0.915518
800.586000	0.165481
800.789000	-1.413504
800.992000	-1.525250
801.194000	-1.566269
801.397000	-1.570317
801.600000	-1.518874
801.802000	-0.155528
802.005000	-0.289214
802.208000	-1.568505
802.410000	-0.537639
802.613000	-0.616610
802.816000	-1.096621
803.018000	-1.541664
803.221000	-1.005300
803.424000	0.189127
803.626000	-0.293795
803.829000	-0.546805
804.032000	0.462707
804.234000	0.598613
804.437000	-0.745637
804.640000	-0.530479
804.842000	-0.473050
805.045000	-1.084391
805.248000	-1.047057
805.450000	-1.478607
805.653000	-1.131814
805.856000	-1.071283
806.058000	-0.023791
806.261000	-0.898251
806.464000	-0.919042
806.666000	-0.522014
806.869000	-0.705826
807.072000	-1.648087
807.274000	-1.970175
807.477000	-1.050142
807.679000	-0.648328
807.882000	-1.557948
808.085000	-1.223067
808.287000	-0.410804
808.490000	-1.450760
808.693000	-0.921637
808.895000	-0.310279
809.098000	-1.106927
809.301000	-1.049156
809.503000	-0.806744
809.706000	0.078632
809.909000	-0.066205
810.111000	-0.232043
810.314000	-0.627116
810.517000	-1.287409
810.719000	-1.502810
810.922000	-1.028412
811.125000	-0.129318
811.327000	0.079713
811.530000	-0.699198
811.735000	-0.929455
811.940000	-1.353043
812.146000	-1.210587
812.351000	-0.448714
812.556000	-0.280285
812.761000	-1.282327
812.967000	0.252438
813.172000	-0.025645
813.377000	-0.754571
813.582000	0.167916
813.788000	-0.242774
813.993000	-1.150285
814.198000	-0.177473
814.403000	-1.172403
814.609000	-0.896807
814.814000	-0.769659
815.019000	0.323015
815.224000	0.366477
815.429000	-0.794917
815.635000	-0.797414
815.840000	-0.401345
816.045000	-0.513936
816.250000	-0.714458
816.456000	-1.738079
816.661000	-2.125628
816.866000	-1.526118
817.071000	-1.502794
817.277000	-2.525311
817.482000	-1.515099
817.687000	-0.950841
817.892000	-1.318773
818.097000	-0.481867
818.303000	0.200018
818.508000	0.630642
818.713000	7.234094
818.918000	3.708482
819.124000	0.338002
819.329000	-0.600895
819.534000	-1.108759
819.739000	-1.131856
819.945000	-1.275877
820.150000	-1.027433
820.355000	-0.540334
820.560000	-0.608563
820.766000	-1.006002
820.971000	-0.988383
821.176000	-2.117742
821.381000	-2.813950
821.586000	-1.535518
821.792000	0.018907
821.997000	-0.501492
822.202000	-0.667736
822.407000	-1.429773
822.613000	-1.599377
822.818000	-0.744507
823.023000	-0.888763
823.228000	-0.990686
823.434000	-0.293126
823.639000	-0.245598
823.844000	-0.922213
824.049000	-0.439704
824.255000	-0.126036
824.460000	-0.686695
824.665000	-0.980267
824.870000	-0.298502
825.075000	-0.886839
825.281000	-0.324352
825.486000	0.761310
825.691000	-1.614042
825.896000	-2.782975
826.102000	-0.898452
826.307000	-0.826001
826.512000	-0.978926
826.717000	-0.981945
826.923000	-0.984749
827.128000	-0.533736
827.333000	-1.373370
827.538000	-0.157690
827.744000	0.096883
827.949000	-1.150219
828.154000	-0.924925
828.359000	-0.464784
828.564000	-0.877768
828.770000	-1.190660
828.975000	0.149816
829.180000	-0.368650
829.385000	-1.769883
829.591000	-1.282177
829.796000	-0.974295
830.001000	-1.002397
830.206000	-1.163503
830.412000	-1.241206
830.617000	-1.138763
830.822000	-0.164249
831.027000	-0.560375
831.232000	-0.936079
831.438000	-0.701662
831.643000	-0.139249
831.848000	-0.461723
832.053000	-0.274858
832.259000	-0.760841
832.464000	-2.142830
832.669000	-1.879037
832.874000	-1.930202
833.080000	-2.074883
833.285000	-0.578202
833.490000	-0.687784
833.695000	-2.093423
833.901000	-1.468427
834.106000	-1.830040
834.311000	-0.894820
834.516000	-0.478711
834.721000	-1.656952
834.927000	-0.455297
835.132000	-0.596988
835.337000	0.614798
835.542000	-0.062413
835.748000	-1.732844
835.953000	0.051142
836.158000	-0.062660
836.363000	-0.434665
836.569000	-0.582124
836.774000	-1.333734
836.979000	-2.057950
837.184000	-2.149867
837.390000	-1.544228
837.595000	-1.053586
837.800000	-0.735120
838.005000	-0.622222
838.210000	-1.767642
838.416000	-2.010303
838.621000	-1.631485
838.826000	-1.689563
839.031000	-1.520101
839.237000	-1.830576
839.442000	-2.462646
839.647000	-2.548712
839.852000	-1.988877
840.058000	-1.634239
840.263000	-1.551367
840.468000	-1.643919
840.673000	-1.340748
840.878000	-1.433100
841.084000	-1.777617
841.289000	-1.016587
841.494000	1.751346
841.699000	1.571528
841.905000	0.583119
842.110000	0.336793
842.315000	-2.256319
842.520000	-1.098929
842.726000	-1.664851
842.931000	-2.163802
843.136000	-1.486563
843.341000	-2.417816
843.547000	-1.399589
843.752000	-1.591399
843.957000	-2.115804
844.162000	-2.029508
844.367000	-1.519013
844.573000	-0.523600
844.778000	-0.618924
844.983000	-0.652758
845.188000	-0.623624
845.394000	-1.841889
845.599000	-1.608514
845.804000	-1.154732
846.009000	-0.865429
846.215000	-2.429121
846.420000	-1.969836
846.625000	-0.373886
846.830000	0.159660
847.036000	-1.443906
847.241000	-1.886381
847.446000	0.194656
847.651000	-0.849308
847.856000	-1.911247
848.062000	-1.712263
848.267000	-0.075062
848.472000	-1.273626
848.677000	-3.234156
848.883000	-1.754146
849.088000	0.235332
849.293000	-0.806062
849.498000	-0.874434
849.704000	-0.076553
849.909000	-1.332690
850.114000	-2.274716
850.319000	-1.090949
850.524000	-0.921156
850.730000	-1.173888
850.935000	-1.214103
851.140000	-0.398649
851.345000	0.206414
851.551000	0.492601
851.756000	0.710578
851.961000	-1.302594
852.166000	-1.699291
852.372000	-0.945696
852.577000	-0.988966
852.782000	-1.033101
852.987000	-0.080367
853.193000	-0.667252
853.398000	-0.740797
853.603000	-1.881859
853.808000	-2.655107
854.013000	-0.784575
854.219000	-0.229868
854.424000	0.588066
854.629000	1.036982
854.834000	-1.096475
855.040000	-0.990127
855.245000	-0.610170
855.450000	-2.673480
855.655000	-3.968994
855.861000	-3.538593
856.066000	-2.380771
856.271000	-2.998007
856.476000	-0.892497
856.682000	-1.591054
856.887000	-3.557428
857.092000	-1.786305
857.297000	0.225157
857.502000	-0.669022
857.708000	-1.527719
857.913000	-0.476289
858.118000	-0.874678
858.323000	-0.877248
858.529000	-1.625529
858.734000	-1.709076
858.939000	-0.999900
859.144000	-2.118043
859.350000	-2.835073
859.555000	-2.364623
859.760000	-0.650604
859.965000	-0.570117
860.171000	-2.991942
860.376000	-0.696445
860.581000	-1.550895
860.786000	-3.636673
860.991000	-3.898218
861.197000	-2.954619
861.402000	-1.198369
861.607000	-1.445532
861.812000	-2.812771
862.018000	-3.320375
862.223000	-1.708941
862.428000	-0.258687
862.633000	-0.008349
862.839000	-1.520558
863.044000	-2.041537
863.249000	-2.078238
863.454000	-0.515847
863.659000	-1.535275
863.865000	-2.054369
864.070000	-2.187959
864.275000	-2.919305
864.480000	-1.599634
864.686000	-2.943497
864.891000	-2.427600
865.096000	-0.529407
865.301000	-0.226071
865.507000	-0.577248
865.712000	-0.402298
865.917000	-0.800966
866.122000	-0.538371
866.328000	-3.071029
866.533000	-2.935842
866.738000	0.079928
866.943000	-0.809868
867.148000	-0.098446
867.354000	-2.354198
867.559000	-3.076682
867.764000	-1.278394
867.969000	-0.236928
868.175000	-1.643815
868.380000	-2.925499
868.585000	-3.203076
868.790000	0.265555
868.996000	-0.285745
869.201000	-2.550721
869.406000	-3.953963
869.611000	-4.331348
869.817000	-4.326533
870.022000	0.922636
870.227000	-0.429752
870.432000	-1.887076
870.637000	-1.513267
870.843000	-1.947480
871.048000	-1.948420
871.253000	0.085174
871.458000	-0.960698
871.664000	-3.503472
871.869000	-3.090872
872.074000	-2.713867
872.279000	-2.567762
872.485000	-2.487154
872.690000	-2.302786
872.895000	-2.557251
873.100000	-2.952654
873.306000	-3.162231
873.511000	-2.489876
873.716000	-0.556728
873.921000	-1.844305
874.126000	-2.741067
874.332000	-2.818221
874.537000	-1.068360
874.742000	-0.964448
874.947000	-1.170318
875.153000	0.193488
875.358000	-0.877843
875.563000	-1.335939
875.768000	-4.055360
875.974000	-4.740413
876.179000	-1.040597
876.384000	-0.735064
876.589000	-1.473002
876.794000	-1.004036
877.000000	-2.784312
877.205000	-4.557975
877.410000	-1.743920
877.615000	-3.471454
877.821000	-4.983553
878.026000	-2.921735
878.231000	-2.338974
878.436000	-3.297024
878.642000	-3.106324
878.847000	-1.668952
879.052000	0.149564
879.257000	-1.573302
879.463000	-3.571794
879.668000	-2.439488
879.873000	0.260092
880.078000	-2.563834
880.283000	-5.027669
880.489000	-5.845493
880.694000	-5.487531
880.899000	-2.494087
881.104000	-1.562363
881.310000	0.875345
881.515000	0.044270
881.720000	0.654558
881.925000	1.439223
882.131000	2.778209
882.336000	-0.179893
882.541000	-3.580826
882.746000	-3.142984
882.952000	-3.366818
883.157000	-2.976028
883.362000	-2.980600
883.567000	-4.426543
883.772000	-4.409771
883.978000	-3.429715
884.183000	-1.869726
884.388000	-1.749495
884.593000	-4.416071
884.799000	-0.069856
885.004000	0.047228
885.209000	-1.606446
885.414000	-1.130076
885.620000	-4.695281
885.825000	-1.325559
886.030000	-0.786629
886.235000	-2.110562
886.440000	-0.979426
886.646000	-3.712347
886.851000	-3.791983
887.056000	-0.868467
887.261000	-2.215754
887.467000	-4.990372
887.672000	-2.487438
887.877000	-3.246431
888.082000	-4.949131
888.288000	-5.180117
888.493000	-7.271990
888.698000	-6.372247
888.903000	-2.853411
889.109000	-3.729471
889.314000	-1.336313
889.519000	-2.084760
889.724000	-0.012577
889.929000	-1.271746
890.135000	-1.843311
890.340000	-2.175059
890.545000	-4.271852
890.750000	-4.982090
890.956000	-4.423380
891.161000	-2.693597
891.366000	-3.213289
891.571000	-3.028351
891.777000	-2.260538
891.982000	0.309761
892.187000	-1.633215
892.392000	-0.077587
892.598000	-0.208080
892.803000	-1.849917
893.008000	-2.765572
893.213000	-2.562182
893.418000	-3.896690
893.624000	-3.717783
893.829000	-5.771013
894.034000	-3.727320
894.239000	-1.812844
894.445000	-3.603992
894.650000	-3.622158
894.855000	-3.292111
895.060000	-1.816991
895.266000	-3.240389
895.471000	-5.865741
895.676000	-2.106079
895.881000	-0.558285
896.087000	-3.077973
896.292000	-3.646313
896.497000	1.088245
896.702000	-0.699722
896.907000	-3.792575
897.113000	1.365406
897.318000	0.882240
897.523000	0.331712
897.728000	-1.886938
897.934000	-3.471288
898.139000	-2.094063
898.344000	-0.433947
898.549000	-1.844220
898.755000	-3.538585
898.960000	-4.056911
899.165000	-5.690744
899.370000	-2.722001
899.575000	0.985850
899.781000	-2.521773
899.986000	-3.381644
900.191000	-3.259039
900.396000	-3.046264
900.602000	-2.991932
900.807000	-2.793678
901.012000	-1.707734
901.217000	-1.121638
901.423000	-4.206432
901.628000	-5.917574
901.833000	-0.088983
902.038000	-0.687508
902.244000	-3.443008
902.449000	-2.788617
902.654000	-3.954302
902.859000	-2.433533
903.064000	-0.926442
903.270000	-1.387039
903.475000	-3.371105
903.680000	-4.815305
903.885000	-5.391282
904.091000	-5.650606
904.296000	-7.145586
904.501000	-4.528452
904.706000	-3.137965
904.912000	1.167743
905.117000	-0.649704
905.322000	-4.488995
905.527000	-3.673128
905.733000	-3.277755
905.938000	-4.739259
906.143000	-5.606380
906.348000	-6.016289
906.553000	-2.384579
906.759000	0.146903
906.964000	-2.148865
907.169000	-4.800321
907.374000	-5.530255
907.580000	-3.739564
907.785000	-3.299049
907.990000	26.264459
908.195000	17.717796
908.401000	-1.718340
908.606000	-8.912623
908.811000	-10.100049
909.016000	-3.174487
909.221000	-3.612567
909.427000	-5.096721
909.632000	-7.052153
909.837000	-4.215303
910.042000	-5.630838
910.248000	-9.096380
910.453000	-3.648986
910.658000	-2.516647
910.863000	-3.138072
911.069000	-5.654797
911.274000	-1.820660
911.479000	-0.380883
911.684000	-6.541758
911.890000	-3.486254
912.095000	-4.952564
912.300000	-7.196537
912.506000	-6.647870
912.711000	-5.705256
912.917000	-3.750916
913.123000	-3.007149
913.328000	-1.992095
913.534000	-4.096601
913.740000	4.278127
913.946000	2.955926
914.151000	-4.689371
914.357000	-6.067311
914.563000	-2.612723
914.768000	-5.150306
914.974000	-7.846354
915.180000	-7.428744
915.385000	-5.574046
915.591000	-7.324611
915.797000	-3.031800
916.002000	2.304056
916.208000	-0.925524
916.414000	-6.427771
916.620000	-7.970359
916.825000	-2.065289
917.031000	-4.420220
917.237000	-9.265610
917.442000	-6.146863
917.648000	-7.555516
917.854000	-7.341372
918.059000	-1.811110
918.265000	-0.862355
918.471000	-2.980678
918.676000	-6.858281
918.882000	-9.699370
919.088000	-6.054352
919.294000	-10.226240
919.499000	-6.471112
919.705000	-1.450739
919.911000	-2.329873
920.116000	-2.131194
920.322000	-7.267936
920.528000	-5.849941
920.733000	-6.840658
920.939000	-7.211170
921.145000	-7.764053
921.350000	-7.402401
921.556000	-6.649531
921.762000	-4.545581
921.968000	-4.325973
922.173000	-7.984092
922.379000	-10.890993
922.585000	-6.328367
922.790000	-5.505426
922.996000	-6.028678
923.202000	-8.653976
923.407000	-10.175811
923.613000	-4.923289
923.819000	-1.622985
924.024000	-4.423445
924.230000	-1.869077
924.436000	-5.345720
924.642000	4.359836
924.847000	1.746839
925.053000	-6.094896
925.259000	-10.661601
925.464000	-3.466608
925.670000	-3.209109
925.876000	-7.881507
926.081000	-8.959554
926.287000	-2.361500
926.493000	-1.874988
926.698000	-6.904059
926.904000	-4.232708
927.110000	-3.596897
927.316000	-7.197579
927.521000	0.778071
927.727000	-1.252739
927.933000	-6.044701
928.138000	-5.659084
928.344000	-11.004910
928.550000	-5.872396
928.755000	-2.702483
928.961000	-7.754224
929.167000	-8.366821
929.372000	-1.305408
929.578000	0.114559
929.784000	-7.385435
929.990000	-11.911639
930.195000	-7.729638
930.401000	-6.177039
930.607000	-4.431191
930.812000	-5.511636
931.018000	-8.510026
931.224000	-15.107133
931.429000	-11.843330
931.635000	-12.573318
931.841000	-14.069732
932.046000	-8.449375
932.252000	-4.032270
932.458000	2.453653
932.664000	0.125634
932.869000	-6.162504
933.075000	-10.952792
933.281000	-6.292775
933.486000	-0.683123
933.692000	-5.751028
933.898000	-9.602002
934.103000	-1.845391
934.309000	-6.931024
934.515000	-6.702981
934.720000	-2.779627
934.926000	0.657479
935.132000	-0.207792
935.338000	-2.135444
935.543000	-10.155716
935.749000	-15.089718
935.955000	-15.699260
936.160000	-12.420803
936.366000	-6.635354
936.572000	-6.392300
936.777000	-0.801087
936.983000	0.917677
937.189000	-4.277540
937.394000	-11.560937
937.600000	-1.020202
937.806000	5.098641
938.012000	-5.259447
938.217000	7.240100
938.423000	5.254944
938.629000	-5.948319
938.834000	-12.556299
939.040000	-11.989643
939.246000	-6.104590
939.451000	-9.145305
939.657000	-4.746135
939.863000	-9.799928
940.068000	-3.765356
940.274000	-9.742251
940.480000	-7.191714
940.686000	-5.503682
940.891000	-7.487001
941.097000	18.525109
941.303000	7.777539
941.508000	-7.221265
941.714000	-1.210090
941.920000	-11.599353
942.125000	-1.469140
942.331000	-1.714041
942.537000	1.379710
942.742000	-0.528655
942.948000	-8.219378
943.154000	-8.689436
943.360000	-21.010889
943.565000	-9.118574
943.771000	5.394518
943.977000	6.340713
944.182000	-15.505685
944.388000	-15.080178
944.594000	1.198576
944.799000	10.795713
945.005000	-1.289667
945.211000	2.686487
945.416000	-2.576383
945.622000	-15.750765
945.828000	-9.777668
946.034000	-0.832463
946.239000	1.778860
946.445000	-3.914923
946.651000	-18.252151
946.856000	-18.812723
947.062000	-0.051584
947.268000	-1.350576
947.473000	-16.742174
947.679000	-18.418326
947.885000	-3.474027
948.090000	1.271042
948.296000	9.909481
948.502000	-4.564910
948.708000	-15.581246
948.913000	-20.642494
949.119000	-9.261343
949.325000	-11.705962
949.530000	-22.559590
949.736000	-26.535147
949.942000	-17.549058
950.147000	-16.592316
950.353000	-12.956863
950.559000	-7.854495
950.764000	11.891685
950.970000	7.872503
951.176000	-11.669259
951.382000	-19.029667
951.587000	-7.164119
951.793000	-0.057234
951.999000	2.764591
952.204000	-12.021045
952.410000	-29.135481
952.616000	-11.260932
952.821000	-6.541024
953.027000	-15.590174
953.233000	-18.170427
953.438000	-19.459651
953.644000	1.099933
953.850000	-0.347579
954.056000	-12.059828
954.261000	-13.607442
954.467000	-0.354268
954.673000	5.243984
954.878000	-6.562724
955.084000	-5.090915
955.290000	-16.106982
955.495000	-20.028651
955.701000	-19.083443
955.907000	1.452935
956.112000	2.361261
956.318000	8.040906
956.524000	4.795147
956.730000	-16.399639
956.935000	-14.903268
957.141000	-12.038148
957.347000	-0.997175
957.552000	-8.155835
957.758000	-29.032288
957.964000	-32.473940
958.169000	3.731106
958.375000	2.791139
958.581000	-9.944193
958.786000	-20.213294
958.992000	-29.984421
959.198000	-9.840367
959.404000	-2.013036
959.609000	-5.206641
959.815000	-18.419465
960.021000	-5.686754
960.226000	-0.066710
960.432000	-22.926556
960.638000	-22.612055
960.843000	-14.267774
961.049000	-8.697221
961.255000	-2.120818
961.460000	-11.782933
961.666000	-25.766233
961.872000	-16.213104
962.078000	-16.741725
962.283000	-27.044253
962.489000	-23.537360
962.695000	-21.844687
962.900000	-22.735131
963.106000	-25.844813
963.312000	-24.367564
963.517000	-24.170893
963.723000	-32.215735
963.929000	-16.619944
964.134000	5.431278
964.340000	-18.628377
964.546000	-21.361011
964.752000	-19.646783
964.957000	-24.751180
965.163000	0.306110
965.369000	-2.791153
965.574000	0.313332
965.780000	-1.646366
966.000000	-15.770918
966.220000	-11.918674
966.440000	-5.633799
966.661000	-2.474704
966.881000	-26.504667
967.101000	-42.811221
967.321000	-40.184806
967.541000	-12.655855
967.761000	-23.060675
967.981000	-11.973504
968.202000	-10.996832
968.422000	-2.612754
968.642000	-7.646102
968.862000	-13.381550
969.082000	-17.800212
969.302000	-4.996433
969.522000	-12.803338
969.743000	1.622508
969.963000	-14.051767
970.183000	-30.802674
970.403000	-31.458735
970.623000	-31.205002
970.843000	-0.090167
971.063000	12.268787
971.284000	-18.514982
971.504000	-43.552370
971.724000	-19.275952
971.944000	-24.254619
972.164000	-32.465054
972.384000	-19.868793
972.604000	-36.390204
972.825000	-49.199756
973.045000	-34.867927
973.265000	20.794794
973.485000	9.303257
973.705000	-10.549726
973.925000	-8.183538
974.145000	-36.820503
974.365000	-14.072656
974.586000	-14.675538
974.806000	-27.264342
975.026000	1.462970
975.246000	-10.211169
975.466000	-22.289575
975.686000	-12.584512
975.906000	-24.569304
976.127000	-52.129975
976.347000	-45.694154
976.567000	-12.060066
976.787000	-11.552366
977.007000	-21.703774
977.227000	-20.195752
977.447000	-24.961729
977.668000	-49.586099
977.888000	-35.750046
978.108000	-31.488087
978.328000	-21.825922
978.548000	-1.849242
978.768000	8.712172
978.988000	-5.657727
979.209000	-17.875594
979.429000	-22.288361
979.649000	-13.963979
979.869000	-35.348061
980.089000	-51.547472
980.309000	-43.813214
980.529000	-53.818016
980.750000	-31.636055
980.970000	-49.939352
981.190000	-44.924045
981.410000	-32.675085
981.630000	-42.814478
981.850000	-22.423137
982.070000	-18.150377
982.291000	-62.109588
982.511000	-61.657312
982.731000	-10.709417
982.951000	-36.263453
983.171000	-41.553840
983.391000	-19.893683
983.611000	7.005321
983.832000	-27.900316
984.052000	-37.910213
984.272000	-15.938383
984.492000	-13.493687
984.712000	-17.295600
984.932000	-46.292687
985.152000	-65.863878
985.373000	-41.380768
985.593000	-12.509748
985.813000	-40.209587
986.033000	-62.865869
986.253000	-5.048608
986.473000	7.588231
986.693000	-24.077596
986.914000	-33.544294
987.134000	-1.835645
987.354000	-34.123971
987.574000	164.172121
987.794000	104.602255
988.014000	-42.428205
988.234000	-23.381449
988.455000	-19.108958
988.675000	-15.581108
988.895000	-22.686923
989.115000	-50.487528
989.335000	-18.641019
989.555000	-3.868881
989.775000	-56.316666
989.995000	-36.858193
990.216000	-31.714018
990.436000	-32.269079
990.656000	7.783837
990.876000	-21.193384
991.096000	-18.125207
991.316000	25.454791
991.536000	-5.398326
991.757000	-14.855237
991.977000	-75.968997
992.197000	-26.564444
992.417000	-40.520609
992.637000	-84.307824
992.857000	-78.082609
993.077000	-80.289818
993.298000	-64.179119
993.518000	-42.953150
993.738000	-99.019066
993.958000	-57.109653
994.178000	-62.164180
994.398000	-52.574706
994.618000	-69.784481
994.839000	-103.660827
995.059000	-18.767325
995.279000	37.305514
995.499000	-22.941834
995.719000	-17.245959
995.939000	-34.322127
996.159000	-24.956178
996.380000	-11.589633
996.600000	-72.215830
996.820000	-57.563101
997.040000	11.657687
997.260000	-41.978858
997.480000	-51.298774
997.700000	-111.667884
997.921000	-83.374142
998.141000	19.784859
998.361000	6.480365
998.581000	-68.590224
998.801000	-94.448514
999.021000	-63.900396
999.241000	-52.393475
999.462000	-86.240913
999.682000	-131.595209
999.902000	-85.315888
1000.122000	-100.390567
1000.342000	-126.094843
1000.562000	-56.082233
1000.782000	-76.388353
1001.003000	-1013.542428
