Wavelength	Irradiance
(nm)	(mW/cm2/nm)

294.396000	0.000000
294.577000	0.000000
294.757000	-0.000000
294.938000	-0.000000
295.118000	0.000000
295.299000	0.000000
295.479000	-0.000000
295.660000	-0.000000
295.840000	-0.000000
296.021000	-0.000000
296.202000	-0.000000
296.382000	-0.000000
296.563000	-0.000000
296.743000	-0.000000
296.924000	0.000000
297.104000	-0.000000
297.285000	-0.000000
297.465000	-0.000000
297.646000	-0.000000
297.826000	-0.000000
298.007000	0.000000
298.187000	-0.000000
298.368000	-0.000000
298.548000	0.000000
298.729000	0.000000
298.909000	-0.000000
299.090000	-0.000000
299.270000	-0.000000
299.451000	-0.000000
299.631000	-0.000000
299.812000	-0.000000
299.992000	0.000000
300.173000	0.000000
300.353000	-0.000000
300.534000	0.000000
300.714000	0.000000
300.895000	0.000000
301.075000	-0.000000
301.256000	0.000000
301.436000	-0.000000
301.617000	-0.000000
301.797000	-0.000000
301.978000	0.000000
302.159000	0.000000
302.339000	0.000000
302.520000	-0.000000
302.700000	-0.000000
302.881000	0.000000
303.061000	0.000000
303.242000	0.000000
303.422000	0.000000
303.603000	-0.000000
303.783000	-0.000000
303.964000	0.000000
304.144000	-0.000000
304.325000	-0.000000
304.505000	0.000000
304.686000	-0.000000
304.866000	0.000000
305.047000	-0.000000
305.227000	-0.000000
305.408000	-0.000000
305.588000	-0.000000
305.769000	-0.000000
305.949000	-0.000000
306.130000	-0.000000
306.310000	-0.000000
306.491000	-0.000000
306.671000	0.000000
306.852000	-0.000000
307.032000	-0.000000
307.213000	-0.000000
307.393000	-0.000000
307.574000	0.000000
307.755000	0.000000
307.935000	0.000000
308.116000	-0.000000
308.296000	-0.000000
308.477000	0.000000
308.657000	0.000000
308.838000	0.000000
309.018000	0.000000
309.199000	-0.000000
309.379000	-0.000000
309.560000	0.000000
309.740000	-0.000000
309.921000	0.000000
310.101000	0.000000
310.282000	-0.000000
310.462000	-0.000000
310.643000	-0.000000
310.823000	-0.000000
311.004000	-0.000000
311.184000	-0.000000
311.365000	0.000000
311.545000	0.000000
311.726000	0.000000
311.906000	0.000000
312.087000	0.000000
312.267000	-0.000000
312.448000	-0.000000
312.628000	-0.000000
312.809000	-0.000000
312.989000	-0.000000
313.170000	-0.000000
313.344000	-0.000000
313.518000	-0.000000
313.691000	-0.000000
313.865000	-0.000000
314.039000	-0.000000
314.213000	-0.000000
314.387000	-0.000000
314.560000	-0.000000
314.734000	-0.000000
314.908000	-0.000000
315.082000	-0.000000
315.255000	0.000000
315.429000	0.000000
315.603000	0.000000
315.777000	-0.000000
315.951000	0.000000
316.124000	-0.000000
316.298000	-0.000000
316.472000	-0.000000
316.646000	-0.000000
316.820000	-0.000000
316.993000	-0.000000
317.167000	-0.000000
317.341000	-0.000000
317.515000	-0.000000
317.688000	-0.000000
317.862000	-0.000000
318.036000	-0.000000
318.210000	-0.000000
318.384000	-0.000000
318.557000	-0.000000
318.731000	-0.000000
318.905000	-0.000000
319.079000	0.000000
319.253000	-0.000000
319.426000	0.000000
319.600000	0.000000
319.774000	-0.000000
319.948000	-0.000000
320.122000	0.000000
320.295000	-0.000000
320.469000	-0.000000
320.643000	-0.000000
320.817000	-0.000000
320.990000	-0.000000
321.164000	-0.000000
321.338000	-0.000000
321.512000	-0.000000
321.686000	-0.000000
321.859000	-0.000000
322.033000	0.000000
322.207000	-0.000000
322.381000	-0.000000
322.555000	0.000000
322.728000	0.000000
322.902000	-0.000000
323.076000	-0.000000
323.250000	-0.000000
323.423000	-0.000000
323.597000	-0.000000
323.771000	-0.000000
323.945000	-0.000000
324.119000	-0.000000
324.292000	0.000000
324.466000	-0.000000
324.640000	0.000000
324.814000	0.000000
324.988000	-0.000000
325.161000	-0.000000
325.335000	-0.000000
325.509000	-0.000000
325.683000	-0.000000
325.856000	-0.000000
326.030000	-0.000000
326.204000	-0.000000
326.378000	-0.000000
326.552000	-0.000000
326.725000	-0.000000
326.899000	-0.000000
327.073000	-0.000000
327.247000	-0.000000
327.421000	0.000000
327.594000	-0.000000
327.768000	-0.000000
327.942000	-0.000000
328.116000	0.000000
328.289000	0.000000
328.463000	-0.000000
328.637000	0.000000
328.811000	-0.000000
328.985000	-0.000000
329.158000	-0.000000
329.332000	-0.000000
329.506000	0.000000
329.680000	-0.000000
329.854000	-0.000000
330.027000	-0.000000
330.201000	0.000000
330.375000	0.000000
330.549000	0.000000
330.723000	-0.000000
330.896000	-0.000000
331.070000	-0.000000
331.244000	-0.000000
331.418000	-0.000000
331.591000	-0.000000
331.765000	-0.000000
331.939000	-0.000000
332.113000	-0.000000
332.287000	-0.000000
332.460000	0.000000
332.634000	0.000000
332.808000	-0.000000
332.982000	-0.000000
333.156000	-0.000000
333.329000	-0.000000
333.503000	-0.000000
333.677000	-0.000000
333.851000	-0.000000
334.024000	-0.000000
334.198000	-0.000000
334.372000	-0.000000
334.546000	-0.000000
334.720000	-0.000000
334.893000	-0.000000
335.067000	-0.000000
335.241000	0.000000
335.415000	-0.000000
335.589000	-0.000000
335.762000	-0.000000
335.936000	-0.000000
336.110000	-0.000000
336.284000	-0.000000
336.458000	-0.000000
336.631000	-0.000000
336.805000	-0.000000
336.979000	-0.000000
337.153000	-0.000000
337.326000	-0.000000
337.500000	-0.000000
337.674000	-0.000000
337.848000	-0.000000
338.022000	-0.000000
338.195000	-0.000000
338.369000	-0.000000
338.543000	-0.000000
338.717000	-0.000000
338.891000	0.000000
339.064000	0.000000
339.238000	-0.000000
339.412000	-0.000000
339.586000	-0.000000
339.759000	-0.000000
339.933000	-0.000000
340.107000	0.000000
340.281000	-0.000000
340.455000	-0.000000
340.628000	-0.000000
340.802000	-0.000000
340.976000	-0.000000
341.150000	-0.000000
341.324000	-0.000000
341.497000	-0.000000
341.671000	-0.000000
341.845000	-0.000000
342.019000	-0.000000
342.192000	-0.000000
342.366000	-0.000000
342.540000	-0.000000
342.714000	-0.000000
342.888000	-0.000000
343.061000	-0.000000
343.235000	-0.000000
343.409000	-0.000000
343.583000	-0.000000
343.757000	-0.000000
343.930000	-0.000000
344.104000	-0.000000
344.278000	0.000000
344.452000	0.000000
344.626000	-0.000000
344.799000	-0.000000
344.973000	-0.000000
345.147000	-0.000000
345.321000	-0.000000
345.494000	-0.000000
345.668000	0.000000
345.842000	0.000000
346.016000	-0.000000
346.190000	0.000000
346.363000	0.000000
346.537000	-0.000000
346.711000	-0.000000
346.885000	-0.000000
347.059000	-0.000000
347.232000	0.000000
347.406000	0.000000
347.580000	-0.000000
347.754000	-0.000000
347.927000	-0.000000
348.101000	0.000000
348.275000	-0.000000
348.449000	-0.000000
348.623000	-0.000000
348.796000	0.000000
348.970000	0.000000
349.144000	-0.000000
349.318000	-0.000000
349.492000	-0.000000
349.665000	-0.000000
349.839000	-0.000000
350.013000	-0.000000
350.187000	-0.000000
350.361000	-0.000000
350.534000	-0.000000
350.708000	-0.000000
350.882000	-0.000000
351.056000	0.000000
351.229000	-0.000000
351.403000	-0.000000
351.577000	-0.000000
351.751000	-0.000000
351.925000	-0.000000
352.098000	-0.000000
352.272000	-0.000000
352.446000	-0.000000
352.620000	-0.000000
352.794000	-0.000000
352.967000	-0.000000
353.141000	0.000000
353.315000	0.000000
353.489000	-0.000000
353.662000	-0.000000
353.836000	-0.000000
354.010000	-0.000000
354.184000	-0.000000
354.358000	-0.000000
354.531000	-0.000000
354.705000	-0.000000
354.879000	-0.000000
355.053000	-0.000000
355.227000	0.000000
355.400000	-0.000000
355.574000	0.000000
355.748000	0.000000
355.922000	-0.000000
356.095000	-0.000000
356.269000	-0.000000
356.443000	-0.000000
356.617000	-0.000000
356.791000	-0.000000
356.964000	-0.000000
357.138000	-0.000000
357.312000	-0.000000
357.486000	-0.000000
357.660000	-0.000000
357.833000	-0.000000
358.007000	-0.000000
358.181000	-0.000000
358.355000	-0.000000
358.529000	-0.000000
358.702000	-0.000000
358.876000	-0.000000
359.050000	-0.000000
359.224000	-0.000000
359.397000	-0.000000
359.571000	-0.000000
359.745000	-0.000000
359.919000	-0.000000
360.093000	-0.080797
360.266000	0.028962
360.440000	0.118635
360.614000	0.139545
360.788000	0.013806
360.962000	-0.247611
361.135000	-0.124169
361.309000	-0.194075
361.483000	-0.317888
361.657000	-0.265076
361.830000	-0.236515
362.004000	-0.044126
362.178000	-0.383816
362.352000	-0.252003
362.526000	-0.058967
362.699000	-0.060351
362.873000	-0.395946
363.047000	-0.333645
363.221000	-0.300662
363.395000	-0.151071
363.568000	-0.193546
363.742000	-0.200354
363.916000	-0.160688
364.090000	-0.285681
364.263000	-0.282127
364.437000	-0.345477
364.611000	-0.055118
364.785000	-0.045350
364.959000	-0.202417
365.132000	-0.212535
365.306000	-0.284770
365.480000	-0.146958
365.656000	-0.214260
365.831000	-0.223967
366.007000	-0.229354
366.183000	-0.159830
366.358000	-0.298270
366.534000	-0.220008
366.710000	-0.350641
366.886000	-0.276972
367.061000	-0.135250
367.237000	0.015951
367.413000	-0.103461
367.588000	-0.335574
367.764000	-0.323406
367.940000	-0.343552
368.115000	-0.298094
368.291000	-0.352040
368.467000	-0.203581
368.643000	0.179648
368.818000	-0.218732
368.994000	-0.369631
369.170000	-0.278295
369.345000	-0.233728
369.521000	-0.258320
369.697000	-0.166157
369.872000	-0.254401
370.048000	-0.330098
370.224000	-0.290865
370.399000	-0.509221
370.575000	-0.381730
370.751000	-0.448593
370.927000	-0.446324
371.102000	-0.412200
371.278000	-0.364334
371.454000	-0.226467
371.629000	0.047615
371.805000	-0.038477
371.981000	0.094131
372.156000	0.292490
372.332000	0.102673
372.508000	0.006986
372.683000	-0.072194
372.859000	-0.144277
373.035000	-0.145826
373.211000	0.236395
373.386000	0.036700
373.562000	-0.379914
373.738000	-0.478719
373.913000	-0.637361
374.089000	-0.480428
374.265000	-0.081629
374.440000	-0.060812
374.616000	-0.024305
374.792000	-0.208626
374.968000	0.208283
375.143000	-0.069241
375.319000	-0.313357
375.495000	-0.372315
375.670000	-0.212804
375.846000	-0.077732
376.022000	-0.254737
376.197000	-0.202013
376.373000	-0.429906
376.549000	-0.415627
376.724000	-0.432348
376.900000	-0.315814
377.076000	-0.183844
377.252000	0.055465
377.427000	0.158591
377.603000	-0.225206
377.779000	-0.194866
377.954000	-0.348013
378.130000	-0.235495
378.306000	-0.206013
378.481000	-0.173530
378.657000	-0.271796
378.833000	-0.309047
379.009000	-0.170000
379.184000	-0.056621
379.360000	-0.112723
379.536000	-0.088295
379.711000	-0.215461
379.887000	-0.313915
380.063000	-0.320009
380.238000	-0.349155
380.414000	-0.054584
380.590000	-0.277470
380.765000	-0.297195
380.941000	-0.099733
381.117000	-0.083540
381.293000	-0.170260
381.468000	-0.314165
381.644000	-0.253430
381.820000	-0.142961
381.995000	0.000472
382.171000	0.196608
382.347000	0.156875
382.522000	-0.279157
382.698000	0.050486
382.874000	0.083185
383.050000	-0.315309
383.225000	0.089876
383.401000	0.247539
383.577000	-0.123143
383.752000	-0.277749
383.928000	-0.201137
384.104000	-0.113978
384.279000	-0.203160
384.455000	-0.137128
384.631000	-0.188420
384.806000	-0.400311
384.982000	-0.208791
385.158000	-0.235609
385.334000	-0.087291
385.509000	-0.166497
385.685000	-0.443914
385.861000	-0.260219
386.036000	-0.378988
386.212000	-0.548569
386.388000	-0.345078
386.563000	-0.306103
386.739000	-0.358909
386.915000	-0.587135
387.090000	-0.270791
387.266000	-0.080318
387.442000	0.014434
387.618000	-0.078068
387.793000	-0.380031
387.969000	-0.519539
388.145000	-0.403513
388.320000	-0.333089
388.496000	-0.304778
388.672000	-0.543517
388.847000	-0.157378
389.023000	-0.132172
389.199000	-0.428972
389.375000	-0.231830
389.550000	-0.315002
389.726000	-0.178959
389.902000	-0.384988
390.077000	-0.191979
390.253000	-0.158592
390.429000	-0.250283
390.604000	-0.166057
390.780000	-0.092268
390.956000	-0.237862
391.131000	-0.285581
391.307000	0.059205
391.483000	-0.150140
391.659000	-0.342510
391.834000	-0.106359
392.010000	-0.277480
392.186000	-0.380035
392.361000	-0.299470
392.537000	-0.390626
392.713000	0.117498
392.888000	0.258643
393.064000	-0.060611
393.240000	-0.226828
393.416000	-0.340586
393.591000	-0.423343
393.767000	-0.485847
393.943000	-0.375167
394.118000	-0.052293
394.294000	0.143894
394.470000	-0.030223
394.645000	0.079030
394.821000	0.300533
394.997000	-0.081029
395.172000	-0.138485
395.348000	-0.231553
395.524000	-0.524880
395.700000	-0.354273
395.875000	-0.123104
396.051000	-0.198976
396.227000	-0.238037
396.402000	-0.284342
396.578000	-0.198110
396.754000	-0.351262
396.929000	-0.272207
397.105000	-0.019629
397.281000	-0.089807
397.457000	-0.206655
397.632000	-0.201652
397.808000	-0.446117
397.984000	-0.605732
398.159000	-0.491067
398.335000	-0.276141
398.511000	0.178300
398.686000	-0.073491
398.862000	-0.328547
399.038000	-0.419237
399.213000	-0.197209
399.389000	-0.471139
399.565000	-0.196683
399.741000	0.025736
399.916000	-0.022293
400.092000	0.203892
400.268000	-0.163537
400.443000	-0.278931
400.619000	0.078272
400.795000	-0.040772
400.970000	-0.235084
401.146000	-0.309183
401.322000	0.028761
401.497000	0.426571
401.673000	0.095772
401.849000	-0.230765
402.025000	-0.064544
402.200000	-0.185500
402.376000	-0.286786
402.552000	0.158759
402.727000	-0.040383
402.903000	-0.378693
403.079000	-0.258112
403.254000	0.032766
403.430000	0.004610
403.606000	-0.115714
403.782000	-0.210595
403.957000	-0.365350
404.133000	-0.466052
404.309000	-0.276287
404.484000	-0.091954
404.660000	-0.100631
404.841000	-0.200402
405.023000	0.025559
405.204000	-0.044406
405.385000	-0.348571
405.566000	-0.387629
405.748000	-0.257198
405.929000	0.016075
406.110000	-0.069885
406.292000	-0.207005
406.473000	-0.091687
406.654000	-0.316069
406.835000	-0.162190
407.017000	-0.172750
407.198000	-0.128014
407.379000	-0.126284
407.560000	-0.172267
407.742000	-0.219544
407.923000	-0.136769
408.104000	-0.314455
408.286000	-0.188680
408.467000	-0.099446
408.648000	-0.329312
408.829000	-0.397473
409.011000	-0.235561
409.192000	-0.412062
409.373000	-0.218070
409.555000	-0.073352
409.736000	-0.088068
409.917000	-0.198023
410.098000	-0.169142
410.280000	-0.091280
410.461000	-0.144396
410.642000	-0.096761
410.823000	0.145430
411.005000	0.062054
411.186000	-0.176418
411.367000	-0.264376
411.549000	-0.273781
411.730000	-0.025630
411.911000	0.119450
412.092000	-0.119639
412.274000	-0.148524
412.455000	-0.079639
412.636000	-0.045763
412.818000	-0.224118
412.999000	-0.335448
413.180000	-0.259086
413.361000	-0.231563
413.543000	-0.258662
413.724000	-0.360284
413.905000	-0.346836
414.087000	-0.331377
414.268000	-0.310404
414.449000	-0.328358
414.630000	-0.406106
414.812000	-0.532477
414.993000	-0.150925
415.174000	0.022975
415.355000	-0.155938
415.537000	-0.402687
415.718000	-0.131437
415.899000	-0.206725
416.081000	-0.330167
416.262000	-0.121002
416.443000	-0.241791
416.624000	-0.200523
416.806000	-0.124598
416.987000	0.003041
417.168000	-0.027202
417.350000	-0.221637
417.531000	-0.275152
417.712000	-0.225510
417.893000	-0.006135
418.075000	0.057609
418.256000	-0.163937
418.437000	-0.051985
418.618000	0.042143
418.800000	0.107211
418.981000	-0.127936
419.162000	-0.058856
419.344000	0.132613
419.525000	0.022548
419.706000	-0.073980
419.887000	0.061592
420.069000	0.202011
420.250000	0.086219
420.431000	0.041902
420.613000	0.023853
420.794000	-0.178515
420.975000	0.142551
421.156000	-0.056587
421.338000	-0.108294
421.519000	-0.103097
421.700000	-0.151407
421.882000	-0.148786
422.063000	0.066382
422.244000	0.534680
422.425000	0.318311
422.607000	-0.057068
422.788000	-0.078900
422.969000	-0.144188
423.150000	-0.185710
423.332000	-0.240585
423.513000	-0.004783
423.694000	0.026380
423.876000	0.069054
424.057000	0.170136
424.238000	0.183782
424.419000	0.228667
424.601000	0.099516
424.782000	0.100718
424.963000	0.267861
425.145000	0.176600
425.326000	0.260989
425.507000	0.317286
425.688000	0.198486
425.870000	0.057586
426.051000	-0.051254
426.232000	0.008133
426.413000	0.018569
426.595000	0.009429
426.776000	0.019754
426.957000	0.122277
427.139000	0.209562
427.320000	0.257177
427.501000	0.362337
427.682000	0.350202
427.864000	0.369426
428.045000	0.538030
428.226000	0.487823
428.408000	0.181376
428.589000	0.336187
428.770000	0.370351
428.951000	0.254790
429.133000	0.104676
429.314000	0.287102
429.495000	0.324593
429.677000	0.375897
429.858000	0.384028
430.039000	0.429590
430.220000	0.525061
430.402000	0.618516
430.583000	0.395833
430.764000	0.446859
430.945000	0.573706
431.127000	0.671716
431.308000	0.566998
431.489000	0.741321
431.671000	0.863651
431.852000	0.743203
432.033000	0.647714
432.214000	0.727839
432.396000	0.824854
432.577000	0.665229
432.758000	0.534437
432.940000	0.617899
433.121000	0.757151
433.302000	0.839578
433.483000	1.040340
433.665000	1.147231
433.846000	1.034365
434.027000	0.931048
434.208000	0.899683
434.390000	0.877789
434.571000	1.343537
434.752000	1.795564
434.934000	1.602715
435.115000	1.579260
435.296000	1.699782
435.477000	1.523112
435.659000	1.291667
435.840000	1.404274
436.026000	1.390269
436.211000	1.276839
436.397000	1.046587
436.582000	1.202226
436.768000	1.447286
436.953000	1.363417
437.139000	1.465351
437.325000	1.789245
437.510000	1.750133
437.696000	1.942897
437.881000	1.979732
438.067000	1.646199
438.252000	1.691946
438.438000	1.720806
438.624000	1.797834
438.809000	1.899462
438.995000	2.045550
439.180000	2.007047
439.366000	2.032351
439.551000	2.053425
439.737000	2.124050
439.923000	2.250444
440.108000	2.208310
440.294000	2.309247
440.479000	2.500349
440.665000	2.582520
440.850000	2.508761
441.036000	2.561191
441.222000	2.597832
441.407000	2.518847
441.593000	2.712802
441.778000	2.866761
441.964000	3.037572
442.149000	2.779775
442.335000	2.801627
442.521000	2.986698
442.706000	3.210280
442.892000	3.143704
443.077000	3.178406
443.263000	3.350891
443.448000	3.395147
443.634000	3.413535
443.820000	3.776453
444.005000	3.727507
444.191000	3.572772
444.376000	3.627215
444.562000	4.055747
444.747000	4.158279
444.933000	4.117112
445.119000	4.043178
445.304000	4.013226
445.490000	4.243782
445.675000	4.340528
445.861000	4.295848
446.046000	4.394210
446.232000	4.560758
446.418000	4.773992
446.603000	4.794731
446.789000	4.862240
446.974000	4.972258
447.160000	4.832561
447.345000	4.989518
447.531000	5.085117
447.717000	5.398969
447.902000	5.559518
448.088000	5.731101
448.273000	5.673898
448.459000	5.678965
448.644000	5.729637
448.830000	5.791062
449.016000	5.775132
449.201000	5.968791
449.387000	6.213392
449.572000	6.417524
449.758000	6.392289
449.943000	6.454654
450.129000	6.541584
450.315000	6.628507
450.500000	6.735788
450.686000	6.957077
450.871000	6.983674
451.057000	7.205902
451.243000	7.270407
451.428000	7.380734
451.614000	7.469073
451.799000	7.507583
451.985000	7.861046
452.170000	8.040567
452.356000	7.922677
452.542000	8.003700
452.727000	8.263774
452.913000	8.246638
453.098000	8.520511
453.284000	8.756709
453.469000	8.708782
453.655000	8.885806
453.841000	8.921167
454.026000	8.792636
454.212000	8.857759
454.397000	8.974306
454.583000	8.976699
454.768000	8.902637
454.954000	9.157568
455.140000	9.240721
455.325000	9.111394
455.511000	9.143684
455.696000	9.244606
455.882000	9.398607
456.067000	9.590919
456.253000	9.456924
456.439000	9.361077
456.624000	9.322704
456.810000	9.366119
456.995000	9.495454
457.181000	9.404655
457.366000	9.588378
457.552000	9.523399
457.738000	9.563967
457.923000	9.587214
458.109000	9.822075
458.294000	9.619520
458.480000	9.564926
458.665000	9.521518
458.851000	9.296713
459.037000	9.018685
459.222000	9.130622
459.408000	9.083153
459.593000	9.036144
459.779000	9.124964
459.964000	9.153669
460.150000	9.249036
460.336000	9.124745
460.521000	8.781143
460.707000	8.541422
460.892000	8.269492
461.078000	8.406902
461.263000	8.433776
461.449000	8.119457
461.635000	8.075303
461.820000	7.987348
462.006000	7.923287
462.191000	7.775458
462.377000	7.372800
462.562000	7.675126
462.748000	7.752463
462.934000	7.222352
463.119000	6.960165
463.305000	7.056201
463.490000	6.830786
463.676000	6.837977
463.861000	6.716318
464.047000	6.503153
464.233000	6.464480
464.418000	6.310594
464.604000	6.100676
464.789000	6.190137
464.975000	6.043422
465.160000	5.861683
465.346000	5.807888
465.532000	5.618197
465.717000	5.489984
465.903000	5.600141
466.088000	5.401994
466.274000	5.118125
466.459000	5.037833
466.645000	5.310834
466.831000	5.145825
467.016000	5.109498
467.202000	4.945331
467.387000	4.713925
467.573000	4.457449
467.758000	4.687954
467.944000	4.470232
468.130000	4.328312
468.315000	4.413197
468.501000	4.465853
468.686000	4.299784
468.872000	4.213235
469.057000	4.207170
469.243000	4.035847
469.429000	3.959628
469.614000	3.828748
469.800000	3.686736
469.985000	3.753972
470.171000	3.805633
470.356000	3.657424
470.542000	3.689229
470.728000	3.652890
470.913000	3.562238
471.099000	3.622449
471.284000	3.491509
471.470000	3.383066
471.655000	3.339154
471.841000	3.271489
472.027000	3.124789
472.212000	3.297914
472.398000	3.318571
472.583000	3.184360
472.769000	3.127217
472.954000	3.048530
473.140000	2.853198
473.326000	2.796023
473.511000	3.054765
473.697000	3.010316
473.882000	2.836654
474.068000	2.702979
474.253000	2.594160
474.439000	2.627795
474.625000	2.679943
474.810000	2.669082
474.996000	2.638616
475.181000	2.398805
475.367000	2.508101
475.552000	2.720495
475.738000	2.381775
475.924000	2.331142
476.109000	2.383224
476.295000	2.244995
476.480000	2.273858
476.666000	2.249786
476.851000	2.203448
477.037000	2.182421
477.223000	2.053967
477.408000	1.953295
477.594000	1.824780
477.779000	1.940695
477.965000	1.954172
478.151000	1.790405
478.336000	1.900409
478.522000	1.800553
478.707000	1.760082
478.893000	1.830675
479.078000	1.631872
479.264000	1.649075
479.450000	1.687269
479.635000	1.744163
479.821000	1.638535
480.006000	1.671847
480.192000	1.637712
480.377000	1.625460
480.563000	1.607078
480.749000	1.398618
480.934000	1.399096
481.120000	1.509040
481.305000	1.577673
481.491000	1.552541
481.676000	1.570864
481.862000	1.571520
482.048000	1.408341
482.233000	1.420450
482.419000	1.400975
482.604000	1.293796
482.790000	1.294813
482.975000	1.336534
483.161000	1.478373
483.347000	1.444521
483.532000	1.357234
483.718000	1.131690
483.903000	1.182712
484.089000	1.235090
484.274000	1.105133
484.460000	1.247460
484.646000	1.267299
484.831000	1.127003
485.017000	1.191391
485.202000	1.221552
485.388000	1.410244
485.573000	1.405506
485.759000	1.246967
485.945000	1.361208
486.130000	1.200133
486.316000	1.211401
486.501000	1.289507
486.687000	1.112579
486.872000	1.027422
487.058000	1.200551
487.244000	1.246393
487.429000	1.054108
487.615000	1.215628
487.800000	1.286788
487.986000	1.193270
488.171000	1.311211
488.357000	1.247436
488.543000	1.260340
488.728000	1.301472
488.914000	1.241193
489.099000	1.172571
489.285000	1.131039
489.470000	1.286721
489.656000	1.318632
489.842000	1.278886
490.027000	1.400853
490.213000	1.284839
490.398000	1.016018
490.584000	1.253747
490.769000	1.247015
490.955000	1.325470
491.141000	1.300523
491.326000	1.276891
491.512000	1.452727
491.697000	1.347922
491.883000	1.209464
492.068000	1.187712
492.254000	1.249925
492.440000	1.337844
492.625000	1.278737
492.811000	1.242002
492.996000	1.405127
493.182000	1.407259
493.367000	1.201040
493.553000	1.147379
493.739000	1.256315
493.924000	1.383689
494.110000	1.428390
494.295000	1.306421
494.481000	1.424862
494.666000	1.457930
494.852000	1.624101
495.038000	1.506160
495.223000	1.415270
495.409000	1.479527
495.594000	1.466933
495.780000	1.530630
495.965000	1.487120
496.151000	1.683148
496.337000	1.744333
496.522000	1.566837
496.708000	1.686770
496.893000	1.846793
497.079000	1.702966
497.264000	1.674544
497.450000	1.740474
497.636000	1.873670
497.821000	1.731010
498.007000	1.985230
498.192000	2.048681
498.378000	1.904227
498.563000	1.885240
498.749000	1.968430
498.935000	1.997169
499.120000	2.081642
499.306000	1.944858
499.491000	1.947034
499.677000	2.052335
499.862000	2.139379
500.048000	2.251499
500.234000	2.193632
500.419000	2.220970
500.605000	2.366826
500.790000	2.310072
500.976000	2.265179
501.161000	2.191679
501.347000	2.395302
501.533000	2.514652
501.718000	2.454296
501.904000	2.430041
502.089000	2.590325
502.275000	2.718328
502.460000	2.631958
502.646000	2.701304
502.832000	2.779382
503.017000	2.797167
503.203000	2.610742
503.388000	2.601971
503.574000	2.852020
503.759000	2.941223
503.945000	3.056081
504.131000	2.986597
504.316000	2.965077
504.502000	3.010318
504.687000	3.032472
504.873000	2.984262
505.058000	3.010250
505.244000	3.024584
505.430000	3.179285
505.615000	3.290018
505.801000	3.384884
505.986000	3.215110
506.172000	3.326330
506.358000	3.404719
506.543000	3.433070
506.729000	3.672115
506.914000	3.707627
507.100000	3.871268
507.285000	3.665707
507.471000	3.598924
507.657000	3.873011
507.842000	3.808864
508.028000	3.720308
508.213000	3.788597
508.399000	3.843173
508.584000	4.027393
508.770000	3.956449
508.956000	3.930948
509.141000	4.010337
509.327000	4.130310
509.512000	4.127281
509.698000	4.191641
509.883000	4.296923
510.069000	4.252966
510.255000	4.274015
510.440000	4.333969
510.626000	4.252153
510.811000	4.243877
510.997000	4.384989
511.182000	4.683817
511.368000	4.612095
511.554000	4.255480
511.739000	4.405386
511.925000	4.652182
512.110000	4.632448
512.296000	4.770096
512.481000	4.784478
512.667000	4.675161
512.853000	4.484472
513.038000	4.609291
513.224000	4.591136
513.409000	4.512598
513.595000	4.643425
513.780000	4.505026
513.966000	4.641415
514.152000	4.643916
514.337000	4.544677
514.523000	4.581685
514.708000	4.685670
514.894000	4.746934
515.079000	4.631144
515.265000	4.658659
515.451000	4.686695
515.636000	4.594383
515.822000	4.693927
516.007000	4.575685
516.193000	4.737402
516.378000	4.848126
516.564000	4.723145
516.750000	4.658062
516.935000	4.738781
517.121000	4.779466
517.306000	4.845787
517.492000	4.792962
517.677000	4.528953
517.863000	4.476519
518.049000	4.571898
518.234000	4.443554
518.420000	4.582863
518.605000	4.728587
518.791000	4.673926
518.976000	4.507700
519.162000	4.378099
519.348000	4.459604
519.533000	4.397868
519.719000	4.597377
519.904000	4.482103
520.090000	4.397392
520.275000	4.559451
520.461000	4.497517
520.647000	4.211877
520.832000	4.031283
521.018000	4.136498
521.203000	4.098738
521.389000	3.900188
521.574000	3.951680
521.760000	4.080153
521.946000	4.050693
522.131000	3.940207
522.317000	3.876736
522.502000	3.824513
522.688000	3.890406
522.873000	3.818139
523.059000	3.771144
523.245000	3.728681
523.430000	3.537500
523.616000	3.565742
523.801000	3.466059
523.987000	3.483034
524.172000	3.613628
524.358000	3.628861
524.544000	3.501878
524.729000	3.580211
524.915000	3.643440
525.100000	3.449824
525.286000	3.437340
525.471000	3.357889
525.657000	3.377048
525.843000	3.111974
526.028000	3.234047
526.214000	3.170952
526.399000	3.051072
526.585000	2.932471
526.770000	2.898630
526.956000	3.010558
527.142000	2.933983
527.327000	3.074781
527.513000	2.892503
527.698000	2.843221
527.884000	2.849598
528.069000	2.812104
528.255000	2.875425
528.441000	2.727619
528.626000	2.724018
528.812000	2.943223
528.997000	2.772302
529.183000	2.630272
529.368000	2.672589
529.554000	2.628353
529.740000	2.600446
529.925000	2.521277
530.111000	2.516994
530.296000	2.527797
530.482000	2.602979
530.667000	2.494445
530.853000	2.535000
531.039000	2.444645
531.224000	2.452651
531.410000	2.494961
531.595000	2.358740
531.781000	2.383735
531.967000	2.241188
532.152000	2.393144
532.338000	2.270296
532.523000	2.079191
532.709000	1.998197
532.894000	2.099245
533.080000	2.136134
533.266000	1.973887
533.451000	1.939056
533.637000	1.964396
533.822000	2.130435
534.008000	1.925933
534.193000	1.952245
534.379000	2.028724
534.565000	1.922093
534.750000	1.865671
534.936000	2.084652
535.121000	1.891687
535.307000	1.891706
535.492000	1.867566
535.678000	1.630390
535.864000	1.778082
536.049000	2.055932
536.235000	1.826857
536.420000	1.777392
536.606000	1.687688
536.791000	1.556350
536.977000	1.495014
537.163000	1.784208
537.348000	1.767395
537.534000	1.790667
537.719000	1.570502
537.905000	1.406336
538.090000	1.649855
538.276000	1.717115
538.462000	1.656413
538.647000	1.664290
538.833000	1.509026
539.018000	1.616344
539.204000	1.567888
539.389000	1.382532
539.575000	1.692945
539.761000	1.600982
539.946000	1.290262
540.132000	1.443586
540.317000	1.302638
540.503000	1.403598
540.688000	1.459994
540.874000	1.701724
541.060000	1.809982
541.245000	1.594897
541.431000	1.448043
541.616000	1.497759
541.802000	1.421077
541.987000	1.508292
542.173000	1.510315
542.359000	1.404829
542.544000	1.478759
542.730000	1.300834
542.915000	1.286426
543.101000	1.432659
543.286000	1.277282
543.472000	1.161320
543.658000	1.226706
543.843000	1.215772
544.029000	1.394043
544.214000	1.264572
544.400000	0.957245
544.585000	1.137077
544.771000	1.193395
544.957000	1.381097
545.142000	1.483879
545.328000	1.538093
545.513000	1.528037
545.699000	1.481411
545.884000	1.325256
546.070000	1.207610
546.261000	1.124628
546.451000	0.944960
546.642000	0.726424
546.833000	0.826136
547.023000	0.714387
547.214000	0.726502
547.405000	0.877886
547.595000	1.158700
547.786000	1.065162
547.977000	0.806460
548.167000	0.682208
548.358000	0.699902
548.549000	1.050835
548.740000	0.832441
548.930000	0.507038
549.121000	0.579735
549.312000	0.568460
549.502000	0.452161
549.693000	0.566670
549.884000	0.689862
550.074000	0.798110
550.265000	0.575629
550.456000	0.654729
550.646000	0.734165
550.837000	0.671544
551.028000	0.530099
551.218000	0.618904
551.409000	0.503416
551.600000	0.556114
551.790000	0.668781
551.981000	0.395339
552.172000	0.430662
552.362000	0.794160
552.553000	0.799586
552.744000	0.582380
552.934000	0.560641
553.125000	0.464159
553.316000	0.382237
553.506000	0.744688
553.697000	0.537223
553.888000	0.568459
554.079000	0.729929
554.269000	0.678802
554.460000	0.329227
554.651000	0.292995
554.841000	0.148281
555.032000	0.258514
555.223000	0.350677
555.413000	0.477077
555.604000	0.438152
555.795000	0.369931
555.985000	0.440204
556.176000	0.316206
556.367000	0.032987
556.557000	0.193610
556.748000	0.267996
556.939000	0.209320
557.129000	0.136731
557.320000	0.315829
557.511000	0.269861
557.701000	0.280761
557.892000	0.331641
558.083000	0.504518
558.273000	0.388152
558.464000	0.160923
558.655000	0.165042
558.845000	0.281995
559.036000	0.367152
559.227000	0.353253
559.418000	0.497282
559.608000	0.477219
559.799000	0.132230
559.990000	0.080777
560.180000	0.164166
560.371000	-0.008058
560.562000	0.014539
560.752000	0.189746
560.943000	0.031521
561.134000	-0.141958
561.324000	0.107431
561.515000	0.370040
561.706000	0.195990
561.896000	-0.016426
562.087000	0.083158
562.278000	0.052286
562.468000	-0.076753
562.659000	0.053595
562.850000	0.375683
563.040000	0.370082
563.231000	-0.066843
563.422000	0.074445
563.612000	-0.037334
563.803000	0.056248
563.994000	0.011529
564.185000	-0.103586
564.375000	0.122587
564.566000	0.119665
564.757000	0.079674
564.947000	0.001805
565.138000	0.112529
565.329000	0.028041
565.519000	-0.118319
565.710000	-0.050720
565.901000	0.149775
566.091000	0.271276
566.282000	0.092791
566.473000	0.121369
566.663000	0.097888
566.854000	-0.077535
567.045000	0.049510
567.235000	0.105411
567.426000	0.123094
567.617000	0.114501
567.807000	0.065632
567.998000	0.085840
568.189000	-0.005016
568.379000	0.073430
568.570000	0.157054
568.761000	0.082607
568.951000	0.027312
569.142000	-0.042708
569.333000	-0.088512
569.524000	-0.190186
569.714000	-0.239825
569.905000	-0.315780
570.096000	0.076753
570.286000	0.142197
570.477000	0.260543
570.668000	0.087033
570.858000	0.044380
571.049000	-0.068661
571.240000	-0.149748
571.430000	0.036227
571.621000	-0.031338
571.812000	0.064923
572.002000	0.070315
572.193000	-0.069411
572.384000	0.025409
572.574000	0.080768
572.765000	0.008286
572.956000	-0.070404
573.146000	0.127759
573.337000	-0.008780
573.528000	-0.050625
573.718000	0.121731
573.909000	0.182792
574.100000	0.106843
574.290000	-0.061727
574.481000	-0.057716
574.672000	-0.029343
574.863000	0.099524
575.053000	-0.013750
575.244000	0.074741
575.435000	-0.081586
575.625000	-0.091427
575.816000	-0.076031
576.007000	-0.022542
576.197000	0.028445
576.388000	0.049935
576.579000	0.170586
576.769000	0.148819
576.960000	-0.161891
577.155000	-0.323266
577.350000	-0.037502
577.545000	0.104987
577.740000	-0.086329
577.935000	0.243654
578.130000	0.166034
578.326000	-0.122238
578.521000	0.129184
578.716000	0.155975
578.911000	-0.117754
579.106000	0.023908
579.301000	0.157214
579.496000	-0.051337
579.691000	-0.318215
579.886000	-0.113728
580.081000	0.017517
580.276000	0.046801
580.471000	-0.093708
580.666000	-0.225265
580.861000	-0.226405
581.057000	-0.188732
581.252000	-0.069190
581.447000	-0.148175
581.642000	-0.153302
581.837000	-0.133609
582.032000	-0.102867
582.227000	0.134386
582.422000	0.113648
582.617000	-0.125609
582.812000	-0.210247
583.007000	-0.146746
583.202000	-0.250334
583.397000	0.024149
583.592000	0.253297
583.788000	-0.022136
583.983000	-0.031575
584.178000	0.039318
584.373000	-0.124428
584.568000	-0.146488
584.763000	-0.208950
584.958000	-0.265373
585.153000	-0.147806
585.348000	-0.144200
585.543000	0.012117
585.738000	-0.019637
585.933000	-0.248999
586.128000	-0.007878
586.324000	-0.012614
586.519000	-0.014960
586.714000	0.084057
586.909000	0.149163
587.104000	0.147290
587.299000	0.003899
587.494000	-0.005546
587.689000	-0.074129
587.884000	-0.049450
588.079000	-0.120609
588.274000	-0.082811
588.469000	-0.090946
588.664000	0.007480
588.859000	0.043161
589.055000	0.024165
589.250000	-0.016316
589.445000	-0.154652
589.640000	-0.195351
589.835000	0.054188
590.030000	0.178540
590.225000	0.173788
590.420000	-0.035572
590.615000	-0.150689
590.810000	-0.103820
591.005000	-0.103042
591.200000	-0.196907
591.395000	-0.254606
591.591000	-0.140110
591.786000	-0.026031
591.981000	-0.098297
592.176000	-0.068357
592.371000	-0.032202
592.566000	-0.086412
592.761000	0.073868
592.956000	0.052266
593.151000	0.115090
593.346000	0.034271
593.541000	0.033026
593.736000	-0.006917
593.931000	-0.148959
594.126000	-0.107842
594.322000	-0.043403
594.517000	-0.147927
594.712000	-0.262300
594.907000	-0.277889
595.102000	-0.157274
595.297000	-0.033828
595.492000	0.021172
595.687000	-0.177443
595.882000	-0.226608
596.077000	-0.104120
596.272000	0.059362
596.467000	0.091347
596.662000	-0.057471
596.857000	-0.047816
597.053000	-0.060272
597.248000	-0.031793
597.443000	-0.008300
597.638000	-0.067922
597.833000	-0.253179
598.028000	-0.059211
598.223000	0.031467
598.418000	-0.055695
598.613000	-0.162827
598.808000	-0.066951
599.003000	-0.083249
599.198000	-0.244564
599.393000	-0.200765
599.589000	-0.059754
599.784000	-0.251594
599.979000	-0.146509
600.174000	0.094600
600.369000	-0.139218
600.564000	-0.076436
600.759000	0.135275
600.954000	0.211822
601.149000	0.047090
601.344000	-0.271324
601.539000	-0.064146
601.734000	-0.175256
601.929000	-0.391044
602.124000	-0.338123
602.320000	-0.083439
602.515000	0.189641
602.710000	0.128937
602.905000	-0.235058
603.100000	-0.300751
603.295000	-0.198196
603.490000	-0.091531
603.685000	-0.085162
603.880000	-0.086545
604.075000	-0.232865
604.270000	-0.215378
604.465000	-0.125381
604.660000	-0.361806
604.856000	-0.219080
605.051000	0.004243
605.246000	-0.022741
605.441000	-0.278627
605.636000	-0.326294
605.831000	-0.177427
606.026000	-0.241751
606.221000	-0.296251
606.416000	-0.136499
606.611000	0.041753
606.806000	0.064962
607.001000	0.195654
607.196000	-0.068212
607.391000	-0.284767
607.587000	-0.043769
607.782000	-0.052931
607.977000	-0.244826
608.172000	0.116223
608.367000	0.155265
608.562000	-0.080461
608.757000	-0.128670
608.952000	-0.196917
609.147000	0.233997
609.342000	0.123258
609.537000	-0.108294
609.732000	-0.037642
609.927000	-0.087307
610.122000	-0.011407
610.318000	0.337701
610.513000	0.478384
610.708000	0.306694
610.903000	0.392581
611.098000	0.462001
611.293000	0.381654
611.488000	0.388303
611.683000	0.333471
611.878000	0.303164
612.073000	0.329700
612.268000	0.273130
612.463000	0.324164
612.658000	0.267111
612.854000	0.162624
613.049000	0.070906
613.244000	0.210710
613.439000	0.264055
613.634000	-0.046321
613.829000	0.073842
614.024000	-0.041091
614.219000	-0.086586
614.414000	0.229396
614.609000	0.027225
614.804000	-0.155211
614.999000	-0.183215
615.194000	-0.089628
615.389000	-0.049374
615.585000	-0.213896
615.780000	-0.033319
615.975000	-0.091505
616.170000	-0.088866
616.365000	0.122264
616.560000	0.243001
616.755000	0.170332
616.950000	0.035768
617.145000	0.101140
617.340000	-0.070443
617.535000	-0.349757
617.730000	-0.080088
617.925000	-0.237376
618.120000	-0.289397
618.316000	0.078501
618.511000	-0.024271
618.706000	-0.204627
618.901000	-0.164635
619.096000	-0.039624
619.291000	-0.085111
619.486000	-0.021726
619.681000	-0.336112
619.876000	-0.349811
620.071000	-0.215724
620.266000	0.014305
620.461000	0.133988
620.656000	0.079874
620.852000	0.005986
621.047000	-0.126581
621.242000	-0.235749
621.437000	0.069058
621.632000	0.178701
621.827000	-0.002389
622.022000	-0.273771
622.217000	-0.103911
622.412000	0.072407
622.607000	0.073890
622.802000	-0.153653
622.997000	-0.192487
623.192000	-0.087512
623.387000	-0.071926
623.583000	-0.315138
623.778000	0.098780
623.973000	0.077450
624.168000	0.019015
624.363000	0.057529
624.558000	0.077646
624.753000	-0.201840
624.948000	0.017678
625.143000	0.043580
625.338000	-0.048552
625.533000	-0.156652
625.728000	-0.052947
625.923000	0.165007
626.119000	0.035162
626.314000	-0.215373
626.509000	-0.233468
626.704000	-0.183102
626.899000	-0.171596
627.094000	-0.209793
627.289000	-0.252711
627.484000	-0.179969
627.679000	-0.183066
627.874000	-0.195062
628.069000	0.156484
628.264000	0.048976
628.459000	-0.060001
628.654000	-0.102846
628.850000	-0.295701
629.045000	-0.162617
629.240000	-0.171682
629.435000	-0.217965
629.630000	-0.081426
629.825000	-0.140965
630.020000	-0.102666
630.215000	-0.257944
630.410000	-0.173494
630.605000	-0.152625
630.800000	-0.079077
630.995000	0.036544
631.190000	0.283789
631.385000	0.092442
631.581000	-0.079608
631.776000	-0.044893
631.971000	-0.223980
632.166000	-0.123989
632.361000	-0.257782
632.556000	-0.136449
632.751000	0.003510
632.946000	-0.101823
633.141000	-0.187882
633.336000	-0.182042
633.531000	-0.076456
633.726000	-0.064070
633.921000	-0.236795
634.117000	-0.421061
634.312000	-0.514221
634.507000	-0.435866
634.702000	-0.311094
634.897000	-0.263417
635.092000	-0.130266
635.287000	-0.029163
635.482000	-0.180907
635.677000	-0.082427
635.872000	0.006726
636.067000	0.103950
636.262000	-0.087671
636.457000	-0.385160
636.652000	-0.388876
636.848000	-0.402313
637.043000	-0.290228
637.238000	-0.259307
637.433000	-0.418027
637.628000	-0.310219
637.823000	-0.085249
638.018000	-0.001113
638.213000	-0.219510
638.408000	-0.296303
638.603000	-0.349459
638.798000	-0.388372
638.993000	-0.292921
639.188000	-0.286607
639.383000	-0.314138
639.579000	0.072639
639.774000	-0.129765
639.969000	-0.314815
640.164000	-0.362293
640.359000	-0.403036
640.554000	-0.165980
640.749000	-0.150231
640.944000	-0.082344
641.139000	-0.077313
641.334000	-0.322637
641.529000	-0.690975
641.724000	-0.484945
641.919000	-0.329257
642.115000	-0.015872
642.310000	-0.009314
642.505000	-0.159585
642.700000	-0.163147
642.895000	-0.298236
643.090000	-0.116008
643.285000	0.092392
643.480000	-0.002796
643.675000	-0.052185
643.870000	0.244603
644.065000	0.116177
644.260000	-0.235763
644.455000	-0.181580
644.650000	-0.274953
644.846000	-0.150506
645.041000	-0.371047
645.236000	-0.544872
645.431000	-0.480716
645.626000	-0.646837
645.821000	-0.428672
646.016000	-0.333163
646.211000	0.080732
646.406000	-0.044712
646.601000	-0.096530
646.796000	-0.275479
646.991000	-0.476267
647.186000	-0.343195
647.381000	-0.103511
647.577000	-0.053233
647.772000	0.057602
647.967000	-0.065118
648.162000	-0.127478
648.357000	-0.169806
648.552000	0.022418
648.747000	-0.011300
648.942000	-0.009620
649.137000	-0.065511
649.332000	-0.260524
649.527000	-0.243471
649.722000	0.061482
649.917000	0.144899
650.113000	-0.199695
650.308000	-0.339301
650.503000	-0.266099
650.698000	-0.086345
650.893000	-0.159689
651.088000	-0.060882
651.283000	0.022731
651.478000	-0.293454
651.673000	-0.119005
651.868000	-0.285191
652.063000	-0.028627
652.258000	0.117170
652.453000	0.270845
652.648000	-0.092005
652.844000	-0.155510
653.039000	-0.066465
653.234000	-0.478804
653.429000	-0.605296
653.624000	-0.374397
653.819000	-0.132197
654.014000	-0.158081
654.209000	-0.331340
654.404000	-0.156606
654.599000	-0.285101
654.794000	-0.263873
654.989000	0.047315
655.184000	-0.065417
655.380000	-0.342771
655.575000	-0.353213
655.770000	-0.357274
655.965000	-0.242701
656.160000	-0.261949
656.355000	-0.124605
656.550000	-0.163338
656.745000	-0.098907
656.940000	-0.184532
657.135000	-0.160052
657.330000	-0.144402
657.525000	-0.366418
657.720000	-0.162263
657.915000	-0.030954
658.111000	-0.118438
658.306000	0.107327
658.501000	-0.104766
658.696000	-0.357324
658.891000	-0.087222
659.086000	-0.190689
659.281000	-0.159372
659.476000	-0.365475
659.671000	-0.747245
659.866000	-0.444812
660.061000	-0.110441
660.256000	-0.057625
660.451000	-0.101771
660.646000	-0.322670
660.842000	-0.201040
661.037000	-0.351466
661.232000	-0.344884
661.427000	-0.187084
661.622000	-0.327513
661.817000	-0.462153
662.012000	-0.203843
662.207000	-0.362261
662.402000	-0.446968
662.597000	-0.206421
662.792000	-0.491425
662.987000	-0.528424
663.182000	-0.240408
663.378000	-0.265608
663.573000	-0.602889
663.768000	-0.567688
663.963000	-0.366172
664.158000	-0.378348
664.353000	0.097441
664.548000	0.266031
664.743000	-0.082073
664.938000	-0.408885
665.133000	-0.404130
665.328000	0.038366
665.523000	-0.006678
665.718000	-0.194392
665.913000	-0.234452
666.109000	-0.222295
666.304000	-0.010323
666.499000	-0.207602
666.694000	-0.046648
666.889000	0.263706
667.084000	-0.101430
667.279000	-0.199645
667.474000	-0.217967
667.669000	-0.128709
667.864000	-0.167137
668.059000	-0.205726
668.254000	-0.205987
668.449000	-0.347116
668.644000	-0.257690
668.840000	0.049934
669.035000	-0.233907
669.230000	-0.556338
669.425000	-0.244057
669.620000	-0.359897
669.815000	-0.359355
670.010000	-0.397746
670.205000	-0.250436
670.400000	-0.191039
670.595000	-0.149120
670.790000	-0.241836
670.985000	-0.243941
671.180000	-0.038384
671.376000	-0.357644
671.571000	-0.464461
671.766000	-0.448757
671.961000	-0.491825
672.156000	-0.468161
672.351000	-0.311370
672.546000	-0.338231
672.741000	-0.152591
672.936000	-0.117258
673.131000	0.383107
673.326000	0.041934
673.521000	-0.372084
673.716000	-0.492525
673.911000	-0.656730
674.107000	-0.084345
674.302000	0.230929
674.497000	-0.025898
674.692000	-0.391018
674.887000	-0.453093
675.082000	-0.282684
675.277000	0.002475
675.472000	-0.148112
675.667000	-0.343070
675.862000	-0.396727
676.057000	-0.268930
676.252000	-0.202460
676.447000	-0.368085
676.643000	-0.189360
676.838000	0.052475
677.033000	-0.172663
677.228000	0.149166
677.423000	0.087469
677.618000	-0.382768
677.813000	-0.545082
678.008000	-0.273126
678.203000	-0.217061
678.398000	-0.423816
678.593000	-0.188319
678.788000	-0.142039
678.983000	-0.434573
679.178000	-0.251269
679.374000	-0.339619
679.569000	-0.254136
679.764000	-0.331534
679.959000	-0.505683
680.154000	-0.480171
680.349000	-0.699322
680.544000	-0.562144
680.739000	-0.424152
680.934000	-0.549165
681.129000	-0.503108
681.324000	-0.551381
681.519000	-0.294188
681.714000	-0.350081
681.909000	-0.451148
682.105000	-0.614067
682.300000	-0.173696
682.495000	-0.017421
682.690000	-0.075662
682.885000	-0.162090
683.080000	-0.382080
683.275000	-0.299651
683.470000	0.053062
683.665000	0.251337
683.860000	0.452296
684.055000	0.138421
684.250000	-0.342232
684.445000	-0.400425
684.641000	0.065618
684.836000	-0.241541
685.031000	-0.234245
685.226000	-0.205931
685.421000	0.072392
685.616000	-0.249576
685.811000	-0.371460
686.006000	-0.054882
686.201000	-0.157866
686.396000	-0.559297
686.591000	-0.504523
686.786000	-0.005599
686.981000	-0.148688
687.176000	-0.122025
687.372000	-0.207488
687.567000	0.077661
687.762000	-0.043217
687.957000	-0.139251
688.152000	-0.262986
688.347000	-0.257172
688.542000	-0.503646
688.737000	-0.860461
688.932000	-0.887168
689.127000	-0.445993
689.322000	-0.168384
689.517000	-0.358453
689.712000	-0.550499
689.908000	-0.406767
690.103000	-0.424564
690.298000	-0.303432
690.493000	-0.336206
690.688000	-0.607711
690.883000	-0.387043
691.078000	0.052066
691.273000	0.064929
691.468000	-0.295647
691.663000	-0.292461
691.858000	-0.074799
692.053000	-0.089884
692.248000	-0.029560
692.443000	-0.061923
692.639000	-0.152859
692.834000	0.015822
693.029000	0.542716
693.224000	0.442900
693.419000	-0.215223
693.614000	-0.377298
693.809000	-0.521871
694.004000	-0.562283
694.199000	-0.483301
694.394000	-0.208083
694.589000	-0.520649
694.784000	-0.540995
694.979000	-0.281186
695.174000	-0.279690
695.370000	0.203408
695.565000	-0.094330
695.760000	-0.364676
695.955000	0.047276
696.150000	0.144982
696.345000	-0.364863
696.540000	-0.162321
696.740000	-0.273768
696.940000	-0.066317
697.140000	0.009651
697.340000	-0.246638
697.539000	-0.084806
697.739000	-0.204110
697.939000	-0.159212
698.139000	-0.517809
698.339000	-0.872740
698.539000	-0.682278
698.739000	-0.688647
698.939000	-0.518571
699.138000	-0.619802
699.338000	0.107533
699.538000	0.276817
699.738000	-0.196148
699.938000	-0.308557
700.138000	-0.382506
700.338000	-0.570008
700.538000	-0.345346
700.737000	-0.255293
700.937000	-0.728198
701.137000	-0.699379
701.337000	-0.059491
701.537000	-0.020183
701.737000	-0.244906
701.937000	-0.382473
702.137000	-0.268697
702.337000	-0.429659
702.536000	-0.600700
702.736000	-0.524407
702.936000	-0.728522
703.136000	-0.182141
703.336000	-0.165695
703.536000	-0.325964
703.736000	-0.677969
703.936000	-0.620125
704.135000	-0.608063
704.335000	-0.234996
704.535000	-0.460168
704.735000	-0.652276
704.935000	-0.119696
705.135000	-0.162981
705.335000	-0.458683
705.535000	-0.196980
705.735000	-0.189801
705.934000	-0.211126
706.134000	-0.413585
706.334000	-0.407406
706.534000	-0.503596
706.734000	-0.501604
706.934000	-0.580508
707.134000	-0.573481
707.334000	-0.361316
707.533000	-0.292325
707.733000	-0.320917
707.933000	-0.475009
708.133000	-0.203260
708.333000	-0.124713
708.533000	-0.335198
708.733000	-0.028271
708.933000	-0.267726
709.132000	-0.413637
709.332000	-0.390064
709.532000	-0.478501
709.732000	-0.295621
709.932000	-0.751656
710.132000	-0.760919
710.332000	-0.928396
710.532000	-0.301150
710.732000	-0.050533
710.931000	-0.395033
711.131000	-0.440723
711.331000	-0.296251
711.531000	-0.434435
711.731000	-0.388698
711.931000	-0.364654
712.131000	-0.420933
712.331000	-0.238531
712.530000	-0.302298
712.730000	-0.530352
712.930000	-0.416583
713.130000	-0.400697
713.330000	-0.468182
713.530000	-0.308040
713.730000	0.307185
713.930000	-0.088913
714.129000	-0.504311
714.329000	-0.645704
714.529000	-0.338444
714.729000	0.023242
714.929000	-0.149206
715.129000	-0.477401
715.329000	-0.342534
715.529000	-0.286069
715.729000	0.297083
715.928000	0.048589
716.128000	-0.271311
716.328000	-0.226637
716.528000	-0.338194
716.728000	-0.244662
716.928000	-0.457236
717.128000	-0.257913
717.328000	-0.245192
717.527000	-0.471432
717.727000	-0.456645
717.927000	-0.353591
718.127000	-0.417563
718.327000	-0.908957
718.527000	-0.806337
718.727000	-0.306011
718.927000	-0.434622
719.127000	-0.726940
719.326000	-0.496063
719.526000	-0.101858
719.726000	-0.228055
719.926000	-0.745043
720.126000	-0.667731
720.326000	-0.437947
720.526000	-0.598063
720.726000	-0.428996
720.925000	-0.126164
721.125000	-0.623278
721.325000	-0.326454
721.525000	-0.275177
721.725000	-0.530367
721.925000	-0.604969
722.125000	-0.500570
722.325000	0.060835
722.524000	-0.190392
722.724000	-0.686209
722.924000	-0.830374
723.124000	-0.589886
723.324000	-0.149003
723.524000	-0.070229
723.724000	-0.636318
723.924000	-0.556695
724.124000	-0.345444
724.323000	-0.046842
724.523000	-0.216027
724.723000	0.167735
724.923000	-0.036314
725.123000	-0.126568
725.323000	-0.001861
725.523000	-0.158995
725.723000	-0.384965
725.922000	-0.433341
726.122000	-0.340503
726.322000	-0.517881
726.522000	-0.545150
726.722000	0.142479
726.922000	-0.138108
727.122000	-0.213646
727.322000	0.024962
727.521000	-0.166013
727.721000	-0.397993
727.921000	-0.317170
728.121000	-0.381748
728.321000	-0.733323
728.521000	-0.564727
728.721000	-0.403056
728.921000	-0.047959
729.121000	0.654898
729.320000	0.041571
729.520000	-0.406778
729.720000	-0.581643
729.920000	-0.529718
730.120000	-0.378345
730.320000	-0.272627
730.520000	-0.562713
730.720000	-0.528811
730.919000	-0.471094
731.119000	-0.191586
731.319000	-0.602129
731.519000	-0.684632
731.719000	-0.321500
731.919000	-0.481544
732.119000	-1.001405
732.319000	-1.037784
732.519000	-0.417608
732.718000	-0.690081
732.918000	-0.612915
733.118000	-0.422343
733.318000	-0.122014
733.518000	-0.457100
733.718000	-1.005788
733.918000	-0.869282
734.118000	-0.625654
734.317000	-0.350187
734.517000	-0.610506
734.717000	-0.506368
734.917000	-0.044340
735.117000	-0.134859
735.317000	-0.230926
735.517000	0.247427
735.717000	0.455668
735.916000	-0.471088
736.116000	-0.609866
736.316000	-0.416422
736.516000	-0.359148
736.716000	-0.387916
736.916000	-0.906150
737.116000	-0.653863
737.316000	0.044122
737.516000	-0.019360
737.715000	-0.103221
737.915000	-0.716511
738.115000	-0.820350
738.315000	-0.428919
738.515000	-0.742405
738.715000	-0.457638
738.915000	0.076911
739.115000	-0.467798
739.314000	-0.528834
739.514000	-0.069609
739.714000	0.071552
739.914000	-0.096567
740.114000	-0.398530
740.314000	-0.105702
740.514000	0.359702
740.714000	-0.430545
740.913000	-0.937733
741.113000	-0.754166
741.313000	-0.345300
741.513000	-0.412114
741.713000	-0.368208
741.913000	-0.231255
742.113000	-0.333260
742.313000	-0.913216
742.513000	-0.521505
742.712000	-0.374748
742.912000	-0.753634
743.112000	-0.588952
743.312000	-0.888398
743.512000	-0.521056
743.712000	-0.338992
743.912000	-1.014324
744.112000	-1.064080
744.311000	-1.088498
744.511000	-0.686590
744.711000	-0.271056
744.911000	-0.630479
745.111000	-0.727331
745.311000	-0.191575
745.511000	-0.499653
745.711000	-0.755322
745.911000	-0.500774
746.110000	-0.868900
746.310000	-0.971247
746.510000	-0.734451
746.710000	-0.197108
746.910000	-0.084011
747.110000	-0.714453
747.310000	-1.025093
747.510000	-0.775472
747.709000	-0.408190
747.909000	-0.332922
748.109000	-0.059663
748.309000	-0.360306
748.509000	-0.703491
748.709000	-0.876436
748.909000	-0.641622
749.109000	-0.637969
749.308000	-0.024873
749.508000	-0.329720
749.708000	-0.475773
749.908000	-0.119051
750.108000	-0.093376
750.308000	-0.932779
750.508000	-0.169227
750.708000	-0.657159
750.908000	-1.101570
751.107000	-0.354497
751.307000	0.198244
751.507000	-0.368784
751.707000	-0.341937
751.907000	-0.455163
752.107000	-0.327354
752.307000	-0.784365
752.507000	-0.572881
752.706000	-0.672520
752.906000	0.251603
753.106000	-0.528757
753.306000	-1.108854
753.506000	-0.133884
753.706000	-0.529508
753.906000	-0.296395
754.106000	-0.086972
754.305000	-0.188740
754.505000	-0.219811
754.705000	-0.388393
754.905000	-0.327390
755.105000	-0.139441
755.305000	-1.035088
755.505000	-0.838507
755.705000	-0.336580
755.905000	-0.389423
756.104000	-0.884307
756.304000	-1.372156
756.504000	-1.625172
756.704000	-0.557811
756.904000	-0.327095
757.104000	-0.584594
757.304000	-0.497921
757.504000	0.001053
757.703000	-0.458753
757.903000	-0.041166
758.103000	0.194968
758.303000	-0.278248
758.503000	-0.491675
758.703000	-0.713119
758.903000	-0.876955
759.103000	-0.419551
759.303000	-0.410819
759.502000	-0.505534
759.702000	-0.185687
759.902000	-0.590950
760.102000	-0.599603
760.302000	-0.670607
760.502000	-0.259550
760.702000	-0.151169
760.902000	-0.460280
761.101000	-0.895155
761.301000	-1.090156
761.501000	-0.725423
761.701000	-0.847601
761.901000	-0.524741
762.101000	-0.260536
762.301000	-0.511130
762.501000	-0.813980
762.700000	-0.862191
762.900000	-0.895857
763.100000	-0.581468
763.300000	-0.196353
763.500000	-0.558314
763.703000	-0.786909
763.905000	-1.036161
764.108000	-0.234780
764.311000	-0.530667
764.513000	-0.553805
764.716000	-0.356518
764.919000	-0.383383
765.121000	-0.922815
765.324000	-1.095804
765.527000	-0.934330
765.729000	-0.698540
765.932000	0.069702
766.135000	-0.059781
766.337000	-0.398873
766.540000	-0.598936
766.743000	-0.376203
766.945000	-0.928846
767.148000	-1.258341
767.351000	-1.042502
767.553000	-0.199849
767.756000	-0.594767
767.958000	-1.059017
768.161000	-0.599094
768.364000	-0.900591
768.566000	-1.229775
768.769000	-0.710154
768.972000	-0.295824
769.174000	-0.782774
769.377000	-1.331419
769.580000	-1.271228
769.782000	-0.624631
769.985000	-1.096496
770.188000	-1.997543
770.390000	-1.076699
770.593000	0.565287
770.796000	0.275499
770.998000	-0.420452
771.201000	-0.918640
771.404000	-0.489277
771.606000	-0.835513
771.809000	-0.651143
772.012000	-0.512054
772.214000	-1.399325
772.417000	-1.459677
772.620000	-0.326882
772.822000	-0.736647
773.025000	-1.063433
773.228000	-1.081580
773.430000	-0.921503
773.633000	-0.558329
773.836000	-0.429165
774.038000	-0.194404
774.241000	-0.508085
774.444000	-0.816169
774.646000	0.095150
774.849000	-0.363040
775.052000	-0.506205
775.254000	-0.343197
775.457000	-0.777123
775.659000	-0.729708
775.862000	-0.894176
776.065000	-0.537718
776.267000	-0.007006
776.470000	0.262038
776.673000	-0.533138
776.875000	-0.040300
777.078000	-0.090012
777.281000	-0.968915
777.483000	-0.291141
777.686000	-0.128476
777.889000	-0.350651
778.091000	-0.074407
778.294000	-1.102766
778.497000	-1.083167
778.699000	-0.873704
778.902000	-0.720514
779.105000	-0.551714
779.307000	0.216858
779.510000	-0.723205
779.713000	-0.453815
779.915000	-0.724149
780.118000	0.338723
780.321000	0.501652
780.523000	-0.474526
780.726000	-1.015059
780.929000	-1.151872
781.131000	-1.063491
781.334000	-1.446669
781.537000	-1.394537
781.739000	-0.362037
781.942000	-0.912102
782.145000	-1.504243
782.347000	-1.409404
782.550000	-1.079189
782.753000	-1.161417
782.955000	-1.046231
783.158000	-0.844114
783.361000	-0.609069
783.563000	-0.683833
783.766000	-0.791287
783.968000	0.931863
784.171000	0.825379
784.374000	-0.468333
784.576000	-0.605507
784.779000	-0.193263
784.982000	0.103638
785.184000	-0.566615
785.387000	-0.168856
785.590000	0.422137
785.792000	0.365322
785.995000	0.010351
786.198000	-0.169941
786.400000	-0.460370
786.603000	-0.520536
786.806000	-0.681801
787.008000	-0.473639
787.211000	-0.257424
787.414000	-1.037318
787.616000	-0.853752
787.819000	-0.791593
788.022000	-1.348029
788.224000	-0.675001
788.427000	-1.342940
788.630000	-0.802493
788.832000	-0.510879
789.035000	-1.039944
789.238000	-1.757416
789.440000	-1.371956
789.643000	-0.165855
789.846000	-0.781318
790.048000	-0.316180
790.251000	-0.213485
790.454000	-0.534741
790.656000	0.249406
790.859000	-0.528577
791.062000	-1.088615
791.264000	-0.378847
791.467000	-1.280894
791.669000	-1.778497
791.872000	-0.771986
792.075000	-1.154983
792.277000	-0.918163
792.480000	-0.646732
792.683000	-1.125006
792.885000	-1.378241
793.088000	-1.192298
793.291000	-1.420263
793.493000	-1.408466
793.696000	-0.507093
793.899000	-0.292009
794.101000	-0.688079
794.304000	-0.776624
794.507000	-0.472861
794.709000	-0.372252
794.912000	-0.890276
795.115000	-1.223982
795.317000	-0.813649
795.520000	-0.439732
795.723000	-0.810657
795.925000	-1.368843
796.128000	-1.554156
796.331000	-1.011028
796.533000	-1.399597
796.736000	-0.819497
796.939000	-0.552128
797.141000	-0.738612
797.344000	-0.028532
797.547000	-0.078621
797.749000	-0.294375
797.952000	-0.855348
798.155000	-1.220622
798.357000	-1.587206
798.560000	-1.397727
798.763000	-0.516936
798.965000	-0.668791
799.168000	-0.680928
799.371000	-0.442075
799.573000	-0.740272
799.776000	-1.458681
799.978000	-1.551149
800.181000	-0.683565
800.384000	0.961153
800.586000	0.275630
800.789000	-1.461294
800.992000	-1.444808
801.194000	-1.520476
801.397000	-1.488074
801.600000	-1.326506
801.802000	-0.008867
802.005000	-0.280984
802.208000	-1.625130
802.410000	-0.674766
802.613000	-0.630349
802.816000	-0.868334
803.018000	-1.425703
803.221000	-1.221815
803.424000	0.224492
803.626000	-0.125974
803.829000	-0.510303
804.032000	0.322389
804.234000	0.904868
804.437000	-0.529802
804.640000	-0.684893
804.842000	-0.702587
805.045000	-1.257118
805.248000	-0.983437
805.450000	-0.804042
805.653000	-0.722076
805.856000	-0.993062
806.058000	-0.031077
806.261000	-1.069505
806.464000	-1.103398
806.666000	-0.513397
806.869000	-0.786886
807.072000	-2.176246
807.274000	-2.315608
807.477000	-1.138005
807.679000	-0.895326
807.882000	-1.491200
808.085000	-1.166028
808.287000	-0.518437
808.490000	-1.326314
808.693000	-1.136601
808.895000	-0.930175
809.098000	-0.801450
809.301000	-0.736509
809.503000	-0.937788
809.706000	-0.083649
809.909000	0.149634
810.111000	-0.003988
810.314000	-0.472257
810.517000	-1.074066
810.719000	-1.320526
810.922000	-0.952483
811.125000	0.047608
811.327000	0.140179
811.530000	-0.397879
811.735000	-0.929297
811.940000	-1.140023
812.146000	-1.150640
812.351000	-0.452259
812.556000	-0.617211
812.761000	-1.322107
812.967000	-0.304155
813.172000	-0.321466
813.377000	-0.729222
813.582000	0.066897
813.788000	-0.308182
813.993000	-1.347963
814.198000	-0.658869
814.403000	-1.437762
814.609000	-0.638703
814.814000	-0.617531
815.019000	0.421938
815.224000	0.139774
815.429000	-1.067045
815.635000	-0.628184
815.840000	-0.719830
816.045000	-0.613455
816.250000	-0.169018
816.456000	-1.428414
816.661000	-2.380558
816.866000	-1.807342
817.071000	-1.683208
817.277000	-2.430612
817.482000	-1.362180
817.687000	-0.692120
817.892000	-0.851821
818.097000	-0.304406
818.303000	0.176891
818.508000	0.719284
818.713000	7.732775
818.918000	3.935877
819.124000	0.190297
819.329000	-0.925253
819.534000	-1.098810
819.739000	-1.288694
819.945000	-1.301129
820.150000	-0.963334
820.355000	-0.824301
820.560000	-0.419664
820.766000	-0.439951
820.971000	-0.584188
821.176000	-1.941479
821.381000	-2.515289
821.586000	-1.707851
821.792000	-0.037045
821.997000	-0.511960
822.202000	-0.864090
822.407000	-1.428407
822.613000	-1.509947
822.818000	-0.765804
823.023000	-0.536782
823.228000	-0.778302
823.434000	-0.202845
823.639000	0.088066
823.844000	-0.807963
824.049000	0.075076
824.255000	0.228623
824.460000	-0.701122
824.665000	-1.077624
824.870000	-0.071995
825.075000	-0.294409
825.281000	-0.160149
825.486000	0.729363
825.691000	-1.584150
825.896000	-2.808212
826.102000	-1.062692
826.307000	-0.825814
826.512000	-1.089866
826.717000	-0.886568
826.923000	-1.110166
827.128000	-0.835661
827.333000	-1.760866
827.538000	-0.662361
827.744000	0.121296
827.949000	-0.942632
828.154000	-0.770792
828.359000	-0.075144
828.564000	-0.626052
828.770000	-0.841258
828.975000	0.172611
829.180000	-0.333407
829.385000	-1.881928
829.591000	-1.424011
829.796000	-0.883740
830.001000	-0.957591
830.206000	-1.387714
830.412000	-1.263361
830.617000	-1.244666
830.822000	-0.092523
831.027000	-0.790142
831.232000	-1.423864
831.438000	-1.360273
831.643000	-0.748933
831.848000	-0.942706
832.053000	-0.723994
832.259000	-0.940057
832.464000	-2.601901
832.669000	-2.290212
832.874000	-1.809361
833.080000	-1.705039
833.285000	-0.005250
833.490000	-0.177882
833.695000	-1.697610
833.901000	-1.417156
834.106000	-1.708199
834.311000	-1.380926
834.516000	-0.610009
834.721000	-1.275391
834.927000	-0.159986
835.132000	-0.663656
835.337000	0.894207
835.542000	-0.294120
835.748000	-1.866417
835.953000	-0.114857
836.158000	-0.303120
836.363000	-0.618897
836.569000	-0.481045
836.774000	-1.529824
836.979000	-1.849626
837.184000	-2.005505
837.390000	-1.665923
837.595000	-1.214171
837.800000	-0.920139
838.005000	-0.715922
838.210000	-1.111897
838.416000	-1.529614
838.621000	-1.257382
838.826000	-1.321596
839.031000	-1.181419
839.237000	-1.790719
839.442000	-2.436207
839.647000	-2.605325
839.852000	-1.906032
840.058000	-1.672457
840.263000	-1.580682
840.468000	-2.224523
840.673000	-1.332179
840.878000	-1.124695
841.084000	-1.887343
841.289000	-1.193188
841.494000	1.554243
841.699000	1.423269
841.905000	0.650814
842.110000	0.585724
842.315000	-1.664660
842.520000	-0.804450
842.726000	-1.262486
842.931000	-1.923579
843.136000	-0.889497
843.341000	-2.440582
843.547000	-1.547385
843.752000	-1.339929
843.957000	-2.264981
844.162000	-1.993141
844.367000	-1.431074
844.573000	-0.717284
844.778000	-0.644471
844.983000	-0.566073
845.188000	-0.551112
845.394000	-2.295561
845.599000	-1.624616
845.804000	-1.431688
846.009000	-0.923813
846.215000	-2.077944
846.420000	-1.708384
846.625000	-0.593961
846.830000	0.231424
847.036000	-1.081843
847.241000	-1.686415
847.446000	0.021228
847.651000	-0.701606
847.856000	-2.204310
848.062000	-2.004491
848.267000	-0.306814
848.472000	-1.503615
848.677000	-2.791863
848.883000	-0.628426
849.088000	0.964082
849.293000	-0.818831
849.498000	-1.399876
849.704000	-0.389465
849.909000	-1.052459
850.114000	-2.011920
850.319000	-1.064462
850.524000	-0.905949
850.730000	-0.930536
850.935000	-1.363824
851.140000	-0.016640
851.345000	0.042084
851.551000	-0.173749
851.756000	-0.322721
851.961000	-1.728725
852.166000	-1.650419
852.372000	-1.168314
852.577000	-1.156853
852.782000	-1.306671
852.987000	0.033151
853.193000	-0.591819
853.398000	-0.581911
853.603000	-1.917419
853.808000	-2.525202
854.013000	-1.075738
854.219000	0.033646
854.424000	1.650957
854.629000	1.398154
854.834000	-1.153458
855.040000	-0.765931
855.245000	-0.369774
855.450000	-3.105010
855.655000	-3.980973
855.861000	-3.442439
856.066000	-2.354648
856.271000	-2.411153
856.476000	-0.504626
856.682000	-1.462360
856.887000	-4.294090
857.092000	-2.644370
857.297000	-0.018148
857.502000	-0.670675
857.708000	-1.004222
857.913000	0.228677
858.118000	-0.614343
858.323000	-0.876952
858.529000	-1.005796
858.734000	-1.661305
858.939000	-1.360677
859.144000	-1.901759
859.350000	-3.007985
859.555000	-2.819673
859.760000	-0.769781
859.965000	0.124763
860.171000	-1.759782
860.376000	-0.776111
860.581000	-2.385923
860.786000	-4.503747
860.991000	-3.904053
861.197000	-2.832567
861.402000	-1.317078
861.607000	-1.995512
861.812000	-3.183649
862.018000	-3.082008
862.223000	-1.741814
862.428000	-0.925953
862.633000	-0.180224
862.839000	-1.024592
863.044000	-1.743671
863.249000	-2.424294
863.454000	-0.519758
863.659000	-1.594332
863.865000	-2.317239
864.070000	-2.217552
864.275000	-2.915774
864.480000	-2.479755
864.686000	-4.103092
864.891000	-3.156204
865.096000	-1.070422
865.301000	-0.474640
865.507000	-0.441354
865.712000	-0.621703
865.917000	-1.581798
866.122000	-0.663807
866.328000	-3.584383
866.533000	-3.374555
866.738000	0.052508
866.943000	0.174989
867.148000	0.889709
867.354000	-1.695406
867.559000	-3.147396
867.764000	-1.479786
867.969000	-0.622733
868.175000	-2.181573
868.380000	-2.627822
868.585000	-3.559772
868.790000	-1.230138
868.996000	-1.466404
869.201000	-3.058670
869.406000	-4.220461
869.611000	-3.140111
869.817000	-2.766405
870.022000	1.926003
870.227000	-0.201680
870.432000	-2.487583
870.637000	-1.017108
870.843000	-1.750959
871.048000	-1.647763
871.253000	0.029929
871.458000	-1.160090
871.664000	-3.286539
871.869000	-3.504553
872.074000	-2.466022
872.279000	-1.323338
872.485000	-2.347130
872.690000	-2.612223
872.895000	-2.407466
873.100000	-3.044250
873.306000	-3.206192
873.511000	-1.878195
873.716000	-0.269292
873.921000	-1.972836
874.126000	-2.522204
874.332000	-1.802382
874.537000	-0.758057
874.742000	-0.852306
874.947000	-1.577281
875.153000	0.256245
875.358000	-0.865977
875.563000	-1.832710
875.768000	-4.375001
875.974000	-4.477813
876.179000	-1.143240
876.384000	-0.735970
876.589000	-2.753651
876.794000	-2.210318
877.000000	-3.046911
877.205000	-4.106751
877.410000	-1.223502
877.615000	-3.225909
877.821000	-4.883961
878.026000	-3.430789
878.231000	-4.026661
878.436000	-4.310382
878.642000	-3.459521
878.847000	-1.451908
879.052000	-0.260001
879.257000	-2.573723
879.463000	-3.512040
879.668000	-2.711637
879.873000	-0.338255
880.078000	-2.818724
880.283000	-4.464237
880.489000	-4.884013
880.694000	-4.227507
880.899000	-2.195707
881.104000	-0.894342
881.310000	1.025344
881.515000	-0.436754
881.720000	0.660521
881.925000	2.259663
882.131000	3.701908
882.336000	0.499343
882.541000	-3.438754
882.746000	-3.377427
882.952000	-3.748855
883.157000	-3.522916
883.362000	-3.387007
883.567000	-3.937301
883.772000	-4.371721
883.978000	-3.340930
884.183000	-1.560089
884.388000	-2.018436
884.593000	-4.409841
884.799000	-0.027215
885.004000	0.069809
885.209000	-1.391909
885.414000	-1.257651
885.620000	-4.396935
885.825000	-0.783244
886.030000	-1.256968
886.235000	-2.979519
886.440000	-1.973514
886.646000	-4.966023
886.851000	-4.840112
887.056000	-0.348151
887.261000	-1.122720
887.467000	-4.220152
887.672000	-1.169003
887.877000	-2.799736
888.082000	-5.786016
888.288000	-6.107339
888.493000	-7.963048
888.698000	-5.882207
888.903000	-2.234278
889.109000	-3.650251
889.314000	-0.809509
889.519000	-2.118826
889.724000	0.351051
889.929000	-1.535697
890.135000	-2.459905
890.340000	-2.565711
890.545000	-3.980546
890.750000	-5.303345
890.956000	-3.633468
891.161000	-0.802175
891.366000	-3.480050
891.571000	-2.376646
891.777000	-2.043315
891.982000	-0.136650
892.187000	-0.422400
892.392000	0.112016
892.598000	-0.209218
892.803000	-0.517747
893.008000	-3.292636
893.213000	-3.733302
893.418000	-3.325187
893.624000	-3.778478
893.829000	-6.018697
894.034000	-3.295727
894.239000	-1.387459
894.445000	-3.669988
894.650000	-4.019292
894.855000	-4.171513
895.060000	-4.146181
895.266000	-3.784432
895.471000	-4.989075
895.676000	-1.627992
895.881000	-0.930533
896.087000	-2.260301
896.292000	-3.537849
896.497000	0.554971
896.702000	-1.729926
896.907000	-3.773165
897.113000	0.859068
897.318000	0.593272
897.523000	-0.013303
897.728000	-2.245422
897.934000	-2.599490
898.139000	-2.663863
898.344000	-0.109711
898.549000	-1.523417
898.755000	-3.464042
898.960000	-3.895025
899.165000	-5.887117
899.370000	-2.247610
899.575000	1.302501
899.781000	-3.146305
899.986000	-3.619326
900.191000	-2.175156
900.396000	-3.070987
900.602000	-2.230696
900.807000	-2.668804
901.012000	-1.613331
901.217000	-0.663574
901.423000	-3.492552
901.628000	-4.904318
901.833000	-0.299762
902.038000	-0.302092
902.244000	-3.887730
902.449000	-3.044802
902.654000	-3.451871
902.859000	-2.321492
903.064000	-0.244330
903.270000	-0.308083
903.475000	-4.398263
903.680000	-6.384279
903.885000	-5.907178
904.091000	-4.897385
904.296000	-6.046429
904.501000	-5.171734
904.706000	-4.329728
904.912000	-0.036886
905.117000	-2.368447
905.322000	-5.243218
905.527000	-4.213165
905.733000	-3.428317
905.938000	-3.493803
906.143000	-4.293296
906.348000	-6.771771
906.553000	-1.789864
906.759000	-0.442136
906.964000	-1.910398
907.169000	-3.395485
907.374000	-5.922598
907.580000	-4.179500
907.785000	-4.251523
907.990000	20.736289
908.195000	14.103931
908.401000	-0.858532
908.606000	-8.696008
908.811000	-10.097272
909.016000	-3.043710
909.221000	-2.488348
909.427000	-3.402191
909.632000	-4.865074
909.837000	-4.706578
910.042000	-6.095031
910.248000	-8.306837
910.453000	-3.621752
910.658000	-3.845695
910.863000	-4.160397
911.069000	-5.922550
911.274000	-1.504523
911.479000	0.157114
911.684000	-6.944275
911.890000	-4.384512
912.095000	-4.465303
912.300000	-6.977282
912.506000	-5.765554
912.711000	-5.914309
912.917000	-3.481960
913.123000	-2.483466
913.328000	-2.472970
913.534000	-2.078408
913.740000	6.940735
913.946000	2.673529
914.151000	-4.460010
914.357000	-5.759312
914.563000	-1.629830
914.768000	-5.050349
914.974000	-7.040929
915.180000	-6.403093
915.385000	-5.146818
915.591000	-8.549632
915.797000	-3.332220
916.002000	0.647511
916.208000	-2.813542
916.414000	-5.697273
916.620000	-7.138924
916.825000	-3.168736
917.031000	-3.959013
917.237000	-9.511374
917.442000	-5.673648
917.648000	-6.984405
917.854000	-8.072633
918.059000	-0.917928
918.265000	-0.078085
918.471000	-4.322248
918.676000	-7.541171
918.882000	-9.365215
919.088000	-7.841841
919.294000	-12.290758
919.499000	-7.385758
919.705000	-1.260329
919.911000	-3.285176
920.116000	-1.547613
920.322000	-8.114283
920.528000	-6.585946
920.733000	-9.209036
920.939000	-10.031457
921.145000	-8.130341
921.350000	-7.156519
921.556000	-5.073464
921.762000	-5.953609
921.968000	-6.610191
922.173000	-8.264179
922.379000	-10.125257
922.585000	-4.668063
922.790000	-5.987151
922.996000	-7.718090
923.202000	-8.646987
923.407000	-8.667480
923.613000	-5.749043
923.819000	-3.438700
924.024000	-4.123152
924.230000	-2.086419
924.436000	-4.209445
924.642000	5.832847
924.847000	1.333231
925.053000	-6.214076
925.259000	-11.062677
925.464000	-4.440635
925.670000	-5.417599
925.876000	-7.178675
926.081000	-8.463348
926.287000	-4.485229
926.493000	-1.804676
926.698000	-4.171864
926.904000	-2.338834
927.110000	-5.371212
927.316000	-5.686021
927.521000	1.855632
927.727000	-3.995489
927.933000	-7.247145
928.138000	-5.767939
928.344000	-11.948734
928.550000	-7.182900
928.755000	-1.575393
928.961000	-7.135080
929.167000	-7.683837
929.372000	0.089747
929.578000	-1.051436
929.784000	-6.572965
929.990000	-10.229591
930.195000	-7.180063
930.401000	-6.066160
930.607000	-4.829925
930.812000	-4.510430
931.018000	-7.761308
931.224000	-13.877229
931.429000	-9.275130
931.635000	-12.081039
931.841000	-12.409061
932.046000	-8.027289
932.252000	-2.611356
932.458000	4.625058
932.664000	-1.196271
932.869000	-7.552605
933.075000	-10.128563
933.281000	-9.919549
933.486000	-3.028105
933.692000	-5.512900
933.898000	-9.442645
934.103000	-2.025399
934.309000	-6.555454
934.515000	-4.453122
934.720000	-1.826061
934.926000	0.299759
935.132000	0.014286
935.338000	-3.980764
935.543000	-11.361707
935.749000	-12.453946
935.955000	-14.095577
936.160000	-11.454184
936.366000	-3.261313
936.572000	-5.175987
936.777000	-2.711774
936.983000	0.120923
937.189000	-4.329082
937.394000	-9.059810
937.600000	-0.954968
937.806000	4.146598
938.012000	-6.166300
938.217000	3.965371
938.423000	0.800972
938.629000	-8.218152
938.834000	-15.103976
939.040000	-14.162766
939.246000	-8.146597
939.451000	-11.742296
939.657000	-7.390181
939.863000	-11.906804
940.068000	-2.691025
940.274000	-6.043171
940.480000	-3.728189
940.686000	-2.733079
940.891000	-7.051199
941.097000	17.357545
941.303000	4.068827
941.508000	-7.746080
941.714000	-4.460462
941.920000	-16.188995
942.125000	-6.040652
942.331000	-4.170238
942.537000	2.112979
942.742000	0.548480
942.948000	-10.951360
943.154000	-12.654291
943.360000	-24.695626
943.565000	-10.900006
943.771000	1.721668
943.977000	4.616063
944.182000	-14.553141
944.388000	-17.597853
944.594000	-2.520130
944.799000	7.512227
945.005000	-1.139000
945.211000	3.919660
945.416000	0.090300
945.622000	-14.533372
945.828000	-10.748396
946.034000	-0.837016
946.239000	-1.129445
946.445000	-8.124109
946.651000	-19.435849
946.856000	-17.153117
947.062000	-2.673964
947.268000	-2.192739
947.473000	-17.333496
947.679000	-19.747882
947.885000	-7.143468
948.090000	-1.434556
948.296000	12.981286
948.502000	-0.561988
948.708000	-12.714645
948.913000	-14.281111
949.119000	-1.988345
949.325000	-6.684185
949.530000	-20.706965
949.736000	-25.837316
949.942000	-16.631904
950.147000	-15.634598
950.353000	-12.840601
950.559000	-9.298296
950.764000	12.341695
950.970000	4.758354
951.176000	-10.395181
951.382000	-16.858136
951.587000	-4.510979
951.793000	0.102306
951.999000	-0.442193
952.204000	-14.155350
952.410000	-26.994785
952.616000	-12.918558
952.821000	-7.187373
953.027000	-16.986087
953.233000	-19.584242
953.438000	-18.371561
953.644000	0.183081
953.850000	-5.472202
954.056000	-11.486840
954.261000	-10.991249
954.467000	-1.437000
954.673000	6.262584
954.878000	-6.154031
955.084000	-7.056985
955.290000	-21.305347
955.495000	-23.088832
955.701000	-18.694788
955.907000	-0.058269
956.112000	-2.222764
956.318000	5.305348
956.524000	4.281489
956.730000	-9.214778
956.935000	-13.494105
957.141000	-16.949375
957.347000	-3.830555
957.552000	-8.534832
957.758000	-24.902507
957.964000	-34.587735
958.169000	0.199994
958.375000	1.945075
958.581000	-13.646970
958.786000	-26.247223
958.992000	-32.795054
959.198000	-12.517956
959.404000	-3.812593
959.609000	-12.700829
959.815000	-17.007689
960.021000	2.664013
960.226000	-5.292641
960.432000	-29.674485
960.638000	-20.487616
960.843000	-13.546778
961.049000	-14.682600
961.255000	-3.828590
961.460000	-18.825992
961.666000	-37.500807
961.872000	-23.711664
962.078000	-19.674188
962.283000	-26.945289
962.489000	-28.958715
962.695000	-19.504058
962.900000	-13.507395
963.106000	-12.767588
963.312000	-18.218561
963.517000	-21.256328
963.723000	-26.486543
963.929000	-2.497588
964.134000	6.489092
964.340000	-17.113430
964.546000	-19.305679
964.752000	-26.155250
964.957000	-33.479578
965.163000	-5.440149
965.369000	-3.699246
965.574000	-4.168296
965.780000	-9.777261
966.000000	-16.258365
966.220000	-12.991158
966.440000	-13.932742
966.661000	-1.833077
966.881000	-23.308693
967.101000	-41.094942
967.321000	-40.221902
967.541000	-16.141285
967.761000	-21.970217
967.981000	-11.468116
968.202000	-10.699876
968.422000	-0.660563
968.642000	-1.120658
968.862000	-3.738900
969.082000	-13.271311
969.302000	-7.814733
969.522000	-14.795090
969.743000	-1.608631
969.963000	-16.885031
970.183000	-26.770951
970.403000	-25.842544
970.623000	-25.274080
970.843000	1.276983
971.063000	-0.843479
971.284000	-23.900217
971.504000	-37.632413
971.724000	-15.143553
971.944000	-25.517299
972.164000	-37.633894
972.384000	-27.928132
972.604000	-42.248692
972.825000	-49.386877
973.045000	-34.149848
973.265000	21.685132
973.485000	10.111106
973.705000	-9.811992
973.925000	-15.933904
974.145000	-51.427584
974.365000	-19.022661
974.586000	-18.418580
974.806000	-38.009926
975.026000	-6.566382
975.246000	-18.530346
975.466000	-30.604590
975.686000	-15.401726
975.906000	-29.731721
976.127000	-50.321086
976.347000	-39.503464
976.567000	-7.424818
976.787000	-11.493787
977.007000	-23.697662
977.227000	-30.643510
977.447000	-32.526808
977.668000	-48.743078
977.888000	-30.774065
978.108000	-32.992945
978.328000	-18.506563
978.548000	5.292012
978.768000	7.009472
978.988000	-5.361004
979.209000	-20.488063
979.429000	-23.653677
979.649000	-11.205792
979.869000	-34.189531
980.089000	-47.425817
980.309000	-51.311162
980.529000	-61.643040
980.750000	-37.964874
980.970000	-44.419825
981.190000	-31.624416
981.410000	-29.771952
981.630000	-39.126720
981.850000	-23.305787
982.070000	-17.279228
982.291000	-47.739168
982.511000	-47.426148
982.731000	-10.017180
982.951000	-30.326375
983.171000	-32.903450
983.391000	-27.683612
983.611000	-1.513650
983.832000	-29.465144
984.052000	-53.898031
984.272000	-30.329917
984.492000	-21.143198
984.712000	-33.150521
984.932000	-56.187556
985.152000	-63.502832
985.373000	-46.139168
985.593000	-23.507902
985.813000	-33.635480
986.033000	-43.153103
986.253000	2.306481
986.473000	6.026062
986.693000	-32.602420
986.914000	-43.759867
987.134000	5.346317
987.354000	-35.178674
987.574000	168.436083
987.794000	101.947386
988.014000	-46.884460
988.234000	-31.830452
988.455000	-16.533305
988.675000	-18.110773
988.895000	-26.218865
989.115000	-44.027117
989.335000	-27.077926
989.555000	-8.536870
989.775000	-44.891253
989.995000	-47.328594
990.216000	-33.329857
990.436000	-24.053202
990.656000	5.845363
990.876000	-30.982828
991.096000	-21.279690
991.316000	9.306291
991.536000	-21.325981
991.757000	-38.176390
991.977000	-81.800828
992.197000	-16.436750
992.417000	-32.320871
992.637000	-88.761678
992.857000	-92.404063
993.077000	-86.177190
993.298000	-47.733220
993.518000	-48.194739
993.738000	-100.648107
993.958000	-51.056796
994.178000	-55.032755
994.398000	-46.847819
994.618000	-84.973397
994.839000	-130.638494
995.059000	-35.210341
995.279000	30.742623
995.499000	-10.642112
995.719000	-14.261315
995.939000	-41.067886
996.159000	-40.641526
996.380000	-29.342557
996.600000	-83.221800
996.820000	-41.795109
997.040000	0.837896
997.260000	-69.456245
997.480000	-50.702357
997.700000	-110.316730
997.921000	-74.349762
998.141000	22.902979
998.361000	-15.853267
998.581000	-67.307506
998.801000	-92.300969
999.021000	-57.421999
999.241000	-35.488393
999.462000	-63.458157
999.682000	-110.658590
999.902000	-65.440213
1000.122000	-79.670505
1000.342000	-129.381439
1000.562000	-63.307344
1000.782000	-82.407261
1001.003000	-1076.988926
