Wavelength	Irradiance
(nm)	(mW/cm2/nm)

294.396000	0.000000
294.577000	0.000000
294.757000	0.000000
294.938000	0.000000
295.118000	0.000000
295.299000	0.000000
295.479000	-0.000000
295.660000	-0.000000
295.840000	-0.000000
296.021000	-0.000000
296.202000	-0.000000
296.382000	-0.000000
296.563000	-0.000000
296.743000	-0.000000
296.924000	0.000000
297.104000	0.000000
297.285000	-0.000000
297.465000	-0.000000
297.646000	-0.000000
297.826000	0.000000
298.007000	0.000000
298.187000	-0.000000
298.368000	-0.000000
298.548000	0.000000
298.729000	0.000000
298.909000	-0.000000
299.090000	-0.000000
299.270000	-0.000000
299.451000	-0.000000
299.631000	-0.000000
299.812000	-0.000000
299.992000	0.000000
300.173000	0.000000
300.353000	-0.000000
300.534000	0.000000
300.714000	0.000000
300.895000	0.000000
301.075000	-0.000000
301.256000	0.000000
301.436000	0.000000
301.617000	-0.000000
301.797000	-0.000000
301.978000	0.000000
302.159000	0.000000
302.339000	0.000000
302.520000	-0.000000
302.700000	-0.000000
302.881000	0.000000
303.061000	0.000000
303.242000	0.000000
303.422000	0.000000
303.603000	-0.000000
303.783000	-0.000000
303.964000	0.000000
304.144000	-0.000000
304.325000	-0.000000
304.505000	-0.000000
304.686000	-0.000000
304.866000	0.000000
305.047000	-0.000000
305.227000	-0.000000
305.408000	-0.000000
305.588000	-0.000000
305.769000	-0.000000
305.949000	-0.000000
306.130000	-0.000000
306.310000	-0.000000
306.491000	-0.000000
306.671000	0.000000
306.852000	-0.000000
307.032000	-0.000000
307.213000	-0.000000
307.393000	-0.000000
307.574000	0.000000
307.755000	0.000000
307.935000	0.000000
308.116000	-0.000000
308.296000	-0.000000
308.477000	0.000000
308.657000	0.000000
308.838000	0.000000
309.018000	0.000000
309.199000	-0.000000
309.379000	-0.000000
309.560000	0.000000
309.740000	-0.000000
309.921000	0.000000
310.101000	0.000000
310.282000	-0.000000
310.462000	-0.000000
310.643000	-0.000000
310.823000	-0.000000
311.004000	-0.000000
311.184000	-0.000000
311.365000	0.000000
311.545000	0.000000
311.726000	0.000000
311.906000	0.000000
312.087000	0.000000
312.267000	-0.000000
312.448000	-0.000000
312.628000	-0.000000
312.809000	-0.000000
312.989000	-0.000000
313.170000	-0.000000
313.344000	-0.000000
313.518000	-0.000000
313.691000	-0.000000
313.865000	-0.000000
314.039000	-0.000000
314.213000	-0.000000
314.387000	-0.000000
314.560000	-0.000000
314.734000	-0.000000
314.908000	-0.000000
315.082000	-0.000000
315.255000	0.000000
315.429000	0.000000
315.603000	0.000000
315.777000	-0.000000
315.951000	0.000000
316.124000	-0.000000
316.298000	-0.000000
316.472000	-0.000000
316.646000	-0.000000
316.820000	-0.000000
316.993000	0.000000
317.167000	-0.000000
317.341000	-0.000000
317.515000	-0.000000
317.688000	-0.000000
317.862000	-0.000000
318.036000	-0.000000
318.210000	-0.000000
318.384000	-0.000000
318.557000	-0.000000
318.731000	-0.000000
318.905000	-0.000000
319.079000	0.000000
319.253000	0.000000
319.426000	0.000000
319.600000	0.000000
319.774000	-0.000000
319.948000	-0.000000
320.122000	0.000000
320.295000	-0.000000
320.469000	-0.000000
320.643000	-0.000000
320.817000	-0.000000
320.990000	-0.000000
321.164000	-0.000000
321.338000	-0.000000
321.512000	-0.000000
321.686000	-0.000000
321.859000	-0.000000
322.033000	0.000000
322.207000	0.000000
322.381000	-0.000000
322.555000	0.000000
322.728000	0.000000
322.902000	-0.000000
323.076000	-0.000000
323.250000	-0.000000
323.423000	-0.000000
323.597000	-0.000000
323.771000	-0.000000
323.945000	-0.000000
324.119000	-0.000000
324.292000	0.000000
324.466000	-0.000000
324.640000	0.000000
324.814000	0.000000
324.988000	-0.000000
325.161000	-0.000000
325.335000	-0.000000
325.509000	-0.000000
325.683000	-0.000000
325.856000	-0.000000
326.030000	-0.000000
326.204000	-0.000000
326.378000	-0.000000
326.552000	-0.000000
326.725000	-0.000000
326.899000	-0.000000
327.073000	-0.000000
327.247000	-0.000000
327.421000	0.000000
327.594000	0.000000
327.768000	-0.000000
327.942000	-0.000000
328.116000	0.000000
328.289000	0.000000
328.463000	0.000000
328.637000	0.000000
328.811000	-0.000000
328.985000	-0.000000
329.158000	-0.000000
329.332000	-0.000000
329.506000	0.000000
329.680000	-0.000000
329.854000	-0.000000
330.027000	-0.000000
330.201000	0.000000
330.375000	0.000000
330.549000	0.000000
330.723000	-0.000000
330.896000	-0.000000
331.070000	-0.000000
331.244000	-0.000000
331.418000	-0.000000
331.591000	0.000000
331.765000	-0.000000
331.939000	-0.000000
332.113000	-0.000000
332.287000	-0.000000
332.460000	0.000000
332.634000	0.000000
332.808000	-0.000000
332.982000	-0.000000
333.156000	-0.000000
333.329000	-0.000000
333.503000	-0.000000
333.677000	-0.000000
333.851000	-0.000000
334.024000	-0.000000
334.198000	-0.000000
334.372000	-0.000000
334.546000	-0.000000
334.720000	-0.000000
334.893000	-0.000000
335.067000	-0.000000
335.241000	0.000000
335.415000	-0.000000
335.589000	-0.000000
335.762000	-0.000000
335.936000	-0.000000
336.110000	-0.000000
336.284000	-0.000000
336.458000	0.000000
336.631000	-0.000000
336.805000	-0.000000
336.979000	-0.000000
337.153000	-0.000000
337.326000	-0.000000
337.500000	-0.000000
337.674000	-0.000000
337.848000	-0.000000
338.022000	0.000000
338.195000	-0.000000
338.369000	-0.000000
338.543000	-0.000000
338.717000	-0.000000
338.891000	0.000000
339.064000	0.000000
339.238000	-0.000000
339.412000	-0.000000
339.586000	-0.000000
339.759000	-0.000000
339.933000	-0.000000
340.107000	0.000000
340.281000	0.000000
340.455000	-0.000000
340.628000	-0.000000
340.802000	-0.000000
340.976000	-0.000000
341.150000	-0.000000
341.324000	-0.000000
341.497000	-0.000000
341.671000	-0.000000
341.845000	-0.000000
342.019000	-0.000000
342.192000	-0.000000
342.366000	-0.000000
342.540000	-0.000000
342.714000	-0.000000
342.888000	-0.000000
343.061000	-0.000000
343.235000	-0.000000
343.409000	-0.000000
343.583000	-0.000000
343.757000	-0.000000
343.930000	-0.000000
344.104000	-0.000000
344.278000	0.000000
344.452000	0.000000
344.626000	-0.000000
344.799000	-0.000000
344.973000	-0.000000
345.147000	-0.000000
345.321000	-0.000000
345.494000	-0.000000
345.668000	0.000000
345.842000	0.000000
346.016000	-0.000000
346.190000	0.000000
346.363000	0.000000
346.537000	-0.000000
346.711000	-0.000000
346.885000	-0.000000
347.059000	-0.000000
347.232000	0.000000
347.406000	0.000000
347.580000	-0.000000
347.754000	-0.000000
347.927000	0.000000
348.101000	0.000000
348.275000	-0.000000
348.449000	-0.000000
348.623000	-0.000000
348.796000	-0.000000
348.970000	0.000000
349.144000	0.000000
349.318000	-0.000000
349.492000	-0.000000
349.665000	-0.000000
349.839000	-0.000000
350.013000	-0.000000
350.187000	-0.000000
350.361000	-0.000000
350.534000	0.000000
350.708000	-0.000000
350.882000	-0.000000
351.056000	0.000000
351.229000	0.000000
351.403000	-0.000000
351.577000	-0.000000
351.751000	-0.000000
351.925000	-0.000000
352.098000	-0.000000
352.272000	-0.000000
352.446000	-0.000000
352.620000	-0.000000
352.794000	-0.000000
352.967000	-0.000000
353.141000	0.000000
353.315000	0.000000
353.489000	-0.000000
353.662000	-0.000000
353.836000	-0.000000
354.010000	-0.000000
354.184000	-0.000000
354.358000	-0.000000
354.531000	-0.000000
354.705000	-0.000000
354.879000	-0.000000
355.053000	-0.000000
355.227000	0.000000
355.400000	-0.000000
355.574000	-0.000000
355.748000	0.000000
355.922000	-0.000000
356.095000	-0.000000
356.269000	-0.000000
356.443000	-0.000000
356.617000	-0.000000
356.791000	-0.000000
356.964000	-0.000000
357.138000	-0.000000
357.312000	-0.000000
357.486000	-0.000000
357.660000	0.000000
357.833000	0.000000
358.007000	-0.000000
358.181000	-0.000000
358.355000	-0.000000
358.529000	-0.000000
358.702000	-0.000000
358.876000	-0.000000
359.050000	-0.000000
359.224000	-0.000000
359.397000	0.000000
359.571000	-0.000000
359.745000	-0.000000
359.919000	-0.000000
360.093000	-0.013691
360.266000	0.088687
360.440000	0.117709
360.614000	0.134324
360.788000	0.048445
360.962000	-0.157531
361.135000	-0.077881
361.309000	-0.154624
361.483000	-0.270680
361.657000	-0.200660
361.830000	-0.169620
362.004000	-0.044145
362.178000	-0.314190
362.352000	-0.154939
362.526000	-0.009494
362.699000	-0.025643
362.873000	-0.317656
363.047000	-0.325062
363.221000	-0.313711
363.395000	-0.143332
363.568000	-0.157440
363.742000	-0.162404
363.916000	-0.151417
364.090000	-0.269735
364.263000	-0.248265
364.437000	-0.281747
364.611000	-0.015448
364.785000	-0.057151
364.959000	-0.204995
365.132000	-0.147268
365.306000	-0.205249
365.480000	-0.084234
365.656000	-0.164518
365.831000	-0.128471
366.007000	-0.168013
366.183000	-0.140510
366.358000	-0.249970
366.534000	-0.172342
366.710000	-0.327462
366.886000	-0.252363
367.061000	-0.059502
367.237000	0.102432
367.413000	-0.083540
367.588000	-0.282382
367.764000	-0.254250
367.940000	-0.264048
368.115000	-0.251872
368.291000	-0.288214
368.467000	-0.129505
368.643000	0.181421
368.818000	-0.196743
368.994000	-0.323707
369.170000	-0.198439
369.345000	-0.143035
369.521000	-0.231834
369.697000	-0.179017
369.872000	-0.236678
370.048000	-0.294470
370.224000	-0.246508
370.399000	-0.420741
370.575000	-0.294671
370.751000	-0.386803
370.927000	-0.370845
371.102000	-0.342228
371.278000	-0.311305
371.454000	-0.189010
371.629000	0.034359
371.805000	-0.048010
371.981000	0.154422
372.156000	0.336278
372.332000	0.071399
372.508000	-0.060811
372.683000	-0.029302
372.859000	-0.128267
373.035000	-0.170745
373.211000	0.117361
373.386000	-0.043965
373.562000	-0.343631
373.738000	-0.433795
373.913000	-0.555118
374.089000	-0.379033
374.265000	0.041765
374.440000	0.013730
374.616000	-0.006377
374.792000	-0.203823
374.968000	0.217005
375.143000	-0.016679
375.319000	-0.257512
375.495000	-0.333900
375.670000	-0.144731
375.846000	-0.063322
376.022000	-0.274520
376.197000	-0.195271
376.373000	-0.342291
376.549000	-0.378840
376.724000	-0.438891
376.900000	-0.292560
377.076000	-0.153871
377.252000	0.017508
377.427000	0.097806
377.603000	-0.201677
377.779000	-0.169727
377.954000	-0.338349
378.130000	-0.211696
378.306000	-0.162696
378.481000	-0.176717
378.657000	-0.237645
378.833000	-0.250712
379.009000	-0.089222
379.184000	0.050527
379.360000	-0.057720
379.536000	-0.080844
379.711000	-0.143195
379.887000	-0.227287
380.063000	-0.264149
380.238000	-0.316859
380.414000	-0.000449
380.590000	-0.244366
380.765000	-0.299027
380.941000	-0.131292
381.117000	-0.070450
381.293000	-0.113521
381.468000	-0.261348
381.644000	-0.189588
381.820000	-0.096213
381.995000	0.033285
382.171000	0.215340
382.347000	0.095466
382.522000	-0.270876
382.698000	0.105617
382.874000	0.125524
383.050000	-0.267527
383.225000	0.123913
383.401000	0.310913
383.577000	-0.067243
383.752000	-0.232476
383.928000	-0.130045
384.104000	-0.041331
384.279000	-0.173183
384.455000	-0.097617
384.631000	-0.154160
384.806000	-0.340657
384.982000	-0.166519
385.158000	-0.224910
385.334000	-0.026832
385.509000	-0.094302
385.685000	-0.408718
385.861000	-0.259569
386.036000	-0.366620
386.212000	-0.493666
386.388000	-0.319651
386.563000	-0.258826
386.739000	-0.313567
386.915000	-0.505689
387.090000	-0.238744
387.266000	-0.025966
387.442000	0.074943
387.618000	-0.041135
387.793000	-0.337678
387.969000	-0.486077
388.145000	-0.386288
388.320000	-0.307219
388.496000	-0.283869
388.672000	-0.480933
388.847000	-0.061734
389.023000	-0.050013
389.199000	-0.375841
389.375000	-0.214386
389.550000	-0.299425
389.726000	-0.130760
389.902000	-0.342686
390.077000	-0.209826
390.253000	-0.121691
390.429000	-0.156468
390.604000	-0.128105
390.780000	-0.113354
390.956000	-0.257922
391.131000	-0.281086
391.307000	0.009254
391.483000	-0.157476
391.659000	-0.290731
391.834000	-0.035890
392.010000	-0.211828
392.186000	-0.292616
392.361000	-0.235115
392.537000	-0.356530
392.713000	0.106470
392.888000	0.178703
393.064000	-0.086587
393.240000	-0.169129
393.416000	-0.273540
393.591000	-0.355175
393.767000	-0.407447
393.943000	-0.311850
394.118000	-0.064242
394.294000	0.094731
394.470000	-0.022318
394.645000	0.086910
394.821000	0.229619
394.997000	-0.074192
395.172000	-0.073801
395.348000	-0.179583
395.524000	-0.451113
395.700000	-0.331981
395.875000	-0.082494
396.051000	-0.108003
396.227000	-0.196557
396.402000	-0.240151
396.578000	-0.108072
396.754000	-0.252652
396.929000	-0.234099
397.105000	0.005731
397.281000	-0.093511
397.457000	-0.189130
397.632000	-0.176034
397.808000	-0.433135
397.984000	-0.559705
398.159000	-0.437202
398.335000	-0.266182
398.511000	0.179499
398.686000	-0.048128
398.862000	-0.288833
399.038000	-0.391696
399.213000	-0.168595
399.389000	-0.423963
399.565000	-0.123090
399.741000	0.054847
399.916000	-0.024747
400.092000	0.257968
400.268000	-0.083480
400.443000	-0.234384
400.619000	0.070366
400.795000	-0.021715
400.970000	-0.159606
401.146000	-0.235622
401.322000	0.019835
401.497000	0.443540
401.673000	0.149015
401.849000	-0.204040
402.025000	-0.042774
402.200000	-0.161374
402.376000	-0.246782
402.552000	0.128849
402.727000	-0.070757
402.903000	-0.349427
403.079000	-0.198115
403.254000	0.018683
403.430000	0.015565
403.606000	-0.055368
403.782000	-0.150126
403.957000	-0.345750
404.133000	-0.466072
404.309000	-0.256241
404.484000	-0.027392
404.660000	-0.052531
404.841000	-0.155884
405.023000	0.055468
405.204000	-0.015409
405.385000	-0.335122
405.566000	-0.366636
405.748000	-0.229920
405.929000	0.037190
406.110000	-0.017476
406.292000	-0.152534
406.473000	-0.061204
406.654000	-0.227472
406.835000	-0.131571
407.017000	-0.209878
407.198000	-0.144408
407.379000	-0.108597
407.560000	-0.156301
407.742000	-0.195301
407.923000	-0.138389
408.104000	-0.275066
408.286000	-0.131494
408.467000	-0.103429
408.648000	-0.332313
408.829000	-0.364814
409.011000	-0.216544
409.192000	-0.380628
409.373000	-0.146519
409.555000	-0.024258
409.736000	-0.054709
409.917000	-0.174848
410.098000	-0.144152
410.280000	-0.040469
410.461000	-0.087235
410.642000	-0.123566
410.823000	0.119808
411.005000	0.086692
411.186000	-0.126699
411.367000	-0.235584
411.549000	-0.247165
411.730000	0.029957
411.911000	0.127640
412.092000	-0.095883
412.274000	-0.154152
412.455000	-0.075007
412.636000	-0.019787
412.818000	-0.225490
412.999000	-0.310327
413.180000	-0.206975
413.361000	-0.188367
413.543000	-0.222057
413.724000	-0.300317
413.905000	-0.299365
414.087000	-0.326965
414.268000	-0.289080
414.449000	-0.266711
414.630000	-0.354952
414.812000	-0.458475
414.993000	-0.101830
415.174000	0.059382
415.355000	-0.148321
415.537000	-0.389022
415.718000	-0.115476
415.899000	-0.202382
416.081000	-0.303552
416.262000	-0.098400
416.443000	-0.214733
416.624000	-0.178593
416.806000	-0.063342
416.987000	0.044004
417.168000	-0.066081
417.350000	-0.235920
417.531000	-0.269015
417.712000	-0.236348
417.893000	-0.014358
418.075000	0.080440
418.256000	-0.127066
418.437000	-0.036852
418.618000	0.015470
418.800000	0.068484
418.981000	-0.128140
419.162000	-0.116276
419.344000	0.076483
419.525000	0.019177
419.706000	-0.050700
419.887000	0.067526
420.069000	0.198462
420.250000	0.105521
420.431000	0.062640
420.613000	0.010800
420.794000	-0.199988
420.975000	0.151948
421.156000	-0.018868
421.338000	-0.083545
421.519000	-0.061352
421.700000	-0.118991
421.882000	-0.118969
422.063000	0.051390
422.244000	0.419894
422.425000	0.225795
422.607000	-0.053542
422.788000	-0.073719
422.969000	-0.134064
423.150000	-0.155451
423.332000	-0.202866
423.513000	-0.026224
423.694000	-0.005012
423.876000	0.073663
424.057000	0.151421
424.238000	0.187293
424.419000	0.195292
424.601000	0.073226
424.782000	0.124339
424.963000	0.248830
425.145000	0.131973
425.326000	0.188540
425.507000	0.254513
425.688000	0.131880
425.870000	-0.020799
426.051000	-0.108262
426.232000	-0.037252
426.413000	-0.015211
426.595000	0.002399
426.776000	-0.014202
426.957000	0.053349
427.139000	0.124140
427.320000	0.175639
427.501000	0.281411
427.682000	0.263378
427.864000	0.252130
428.045000	0.429110
428.226000	0.395271
428.408000	0.081471
428.589000	0.197812
428.770000	0.234322
428.951000	0.161976
429.133000	0.042856
429.314000	0.210859
429.495000	0.218397
429.677000	0.251320
429.858000	0.247914
430.039000	0.299761
430.220000	0.397419
430.402000	0.499902
430.583000	0.274734
430.764000	0.290135
430.945000	0.426593
431.127000	0.535680
431.308000	0.394382
431.489000	0.518839
431.671000	0.600677
431.852000	0.539323
432.033000	0.470208
432.214000	0.575570
432.396000	0.621164
432.577000	0.463632
432.758000	0.351059
432.940000	0.449814
433.121000	0.580160
433.302000	0.610836
433.483000	0.790363
433.665000	0.895672
433.846000	0.808710
434.027000	0.700338
434.208000	0.641106
434.390000	0.608353
434.571000	1.039214
434.752000	1.501892
434.934000	1.351381
435.115000	1.276303
435.296000	1.347191
435.477000	1.192173
435.659000	0.968605
435.840000	1.057999
436.026000	1.066299
436.211000	0.992224
436.397000	0.737324
436.582000	0.825742
436.768000	1.038410
436.953000	0.988102
437.139000	1.080050
437.325000	1.354629
437.510000	1.330150
437.696000	1.522989
437.881000	1.536132
438.067000	1.231931
438.252000	1.280977
438.438000	1.277496
438.624000	1.328224
438.809000	1.419452
438.995000	1.519456
439.180000	1.479850
439.366000	1.471502
439.551000	1.506920
439.737000	1.581875
439.923000	1.700258
440.108000	1.648843
440.294000	1.750308
440.479000	1.890664
440.665000	1.964577
440.850000	1.902072
441.036000	1.968133
441.222000	1.997404
441.407000	1.887077
441.593000	2.041030
441.778000	2.165690
441.964000	2.317349
442.149000	2.056321
442.335000	2.073225
442.521000	2.245741
442.706000	2.453439
442.892000	2.395705
443.077000	2.379065
443.263000	2.553398
443.448000	2.548426
443.634000	2.534732
443.820000	2.908430
444.005000	2.802057
444.191000	2.630951
444.376000	2.715512
444.562000	3.114778
444.747000	3.171398
444.933000	3.083476
445.119000	3.022296
445.304000	3.036712
445.490000	3.269603
445.675000	3.284911
445.861000	3.183592
446.046000	3.300095
446.232000	3.441251
446.418000	3.578962
446.603000	3.644130
446.789000	3.724862
446.974000	3.756941
447.160000	3.591760
447.345000	3.712667
447.531000	3.760195
447.717000	4.033849
447.902000	4.217398
448.088000	4.357639
448.273000	4.283713
448.459000	4.284311
448.644000	4.328537
448.830000	4.363767
449.016000	4.375204
449.201000	4.517138
449.387000	4.721004
449.572000	4.870714
449.758000	4.889680
449.943000	4.869733
450.129000	4.863729
450.315000	4.934908
450.500000	5.018016
450.686000	5.210413
450.871000	5.192494
451.057000	5.425048
451.243000	5.477107
451.428000	5.586283
451.614000	5.666746
451.799000	5.716874
451.985000	5.989641
452.170000	6.082941
452.356000	5.956875
452.542000	6.038689
452.727000	6.261843
452.913000	6.199959
453.098000	6.430870
453.284000	6.690462
453.469000	6.621396
453.655000	6.715782
453.841000	6.678611
454.026000	6.618980
454.212000	6.725151
454.397000	6.746673
454.583000	6.739539
454.768000	6.733261
454.954000	6.984500
455.140000	7.000530
455.325000	6.904148
455.511000	6.859227
455.696000	6.922800
455.882000	7.042937
456.067000	7.240946
456.253000	7.086322
456.439000	7.012383
456.624000	7.031046
456.810000	7.040994
456.995000	7.115328
457.181000	7.024961
457.366000	7.153097
457.552000	7.151957
457.738000	7.275008
457.923000	7.253474
458.109000	7.326779
458.294000	7.216196
458.480000	7.149297
458.665000	7.099027
458.851000	6.957740
459.037000	6.701024
459.222000	6.850643
459.408000	6.828856
459.593000	6.838083
459.779000	6.878519
459.964000	6.956079
460.150000	7.055838
460.336000	6.881529
460.521000	6.588725
460.707000	6.417505
460.892000	6.247966
461.078000	6.369302
461.263000	6.360124
461.449000	6.145011
461.635000	6.057993
461.820000	5.986412
462.006000	5.966840
462.191000	5.882238
462.377000	5.622332
462.562000	5.781889
462.748000	5.798851
462.934000	5.385893
463.119000	5.163112
463.305000	5.318492
463.490000	5.146689
463.676000	5.111721
463.861000	5.026548
464.047000	4.886687
464.233000	4.843713
464.418000	4.729932
464.604000	4.555677
464.789000	4.638510
464.975000	4.571918
465.160000	4.405739
465.346000	4.384495
465.532000	4.178578
465.717000	4.070868
465.903000	4.268079
466.088000	4.116150
466.274000	3.816231
466.459000	3.739016
466.645000	4.066867
466.831000	3.957263
467.016000	3.858292
467.202000	3.700520
467.387000	3.589624
467.573000	3.327463
467.758000	3.525424
467.944000	3.367003
468.130000	3.238839
468.315000	3.339334
468.501000	3.411672
468.686000	3.206362
468.872000	3.175668
469.057000	3.208721
469.243000	3.035007
469.429000	2.971972
469.614000	2.858403
469.800000	2.769659
469.985000	2.865052
470.171000	2.908268
470.356000	2.764457
470.542000	2.818094
470.728000	2.754245
470.913000	2.660790
471.099000	2.728885
471.284000	2.628619
471.470000	2.560521
471.655000	2.548217
471.841000	2.511318
472.027000	2.427273
472.212000	2.560897
472.398000	2.551753
472.583000	2.427266
472.769000	2.405746
472.954000	2.338728
473.140000	2.160014
473.326000	2.094799
473.511000	2.370352
473.697000	2.366838
473.882000	2.208526
474.068000	2.077459
474.253000	1.978056
474.439000	2.045844
474.625000	2.040701
474.810000	2.015487
474.996000	2.051279
475.181000	1.845805
475.367000	1.963210
475.552000	2.198265
475.738000	1.839382
475.924000	1.801422
476.109000	1.863114
476.295000	1.759553
476.480000	1.792271
476.666000	1.725027
476.851000	1.698874
477.037000	1.765543
477.223000	1.658238
477.408000	1.529516
477.594000	1.431280
477.779000	1.543155
477.965000	1.524713
478.151000	1.368345
478.336000	1.481478
478.522000	1.415471
478.707000	1.374619
478.893000	1.440054
479.078000	1.285689
479.264000	1.283199
479.450000	1.330276
479.635000	1.414426
479.821000	1.323040
480.006000	1.370697
480.192000	1.346148
480.377000	1.338486
480.563000	1.321655
480.749000	1.134751
480.934000	1.137062
481.120000	1.227734
481.305000	1.295494
481.491000	1.278932
481.676000	1.322055
481.862000	1.297511
482.048000	1.125817
482.233000	1.192672
482.419000	1.185505
482.604000	1.095032
482.790000	1.104226
482.975000	1.161019
483.161000	1.299722
483.347000	1.249854
483.532000	1.174196
483.718000	0.977100
483.903000	1.042735
484.089000	1.071216
484.274000	0.947847
484.460000	1.110438
484.646000	1.161278
484.831000	1.016110
485.017000	1.062845
485.202000	1.083986
485.388000	1.295072
485.573000	1.296020
485.759000	1.122468
485.945000	1.272900
486.130000	1.113434
486.316000	1.099130
486.501000	1.166898
486.687000	1.033885
486.872000	0.983766
487.058000	1.137690
487.244000	1.150999
487.429000	0.984268
487.615000	1.164631
487.800000	1.284540
487.986000	1.170440
488.171000	1.263786
488.357000	1.219210
488.543000	1.193308
488.728000	1.248408
488.914000	1.213875
489.099000	1.136958
489.285000	1.131994
489.470000	1.337656
489.656000	1.351781
489.842000	1.339024
490.027000	1.406328
490.213000	1.234790
490.398000	0.984310
490.584000	1.269937
490.769000	1.276113
490.955000	1.328060
491.141000	1.376422
491.326000	1.355251
491.512000	1.484730
491.697000	1.402156
491.883000	1.277594
492.068000	1.248505
492.254000	1.292975
492.440000	1.392989
492.625000	1.333854
492.811000	1.337255
492.996000	1.459921
493.182000	1.474155
493.367000	1.319398
493.553000	1.281196
493.739000	1.399524
493.924000	1.503254
494.110000	1.534227
494.295000	1.426724
494.481000	1.567791
494.666000	1.618066
494.852000	1.786940
495.038000	1.634310
495.223000	1.523182
495.409000	1.575922
495.594000	1.599348
495.780000	1.680919
495.965000	1.618251
496.151000	1.848675
496.337000	1.943961
496.522000	1.770491
496.708000	1.842469
496.893000	1.998203
497.079000	1.864401
497.264000	1.856180
497.450000	1.942164
497.636000	2.051941
497.821000	1.922915
498.007000	2.175013
498.192000	2.238503
498.378000	2.119968
498.563000	2.104650
498.749000	2.167514
498.935000	2.204879
499.120000	2.307191
499.306000	2.207335
499.491000	2.237872
499.677000	2.361265
499.862000	2.457473
500.048000	2.551203
500.234000	2.488852
500.419000	2.482057
500.605000	2.662447
500.790000	2.622164
500.976000	2.524892
501.161000	2.494176
501.347000	2.711002
501.533000	2.875037
501.718000	2.806591
501.904000	2.787708
502.089000	2.947318
502.275000	3.046592
502.460000	2.947661
502.646000	3.057131
502.832000	3.150885
503.017000	3.161930
503.203000	3.012317
503.388000	3.037005
503.574000	3.280825
503.759000	3.353579
503.945000	3.479333
504.131000	3.420979
504.316000	3.400132
504.502000	3.471149
504.687000	3.542932
504.873000	3.468239
505.058000	3.491342
505.244000	3.534201
505.430000	3.666826
505.615000	3.770623
505.801000	3.859872
505.986000	3.757199
506.172000	3.887318
506.358000	3.981822
506.543000	4.007973
506.729000	4.230909
506.914000	4.227366
507.100000	4.301499
507.285000	4.215684
507.471000	4.172309
507.657000	4.487987
507.842000	4.368653
508.028000	4.261761
508.213000	4.336976
508.399000	4.490361
508.584000	4.658451
508.770000	4.558354
508.956000	4.537412
509.141000	4.647702
509.327000	4.780718
509.512000	4.763162
509.698000	4.829575
509.883000	4.959012
510.069000	4.903980
510.255000	4.958849
510.440000	5.008823
510.626000	4.987741
510.811000	4.994241
510.997000	5.129065
511.182000	5.414127
511.368000	5.313708
511.554000	5.016935
511.739000	5.138504
511.925000	5.347605
512.110000	5.321321
512.296000	5.443236
512.481000	5.452406
512.667000	5.424628
512.853000	5.279844
513.038000	5.373979
513.224000	5.334669
513.409000	5.316219
513.595000	5.466819
513.780000	5.267632
513.966000	5.360794
514.152000	5.373836
514.337000	5.328543
514.523000	5.382683
514.708000	5.457738
514.894000	5.525276
515.079000	5.381960
515.265000	5.446014
515.451000	5.474516
515.636000	5.355957
515.822000	5.448990
516.007000	5.322022
516.193000	5.485215
516.378000	5.568594
516.564000	5.479020
516.750000	5.436024
516.935000	5.489219
517.121000	5.504060
517.306000	5.556797
517.492000	5.508365
517.677000	5.260011
517.863000	5.254763
518.049000	5.371286
518.234000	5.253128
518.420000	5.339987
518.605000	5.516738
518.791000	5.471094
518.976000	5.229539
519.162000	5.115948
519.348000	5.178051
519.533000	5.110286
519.719000	5.243691
519.904000	5.140668
520.090000	5.114322
520.275000	5.297929
520.461000	5.190377
520.647000	4.903357
520.832000	4.715446
521.018000	4.798332
521.203000	4.780553
521.389000	4.594510
521.574000	4.655991
521.760000	4.764737
521.946000	4.692997
522.131000	4.582231
522.317000	4.565435
522.502000	4.487775
522.688000	4.559937
522.873000	4.456450
523.059000	4.378865
523.245000	4.347655
523.430000	4.235514
523.616000	4.221799
523.801000	4.085908
523.987000	4.142815
524.172000	4.203806
524.358000	4.199316
524.544000	4.128995
524.729000	4.188279
524.915000	4.169034
525.100000	3.968104
525.286000	4.019333
525.471000	3.994991
525.657000	3.937468
525.843000	3.674175
526.028000	3.823455
526.214000	3.730813
526.399000	3.598055
526.585000	3.488996
526.770000	3.454808
526.956000	3.561494
527.142000	3.428254
527.327000	3.528242
527.513000	3.397572
527.698000	3.362444
527.884000	3.303653
528.069000	3.246671
528.255000	3.357415
528.441000	3.273296
528.626000	3.246990
528.812000	3.407506
528.997000	3.225960
529.183000	3.086161
529.368000	3.101208
529.554000	3.057675
529.740000	3.062689
529.925000	3.007840
530.111000	2.953435
530.296000	2.980204
530.482000	3.096925
530.667000	2.973516
530.853000	2.940130
531.039000	2.845267
531.224000	2.880335
531.410000	2.909477
531.595000	2.778774
531.781000	2.766735
531.967000	2.645054
532.152000	2.796052
532.338000	2.628949
532.523000	2.477282
532.709000	2.417135
532.894000	2.494932
533.080000	2.510355
533.266000	2.363695
533.451000	2.328806
533.637000	2.353751
533.822000	2.479927
534.008000	2.311041
534.193000	2.318853
534.379000	2.405046
534.565000	2.284451
534.750000	2.209831
534.936000	2.433672
535.121000	2.232473
535.307000	2.237890
535.492000	2.202656
535.678000	1.984518
535.864000	2.141187
536.049000	2.310714
536.235000	2.091094
536.420000	2.119729
536.606000	2.028615
536.791000	1.889205
536.977000	1.870636
537.163000	2.118224
537.348000	2.086006
537.534000	2.042002
537.719000	1.853082
537.905000	1.760858
538.090000	1.990598
538.276000	2.012528
538.462000	1.948467
538.647000	1.977210
538.833000	1.849656
539.018000	1.912227
539.204000	1.819965
539.389000	1.644824
539.575000	1.955457
539.761000	1.863609
539.946000	1.592732
540.132000	1.729836
540.317000	1.577620
540.503000	1.666709
540.688000	1.748627
540.874000	1.988965
541.060000	2.094856
541.245000	1.886198
541.431000	1.703985
541.616000	1.747512
541.802000	1.722491
541.987000	1.794788
542.173000	1.793634
542.359000	1.692401
542.544000	1.777123
542.730000	1.612712
542.915000	1.587060
543.101000	1.738484
543.286000	1.523955
543.472000	1.425974
543.658000	1.509269
543.843000	1.525674
544.029000	1.700576
544.214000	1.551655
544.400000	1.218951
544.585000	1.367758
544.771000	1.456536
544.957000	1.630481
545.142000	1.691561
545.328000	1.775254
545.513000	1.793336
545.699000	1.713921
545.884000	1.487784
546.070000	1.423491
546.261000	1.348563
546.451000	1.139686
546.642000	0.900144
546.833000	1.051729
547.023000	0.937117
547.214000	0.938083
547.405000	1.078136
547.595000	1.358454
547.786000	1.284226
547.977000	0.996527
548.167000	0.842625
548.358000	0.895927
548.549000	1.269593
548.740000	1.055218
548.930000	0.722425
549.121000	0.809951
549.312000	0.752331
549.502000	0.656571
549.693000	0.784430
549.884000	0.864814
550.074000	0.935692
550.265000	0.725194
550.456000	0.837958
550.646000	0.928760
550.837000	0.855857
551.028000	0.682984
551.218000	0.773703
551.409000	0.646522
551.600000	0.691286
551.790000	0.800541
551.981000	0.532222
552.172000	0.549025
552.362000	0.937955
552.553000	0.969526
552.744000	0.766494
552.934000	0.701621
553.125000	0.600416
553.316000	0.536100
553.506000	0.832440
553.697000	0.666348
553.888000	0.714147
554.079000	0.817722
554.269000	0.748463
554.460000	0.440215
554.651000	0.446696
554.841000	0.323479
555.032000	0.385424
555.223000	0.463642
555.413000	0.613244
555.604000	0.526081
555.795000	0.458698
555.985000	0.589344
556.176000	0.465883
556.367000	0.189711
556.557000	0.294849
556.748000	0.394035
556.939000	0.355871
557.129000	0.270380
557.320000	0.392325
557.511000	0.353102
557.701000	0.410189
557.892000	0.424020
558.083000	0.587870
558.273000	0.504795
558.464000	0.303950
558.655000	0.306729
558.845000	0.369499
559.036000	0.478991
559.227000	0.427726
559.418000	0.476171
559.608000	0.509431
559.799000	0.226357
559.990000	0.193938
560.180000	0.240572
560.371000	0.073312
560.562000	0.121596
560.752000	0.304369
560.943000	0.140947
561.134000	-0.032625
561.324000	0.258067
561.515000	0.480443
561.706000	0.287020
561.896000	0.066786
562.087000	0.185908
562.278000	0.154796
562.468000	-0.006414
562.659000	0.092556
562.850000	0.445675
563.040000	0.504684
563.231000	0.052650
563.422000	0.189156
563.612000	0.055531
563.803000	0.141167
563.994000	0.090882
564.185000	0.012480
564.375000	0.242556
564.566000	0.208587
564.757000	0.143616
564.947000	0.067060
565.138000	0.209200
565.329000	0.134778
565.519000	-0.047730
565.710000	0.030207
565.901000	0.262369
566.091000	0.383589
566.282000	0.172937
566.473000	0.167493
566.663000	0.166318
566.854000	-0.025786
567.045000	0.059038
567.235000	0.136951
567.426000	0.183638
567.617000	0.178126
567.807000	0.114143
567.998000	0.161373
568.189000	0.055779
568.379000	0.138708
568.570000	0.179027
568.761000	0.085282
568.951000	0.060160
569.142000	0.040032
569.333000	0.001540
569.524000	-0.101047
569.714000	-0.168140
569.905000	-0.237710
570.096000	0.138351
570.286000	0.224160
570.477000	0.356004
570.668000	0.165269
570.858000	0.108143
571.049000	-0.010814
571.240000	-0.107627
571.430000	0.129477
571.621000	0.060070
571.812000	0.125670
572.002000	0.151336
572.193000	0.015617
572.384000	0.079556
572.574000	0.093737
572.765000	0.031564
572.956000	-0.011612
573.146000	0.165631
573.337000	0.039874
573.528000	0.056624
573.718000	0.228886
573.909000	0.230421
574.100000	0.126668
574.290000	-0.027176
574.481000	0.010698
574.672000	0.026407
574.863000	0.112748
575.053000	-0.015054
575.244000	0.107689
575.435000	-0.029641
575.625000	-0.044083
575.816000	-0.038570
576.007000	0.030565
576.197000	0.056125
576.388000	0.068612
576.579000	0.173834
576.769000	0.179975
576.960000	-0.103593
577.155000	-0.231537
577.350000	0.031206
577.545000	0.155382
577.740000	-0.019208
577.935000	0.191326
578.130000	0.149343
578.326000	-0.072746
578.521000	0.136312
578.716000	0.163248
578.911000	-0.058086
579.106000	0.076627
579.301000	0.169899
579.496000	0.020753
579.691000	-0.239333
579.886000	-0.066074
580.081000	0.053023
580.276000	0.074714
580.471000	-0.016930
580.666000	-0.139734
580.861000	-0.164940
581.057000	-0.144133
581.252000	-0.035214
581.447000	-0.102969
581.642000	-0.104885
581.837000	-0.086474
582.032000	-0.042854
582.227000	0.180769
582.422000	0.171824
582.617000	-0.006341
582.812000	-0.120004
583.007000	-0.084914
583.202000	-0.180260
583.397000	0.059990
583.592000	0.291450
583.788000	0.007271
583.983000	-0.027369
584.178000	0.082314
584.373000	-0.049105
584.568000	-0.080049
584.763000	-0.161597
584.958000	-0.231292
585.153000	-0.112883
585.348000	-0.096032
585.543000	0.024873
585.738000	-0.007895
585.933000	-0.185166
586.128000	0.058453
586.324000	0.063658
586.519000	0.064453
586.714000	0.169765
586.909000	0.239241
587.104000	0.150320
587.299000	0.007258
587.494000	0.039276
587.689000	0.024152
587.884000	0.038625
588.079000	-0.033375
588.274000	-0.005431
588.469000	-0.017278
588.664000	0.053089
588.859000	0.033632
589.055000	0.031120
589.250000	0.001361
589.445000	-0.129800
589.640000	-0.100071
589.835000	0.144911
590.030000	0.224307
590.225000	0.211533
590.420000	-0.006331
590.615000	-0.108234
590.810000	-0.060215
591.005000	-0.056167
591.200000	-0.125784
591.395000	-0.163563
591.591000	-0.019210
591.786000	0.056210
591.981000	-0.065657
592.176000	-0.017567
592.371000	0.031530
592.566000	-0.027892
592.761000	0.139954
592.956000	0.108290
593.151000	0.168727
593.346000	0.058474
593.541000	0.071376
593.736000	0.035191
593.931000	-0.127817
594.126000	-0.068085
594.322000	-0.047241
594.517000	-0.130580
594.712000	-0.220104
594.907000	-0.242689
595.102000	-0.109458
595.297000	0.010119
595.492000	0.091438
595.687000	-0.111592
595.882000	-0.190520
596.077000	-0.067084
596.272000	0.115529
596.467000	0.105907
596.662000	-0.027601
596.857000	-0.007413
597.053000	0.004066
597.248000	0.012901
597.443000	0.019112
597.638000	-0.049137
597.833000	-0.244496
598.028000	-0.054441
598.223000	0.087596
598.418000	-0.008366
598.613000	-0.099131
598.808000	0.016564
599.003000	-0.019970
599.198000	-0.198522
599.393000	-0.140458
599.589000	-0.035255
599.784000	-0.199141
599.979000	-0.105277
600.174000	0.123477
600.369000	-0.090189
600.564000	-0.041735
600.759000	0.203156
600.954000	0.284623
601.149000	0.086208
601.344000	-0.233250
601.539000	-0.043740
601.734000	-0.114082
601.929000	-0.321572
602.124000	-0.270223
602.320000	-0.013970
602.515000	0.249141
602.710000	0.142375
602.905000	-0.249439
603.100000	-0.275357
603.295000	-0.166755
603.490000	-0.074224
603.685000	-0.061469
603.880000	-0.030498
604.075000	-0.182535
604.270000	-0.193013
604.465000	-0.095700
604.660000	-0.315954
604.856000	-0.158044
605.051000	0.022595
605.246000	-0.015051
605.441000	-0.239154
605.636000	-0.275969
605.831000	-0.155909
606.026000	-0.241402
606.221000	-0.242653
606.416000	-0.096300
606.611000	0.071651
606.806000	0.062361
607.001000	0.193604
607.196000	-0.011464
607.391000	-0.213311
607.587000	-0.000371
607.782000	0.013562
607.977000	-0.198693
608.172000	0.113043
608.367000	0.136282
608.562000	-0.070233
608.757000	-0.074867
608.952000	-0.106775
609.147000	0.265300
609.342000	0.192888
609.537000	-0.012534
609.732000	0.019299
609.927000	-0.047122
610.122000	0.050200
610.318000	0.402743
610.513000	0.561470
610.708000	0.407147
610.903000	0.528868
611.098000	0.600652
611.293000	0.500931
611.488000	0.517963
611.683000	0.474499
611.878000	0.378318
612.073000	0.393540
612.268000	0.344793
612.463000	0.384425
612.658000	0.362631
612.854000	0.270312
613.049000	0.145004
613.244000	0.295309
613.439000	0.350589
613.634000	0.041573
613.829000	0.178929
614.024000	0.021607
614.219000	-0.007074
614.414000	0.255012
614.609000	0.061884
614.804000	-0.065541
614.999000	-0.077927
615.194000	-0.051255
615.389000	-0.032096
615.585000	-0.168860
615.780000	-0.009057
615.975000	-0.066036
616.170000	-0.014879
616.365000	0.198841
616.560000	0.302614
616.755000	0.187985
616.950000	0.094810
617.145000	0.173655
617.340000	0.011290
617.535000	-0.269972
617.730000	-0.069583
617.925000	-0.213187
618.120000	-0.228877
618.316000	0.104316
618.511000	0.017239
618.706000	-0.158646
618.901000	-0.146775
619.096000	-0.011242
619.291000	-0.074292
619.486000	0.016408
619.681000	-0.276384
619.876000	-0.325704
620.071000	-0.183481
620.266000	0.091864
620.461000	0.220233
620.656000	0.124062
620.852000	0.054296
621.047000	-0.065195
621.242000	-0.181069
621.437000	0.139677
621.632000	0.214176
621.827000	0.033721
622.022000	-0.249486
622.217000	-0.072913
622.412000	0.117553
622.607000	0.108585
622.802000	-0.143778
622.997000	-0.160490
623.192000	-0.023707
623.387000	-0.002432
623.583000	-0.231901
623.778000	0.089189
623.973000	0.107586
624.168000	0.087417
624.363000	0.101557
624.558000	0.143608
624.753000	-0.158210
624.948000	0.094036
625.143000	0.113624
625.338000	0.008850
625.533000	-0.101292
625.728000	0.018137
625.923000	0.210976
626.119000	0.055399
626.314000	-0.169045
626.509000	-0.182018
626.704000	-0.120070
626.899000	-0.119132
627.094000	-0.171439
627.289000	-0.158245
627.484000	-0.116711
627.679000	-0.100037
627.874000	-0.109616
628.069000	0.220394
628.264000	0.120393
628.459000	-0.021481
628.654000	-0.065768
628.850000	-0.191860
629.045000	-0.060777
629.240000	-0.102174
629.435000	-0.129900
629.630000	-0.011058
629.825000	-0.056777
630.020000	-0.012169
630.215000	-0.209530
630.410000	-0.152522
630.605000	-0.118344
630.800000	-0.040085
630.995000	0.102693
631.190000	0.340822
631.385000	0.160066
631.581000	-0.028486
631.776000	0.015763
631.971000	-0.154245
632.166000	-0.037290
632.361000	-0.168614
632.556000	-0.083012
632.751000	0.086769
632.946000	-0.069132
633.141000	-0.187466
633.336000	-0.169137
633.531000	-0.068567
633.726000	-0.037753
633.921000	-0.201823
634.117000	-0.376527
634.312000	-0.481785
634.507000	-0.359630
634.702000	-0.245128
634.897000	-0.217759
635.092000	-0.117171
635.287000	-0.008243
635.482000	-0.116599
635.677000	-0.016088
635.872000	0.065475
636.067000	0.124982
636.262000	-0.029681
636.457000	-0.337483
636.652000	-0.339108
636.848000	-0.331983
637.043000	-0.281448
637.238000	-0.262950
637.433000	-0.342412
637.628000	-0.245023
637.823000	-0.053748
638.018000	0.009771
638.213000	-0.130262
638.408000	-0.185090
638.603000	-0.290360
638.798000	-0.353647
638.993000	-0.246677
639.188000	-0.255927
639.383000	-0.259584
639.579000	0.090026
639.774000	-0.113019
639.969000	-0.278528
640.164000	-0.319473
640.359000	-0.327889
640.554000	-0.100895
640.749000	-0.049082
640.944000	-0.049188
641.139000	-0.057192
641.334000	-0.239385
641.529000	-0.629173
641.724000	-0.454251
641.919000	-0.247660
642.115000	0.024077
642.310000	0.050887
642.505000	-0.078638
642.700000	-0.134884
642.895000	-0.277156
643.090000	-0.084855
643.285000	0.090962
643.480000	0.034776
643.675000	0.014816
643.870000	0.335295
644.065000	0.168328
644.260000	-0.215252
644.455000	-0.125798
644.650000	-0.197225
644.846000	-0.147448
645.041000	-0.346427
645.236000	-0.495727
645.431000	-0.390586
645.626000	-0.547252
645.821000	-0.372376
646.016000	-0.272174
646.211000	0.161893
646.406000	0.029425
646.601000	-0.033937
646.796000	-0.172518
646.991000	-0.415111
647.186000	-0.297472
647.381000	-0.103535
647.577000	-0.080845
647.772000	0.064295
647.967000	-0.023317
648.162000	-0.090695
648.357000	-0.131769
648.552000	0.044066
648.747000	-0.007710
648.942000	0.027243
649.137000	-0.037967
649.332000	-0.199043
649.527000	-0.208641
649.722000	-0.007743
649.917000	0.129343
650.113000	-0.166514
650.308000	-0.316024
650.503000	-0.218818
650.698000	-0.045496
650.893000	-0.138045
651.088000	-0.032159
651.283000	0.004395
651.478000	-0.305687
651.673000	-0.063905
651.868000	-0.210673
652.063000	0.000735
652.258000	0.186991
652.453000	0.395476
652.648000	0.001958
652.844000	-0.132755
653.039000	-0.044654
653.234000	-0.442260
653.429000	-0.581964
653.624000	-0.351819
653.819000	-0.087902
654.014000	-0.119934
654.209000	-0.268400
654.404000	-0.121358
654.599000	-0.240366
654.794000	-0.239952
654.989000	0.010647
655.184000	-0.084777
655.380000	-0.349730
655.575000	-0.323760
655.770000	-0.284598
655.965000	-0.171744
656.160000	-0.215291
656.355000	-0.042702
656.550000	-0.129993
656.745000	-0.087718
656.940000	-0.173833
657.135000	-0.096495
657.330000	-0.125220
657.525000	-0.349968
657.720000	-0.068016
657.915000	0.074448
658.111000	-0.111715
658.306000	0.068283
658.501000	-0.124596
658.696000	-0.313746
658.891000	-0.068193
659.086000	-0.183447
659.281000	-0.109696
659.476000	-0.274502
659.671000	-0.648991
659.866000	-0.392785
660.061000	-0.057120
660.256000	0.010825
660.451000	-0.071056
660.646000	-0.256592
660.842000	-0.174795
661.037000	-0.341636
661.232000	-0.323147
661.427000	-0.163594
661.622000	-0.253823
661.817000	-0.338593
662.012000	-0.169340
662.207000	-0.318081
662.402000	-0.381282
662.597000	-0.135592
662.792000	-0.481775
662.987000	-0.486468
663.182000	-0.205758
663.378000	-0.184234
663.573000	-0.528733
663.768000	-0.548058
663.963000	-0.333999
664.158000	-0.320928
664.353000	0.018714
664.548000	0.190407
664.743000	-0.053107
664.938000	-0.298089
665.133000	-0.317826
665.328000	0.067674
665.523000	0.027844
665.718000	-0.138465
665.913000	-0.185155
666.109000	-0.228273
666.304000	-0.004398
666.499000	-0.100065
666.694000	-0.091274
666.889000	0.213381
667.084000	-0.060353
667.279000	-0.148713
667.474000	-0.183915
667.669000	-0.114951
667.864000	-0.124201
668.059000	-0.141340
668.254000	-0.179380
668.449000	-0.276302
668.644000	-0.141809
668.840000	0.102690
669.035000	-0.234719
669.230000	-0.528271
669.425000	-0.133208
669.620000	-0.265871
669.815000	-0.361754
670.010000	-0.366688
670.205000	-0.179806
670.400000	-0.155800
670.595000	-0.133836
670.790000	-0.221245
670.985000	-0.172524
671.180000	0.032583
671.376000	-0.325324
671.571000	-0.408419
671.766000	-0.350771
671.961000	-0.428172
672.156000	-0.403362
672.351000	-0.270038
672.546000	-0.279965
672.741000	-0.131272
672.936000	-0.106064
673.131000	0.353076
673.326000	0.051846
673.521000	-0.343342
673.716000	-0.465666
673.911000	-0.579000
674.107000	0.015634
674.302000	0.254369
674.497000	-0.066703
674.692000	-0.393747
674.887000	-0.437121
675.082000	-0.274836
675.277000	-0.050856
675.472000	-0.087685
675.667000	-0.247368
675.862000	-0.327991
676.057000	-0.232642
676.252000	-0.146940
676.447000	-0.248792
676.643000	-0.064956
676.838000	0.143614
677.033000	-0.173790
677.228000	0.156582
677.423000	0.113922
677.618000	-0.290969
677.813000	-0.429011
678.008000	-0.194674
678.203000	-0.110210
678.398000	-0.346806
678.593000	-0.206430
678.788000	-0.101038
678.983000	-0.344837
679.178000	-0.236236
679.374000	-0.302218
679.569000	-0.148916
679.764000	-0.220948
679.959000	-0.464905
680.154000	-0.484703
680.349000	-0.626196
680.544000	-0.481499
680.739000	-0.336409
680.934000	-0.448338
681.129000	-0.418430
681.324000	-0.471421
681.519000	-0.292224
681.714000	-0.354948
681.909000	-0.405689
682.105000	-0.489509
682.300000	-0.157984
682.495000	-0.036329
682.690000	0.010895
682.885000	-0.092393
683.080000	-0.330029
683.275000	-0.278377
683.470000	0.095979
683.665000	0.269507
683.860000	0.310481
684.055000	0.037059
684.250000	-0.313571
684.445000	-0.298605
684.641000	0.057463
684.836000	-0.201163
685.031000	-0.197514
685.226000	-0.208006
685.421000	0.008203
685.616000	-0.236422
685.811000	-0.320685
686.006000	-0.010865
686.201000	-0.107910
686.396000	-0.459563
686.591000	-0.401335
686.786000	0.077906
686.981000	-0.080580
687.176000	-0.120867
687.372000	-0.198302
687.567000	0.133252
687.762000	-0.022966
687.957000	-0.206386
688.152000	-0.302468
688.347000	-0.147315
688.542000	-0.402821
688.737000	-0.777682
688.932000	-0.824085
689.127000	-0.411413
689.322000	-0.134913
689.517000	-0.341585
689.712000	-0.500261
689.908000	-0.327984
690.103000	-0.357474
690.298000	-0.234508
690.493000	-0.242736
690.688000	-0.532727
690.883000	-0.366267
691.078000	0.048362
691.273000	0.114184
691.468000	-0.160108
691.663000	-0.166874
691.858000	-0.045267
692.053000	-0.076058
692.248000	0.061032
692.443000	-0.016028
692.639000	-0.193661
692.834000	-0.000619
693.029000	0.572421
693.224000	0.433532
693.419000	-0.185972
693.614000	-0.290878
693.809000	-0.375420
694.004000	-0.457486
694.199000	-0.422955
694.394000	-0.160716
694.589000	-0.482973
694.784000	-0.475600
694.979000	-0.233404
695.174000	-0.211920
695.370000	0.274841
695.565000	-0.035346
695.760000	-0.321690
695.955000	0.070708
696.150000	0.153197
696.345000	-0.301532
696.540000	-0.093138
696.740000	-0.211007
696.940000	-0.010208
697.140000	0.068294
697.340000	-0.206200
697.539000	-0.016710
697.739000	-0.098695
697.939000	-0.111632
698.139000	-0.485315
698.339000	-0.820082
698.539000	-0.522394
698.739000	-0.559430
698.939000	-0.441496
699.138000	-0.476445
699.338000	0.229940
699.538000	0.289498
699.738000	-0.242610
699.938000	-0.319716
700.138000	-0.364510
700.338000	-0.513497
700.538000	-0.259364
700.737000	-0.206567
700.937000	-0.639542
701.137000	-0.673423
701.337000	-0.114749
701.537000	0.004308
701.737000	-0.222432
701.937000	-0.345682
702.137000	-0.236217
702.337000	-0.386158
702.536000	-0.511822
702.736000	-0.507437
702.936000	-0.635065
703.136000	-0.082715
703.336000	-0.081023
703.536000	-0.292760
703.736000	-0.640298
703.936000	-0.553305
704.135000	-0.532882
704.335000	-0.187553
704.535000	-0.397401
704.735000	-0.610738
704.935000	-0.034401
705.135000	-0.087100
705.335000	-0.383227
705.535000	-0.155502
705.735000	-0.072124
705.934000	-0.133293
706.134000	-0.386747
706.334000	-0.350160
706.534000	-0.395051
706.734000	-0.395365
706.934000	-0.509811
707.134000	-0.516779
707.334000	-0.281545
707.533000	-0.258045
707.733000	-0.300720
707.933000	-0.398844
708.133000	-0.062394
708.333000	0.040664
708.533000	-0.221647
708.733000	0.064896
708.933000	-0.190715
709.132000	-0.391863
709.332000	-0.343980
709.532000	-0.396868
709.732000	-0.203697
709.932000	-0.680731
710.132000	-0.680304
710.332000	-0.815504
710.532000	-0.211107
710.732000	-0.023366
710.931000	-0.346208
711.131000	-0.366832
711.331000	-0.179525
711.531000	-0.365981
711.731000	-0.315846
711.931000	-0.242303
712.131000	-0.287808
712.331000	-0.168089
712.530000	-0.262913
712.730000	-0.464751
712.930000	-0.297030
713.130000	-0.315771
713.330000	-0.447305
713.530000	-0.226610
713.730000	0.453072
713.930000	0.040205
714.129000	-0.444991
714.329000	-0.580131
714.529000	-0.283966
714.729000	-0.000714
714.929000	-0.125678
715.129000	-0.426296
715.329000	-0.296035
715.529000	-0.306233
715.729000	0.257585
715.928000	0.017263
716.128000	-0.245436
716.328000	-0.182999
716.528000	-0.329558
716.728000	-0.152530
716.928000	-0.383892
717.128000	-0.268817
717.328000	-0.239795
717.527000	-0.372460
717.727000	-0.320185
717.927000	-0.222884
718.127000	-0.368770
718.327000	-0.816634
718.527000	-0.684870
718.727000	-0.232640
718.927000	-0.372094
719.127000	-0.674814
719.326000	-0.408660
719.526000	-0.028223
719.726000	-0.195402
719.926000	-0.703052
720.126000	-0.627576
720.326000	-0.413652
720.526000	-0.493008
720.726000	-0.363199
720.925000	-0.093263
721.125000	-0.548651
721.325000	-0.258596
721.525000	-0.229469
721.725000	-0.435929
721.925000	-0.465131
722.125000	-0.448383
722.325000	0.096232
722.524000	-0.227093
722.724000	-0.714341
722.924000	-0.807938
723.124000	-0.595174
723.324000	-0.105868
723.524000	-0.055236
723.724000	-0.658922
723.924000	-0.508419
724.124000	-0.274498
724.323000	-0.140641
724.523000	-0.248173
724.723000	0.235836
724.923000	0.042789
725.123000	-0.080361
725.323000	-0.029240
725.523000	-0.215722
725.723000	-0.445433
725.922000	-0.461155
726.122000	-0.334066
726.322000	-0.424724
726.522000	-0.455725
726.722000	0.098525
726.922000	-0.143870
727.122000	-0.209472
727.322000	0.118098
727.521000	-0.085332
727.721000	-0.374165
727.921000	-0.297190
728.121000	-0.327905
728.321000	-0.685165
728.521000	-0.433721
728.721000	-0.238914
728.921000	0.082448
729.121000	0.710690
729.320000	0.100142
729.520000	-0.346260
729.720000	-0.529579
729.920000	-0.467640
730.120000	-0.306682
730.320000	-0.217586
730.520000	-0.485374
730.720000	-0.451620
730.919000	-0.461335
731.119000	-0.136258
731.319000	-0.555363
731.519000	-0.681132
731.719000	-0.303830
731.919000	-0.465438
732.119000	-0.927687
732.319000	-0.881141
732.519000	-0.311553
732.718000	-0.587455
732.918000	-0.534401
733.118000	-0.388576
733.318000	-0.026724
733.518000	-0.313934
733.718000	-0.855633
733.918000	-0.798177
734.118000	-0.594129
734.317000	-0.271596
734.517000	-0.493565
734.717000	-0.449649
734.917000	-0.027032
735.117000	-0.063411
735.317000	-0.115887
735.517000	0.104461
735.717000	0.301721
735.916000	-0.376497
736.116000	-0.432981
736.316000	-0.317246
736.516000	-0.333474
736.716000	-0.319350
736.916000	-0.749145
737.116000	-0.590039
737.316000	0.054792
737.516000	0.050773
737.715000	-0.048327
737.915000	-0.659939
738.115000	-0.657888
738.315000	-0.394942
738.515000	-0.691430
738.715000	-0.474369
738.915000	0.038853
739.115000	-0.404652
739.314000	-0.444005
739.514000	0.015944
739.714000	0.102217
739.914000	-0.030375
740.114000	-0.311504
740.314000	-0.112935
740.514000	0.257565
740.714000	-0.391907
740.913000	-0.824544
741.113000	-0.685140
741.313000	-0.333404
741.513000	-0.364271
741.713000	-0.283797
741.913000	-0.226991
742.113000	-0.370718
742.313000	-0.862833
742.513000	-0.501272
742.712000	-0.344929
742.912000	-0.663201
743.112000	-0.487355
743.312000	-0.766618
743.512000	-0.569939
743.712000	-0.392406
743.912000	-0.956091
744.112000	-1.048778
744.311000	-1.067000
744.511000	-0.610880
744.711000	-0.175288
744.911000	-0.513793
745.111000	-0.565343
745.311000	-0.138392
745.511000	-0.456169
745.711000	-0.674450
745.911000	-0.379286
746.110000	-0.760271
746.310000	-0.905882
746.510000	-0.620052
746.710000	-0.196255
746.910000	-0.057086
747.110000	-0.577181
747.310000	-0.889385
747.510000	-0.686783
747.709000	-0.352052
747.909000	-0.330242
748.109000	0.008204
748.309000	-0.306916
748.509000	-0.618454
748.709000	-0.682728
748.909000	-0.457613
749.109000	-0.455001
749.308000	-0.148590
749.508000	-0.332082
749.708000	-0.378525
749.908000	-0.165439
750.108000	-0.107831
750.308000	-0.812491
750.508000	-0.031330
750.708000	-0.536523
750.908000	-0.947860
751.107000	-0.233698
751.307000	0.377138
751.507000	-0.253277
751.707000	-0.309481
751.907000	-0.381073
752.107000	-0.268649
752.307000	-0.702168
752.507000	-0.453767
752.706000	-0.546342
752.906000	0.404780
753.106000	-0.441629
753.306000	-1.043559
753.506000	-0.041914
753.706000	-0.423356
753.906000	-0.203744
754.106000	-0.005801
754.305000	-0.109885
754.505000	0.025723
754.705000	-0.235212
754.905000	-0.377288
755.105000	-0.164941
755.305000	-0.919959
755.505000	-0.703876
755.705000	-0.291351
755.905000	-0.351463
756.104000	-0.798885
756.304000	-1.207244
756.504000	-1.445524
756.704000	-0.335315
756.904000	-0.093256
757.104000	-0.486539
757.304000	-0.489497
757.504000	-0.008526
757.703000	-0.352000
757.903000	0.051771
758.103000	0.210531
758.303000	-0.208092
758.503000	-0.406142
758.703000	-0.599976
758.903000	-0.760207
759.103000	-0.316738
759.303000	-0.267091
759.502000	-0.416787
759.702000	-0.149822
759.902000	-0.452276
760.102000	-0.378403
760.302000	-0.434139
760.502000	-0.135490
760.702000	-0.138274
760.902000	-0.377296
761.101000	-0.742709
761.301000	-0.949957
761.501000	-0.621686
761.701000	-0.724842
761.901000	-0.494850
762.101000	-0.161618
762.301000	-0.366935
762.501000	-0.696538
762.700000	-0.789728
762.900000	-0.742356
763.100000	-0.374781
763.300000	-0.075582
763.500000	-0.392669
763.703000	-0.540041
763.905000	-0.824600
764.108000	-0.057237
764.311000	-0.434420
764.513000	-0.587604
764.716000	-0.326454
764.919000	-0.318813
765.121000	-0.822662
765.324000	-0.984543
765.527000	-0.802375
765.729000	-0.633949
765.932000	0.045162
766.135000	-0.104440
766.337000	-0.333074
766.540000	-0.405152
766.743000	-0.163375
766.945000	-0.744988
767.148000	-1.195119
767.351000	-0.991392
767.553000	-0.257887
767.756000	-0.639599
767.958000	-0.968421
768.161000	-0.543273
768.364000	-0.856225
768.566000	-1.153036
768.769000	-0.559458
768.972000	-0.224422
769.174000	-0.633879
769.377000	-1.155143
769.580000	-1.157606
769.782000	-0.414396
769.985000	-0.889539
770.188000	-1.751080
770.390000	-0.847767
770.593000	0.716753
770.796000	0.299863
770.998000	-0.307994
771.201000	-0.669539
771.404000	-0.300208
771.606000	-0.727478
771.809000	-0.615753
772.012000	-0.456547
772.214000	-1.282433
772.417000	-1.311238
772.620000	-0.332655
772.822000	-0.594433
773.025000	-0.790417
773.228000	-0.846725
773.430000	-0.862590
773.633000	-0.516682
773.836000	-0.349178
774.038000	-0.280631
774.241000	-0.472637
774.444000	-0.564587
774.646000	0.343029
774.849000	-0.109339
775.052000	-0.401620
775.254000	-0.302838
775.457000	-0.697591
775.659000	-0.590736
775.862000	-0.758105
776.065000	-0.524259
776.267000	0.143065
776.470000	0.371384
776.673000	-0.371049
776.875000	0.153128
777.078000	0.069924
777.281000	-0.774466
777.483000	-0.204079
777.686000	-0.060980
777.889000	-0.219643
778.091000	-0.028225
778.294000	-0.987686
778.497000	-0.868863
778.699000	-0.641201
778.902000	-0.610227
779.105000	-0.549965
779.307000	0.324895
779.510000	-0.536850
779.713000	-0.359698
779.915000	-0.565103
780.118000	0.584573
780.321000	0.640276
780.523000	-0.387018
780.726000	-0.858901
780.929000	-0.974948
781.131000	-0.850719
781.334000	-1.358695
781.537000	-1.371757
781.739000	-0.282388
781.942000	-0.764980
782.145000	-1.284876
782.347000	-1.183056
782.550000	-0.850828
782.753000	-0.941048
782.955000	-0.887252
783.158000	-0.842925
783.361000	-0.578393
783.563000	-0.534568
783.766000	-0.693217
783.968000	1.060324
784.171000	0.989239
784.374000	-0.270277
784.576000	-0.450539
784.779000	-0.133938
784.982000	0.268785
785.184000	-0.464459
785.387000	-0.215628
785.590000	0.289696
785.792000	0.277956
785.995000	0.210875
786.198000	-0.075343
786.400000	-0.473368
786.603000	-0.461604
786.806000	-0.482799
787.008000	-0.259794
787.211000	-0.179658
787.414000	-0.850602
787.616000	-0.533717
787.819000	-0.620099
788.022000	-1.325801
788.224000	-0.671780
788.427000	-1.234487
788.630000	-0.757019
788.832000	-0.413371
789.035000	-0.863603
789.238000	-1.449361
789.440000	-1.165189
789.643000	-0.054422
789.846000	-0.670234
790.048000	-0.188147
790.251000	-0.104774
790.454000	-0.474201
790.656000	0.306159
790.859000	-0.463652
791.062000	-0.890679
791.264000	-0.189122
791.467000	-1.025038
791.669000	-1.552618
791.872000	-0.709693
792.075000	-1.199736
792.277000	-0.854578
792.480000	-0.481355
792.683000	-0.938354
792.885000	-1.211118
793.088000	-0.997277
793.291000	-1.143377
793.493000	-1.189992
793.696000	-0.515385
793.899000	-0.228165
794.101000	-0.414680
794.304000	-0.677967
794.507000	-0.464633
794.709000	-0.146987
794.912000	-0.603541
795.115000	-1.016207
795.317000	-0.660318
795.520000	-0.407588
795.723000	-0.616659
795.925000	-1.068232
796.128000	-1.365750
796.331000	-0.879860
796.533000	-1.274483
796.736000	-0.637600
796.939000	-0.428934
797.141000	-0.522937
797.344000	0.102256
797.547000	-0.072969
797.749000	-0.198447
797.952000	-0.631484
798.155000	-1.028860
798.357000	-1.349476
798.560000	-1.069974
798.763000	-0.259231
798.965000	-0.411329
799.168000	-0.550767
799.371000	-0.405727
799.573000	-0.754231
799.776000	-1.373850
799.978000	-1.371275
800.181000	-0.575463
800.384000	1.011934
800.586000	0.275556
800.789000	-1.234668
800.992000	-1.145279
801.194000	-1.384470
801.397000	-1.402878
801.600000	-1.203074
801.802000	-0.046198
802.005000	-0.274332
802.208000	-1.590722
802.410000	-0.623160
802.613000	-0.343799
802.816000	-0.540026
803.018000	-1.251332
803.221000	-1.132613
803.424000	0.150116
803.626000	-0.081249
803.829000	-0.527138
804.032000	0.219967
804.234000	0.887994
804.437000	-0.404119
804.640000	-0.438258
804.842000	-0.500696
805.045000	-1.078147
805.248000	-0.794079
805.450000	-0.704473
805.653000	-0.802220
805.856000	-0.933349
806.058000	0.150324
806.261000	-0.829122
806.464000	-0.931546
806.666000	-0.479035
806.869000	-0.753879
807.072000	-1.868347
807.274000	-2.212434
807.477000	-1.060632
807.679000	-0.614602
807.882000	-1.234408
808.085000	-1.067136
808.287000	-0.253266
808.490000	-1.082248
808.693000	-0.946834
808.895000	-0.767461
809.098000	-0.699634
809.301000	-0.629523
809.503000	-0.705019
809.706000	0.132506
809.909000	0.286913
810.111000	0.205923
810.314000	-0.250446
810.517000	-0.924531
810.719000	-1.191409
810.922000	-0.789972
811.125000	0.227796
811.327000	0.286786
811.530000	-0.291232
811.735000	-0.720373
811.940000	-0.957954
812.146000	-0.845582
812.351000	-0.367528
812.556000	-0.552228
812.761000	-1.076999
812.967000	-0.182375
813.172000	-0.203172
813.377000	-0.452237
813.582000	0.125168
813.788000	-0.218853
813.993000	-1.237622
814.198000	-0.384319
814.403000	-1.246644
814.609000	-0.454934
814.814000	-0.517115
815.019000	0.474155
815.224000	0.319654
815.429000	-0.808328
815.635000	-0.391155
815.840000	-0.426232
816.045000	-0.402066
816.250000	-0.088911
816.456000	-1.363887
816.661000	-2.142055
816.866000	-1.544579
817.071000	-1.416217
817.277000	-2.106194
817.482000	-1.193092
817.687000	-0.431081
817.892000	-0.611559
818.097000	-0.211629
818.303000	0.346460
818.508000	0.942884
818.713000	7.814063
818.918000	3.993957
819.124000	0.397462
819.329000	-0.821726
819.534000	-0.891953
819.739000	-1.014036
819.945000	-0.932556
820.150000	-0.577142
820.355000	-0.614863
820.560000	-0.284704
820.766000	-0.271710
820.971000	-0.383693
821.176000	-1.938804
821.381000	-2.443645
821.586000	-1.311027
821.792000	0.086346
821.997000	-0.364292
822.202000	-0.732091
822.407000	-1.457425
822.613000	-1.465160
822.818000	-0.803396
823.023000	-0.443016
823.228000	-0.648979
823.434000	0.158576
823.639000	0.234591
823.844000	-0.798573
824.049000	0.040812
824.255000	0.207579
824.460000	-0.571115
824.665000	-1.055686
824.870000	0.103812
825.075000	-0.078920
825.281000	0.036683
825.486000	0.828314
825.691000	-1.587165
825.896000	-2.613424
826.102000	-0.981862
826.307000	-0.612837
826.512000	-0.933975
826.717000	-0.720355
826.923000	-0.821102
827.128000	-0.555855
827.333000	-1.266223
827.538000	-0.351714
827.744000	0.058094
827.949000	-1.086691
828.154000	-0.699625
828.359000	0.098320
828.564000	-0.516248
828.770000	-0.771499
828.975000	0.505352
829.180000	0.130548
829.385000	-1.551706
829.591000	-1.235733
829.796000	-0.593688
830.001000	-0.744300
830.206000	-1.336111
830.412000	-1.024822
830.617000	-0.928917
830.822000	0.190457
831.027000	-0.557638
831.232000	-1.250543
831.438000	-1.169947
831.643000	-0.554415
831.848000	-0.824697
832.053000	-0.637292
832.259000	-0.765274
832.464000	-2.457452
832.669000	-1.991628
832.874000	-1.530433
833.080000	-1.590685
833.285000	0.131790
833.490000	-0.238034
833.695000	-1.469988
833.901000	-1.135330
834.106000	-1.354265
834.311000	-0.984738
834.516000	-0.406745
834.721000	-1.129258
834.927000	0.086121
835.132000	-0.389410
835.337000	0.861967
835.542000	-0.191696
835.748000	-1.709687
835.953000	-0.191986
836.158000	0.232739
836.363000	-0.075270
836.569000	-0.285299
836.774000	-1.312185
836.979000	-1.643077
837.184000	-1.999927
837.390000	-1.655774
837.595000	-1.105663
837.800000	-0.810236
838.005000	-0.503878
838.210000	-0.671360
838.416000	-1.125585
838.621000	-0.878971
838.826000	-1.052496
839.031000	-0.894608
839.237000	-1.359578
839.442000	-2.032624
839.647000	-2.235251
839.852000	-1.637047
840.058000	-1.494894
840.263000	-1.287972
840.468000	-2.039951
840.673000	-1.104687
840.878000	-0.950665
841.084000	-1.730275
841.289000	-1.024898
841.494000	1.657084
841.699000	1.486345
841.905000	0.277824
842.110000	0.683610
842.315000	-1.285419
842.520000	-0.952978
842.726000	-1.324080
842.931000	-1.587116
843.136000	-0.540701
843.341000	-2.121595
843.547000	-1.252686
843.752000	-1.061083
843.957000	-1.703852
844.162000	-1.831787
844.367000	-1.247875
844.573000	-0.453302
844.778000	-0.205157
844.983000	-0.383391
845.188000	-0.334317
845.394000	-1.901701
845.599000	-1.550250
845.804000	-1.181796
846.009000	-0.489222
846.215000	-1.593103
846.420000	-1.368642
846.625000	-0.514093
846.830000	-0.002613
847.036000	-0.980868
847.241000	-1.446553
847.446000	-0.523439
847.651000	-0.830169
847.856000	-1.706106
848.062000	-1.691067
848.267000	-0.223844
848.472000	-1.428427
848.677000	-2.605865
848.883000	-0.716048
849.088000	0.976182
849.293000	-0.637430
849.498000	-1.290955
849.704000	-0.159942
849.909000	-0.674319
850.114000	-1.757123
850.319000	-0.614034
850.524000	-0.859126
850.730000	-0.982070
850.935000	-1.097586
851.140000	-0.037755
851.345000	0.067110
851.551000	-0.150050
851.756000	0.109970
851.961000	-1.190274
852.166000	-1.233323
852.372000	-0.782752
852.577000	-0.867033
852.782000	-1.269395
852.987000	0.398965
853.193000	-0.233329
853.398000	-0.420693
853.603000	-1.670649
853.808000	-2.350537
854.013000	-1.398648
854.219000	-0.017478
854.424000	1.875988
854.629000	1.440505
854.834000	-0.947078
855.040000	-0.492904
855.245000	0.167205
855.450000	-2.326287
855.655000	-3.434198
855.861000	-3.277022
856.066000	-2.183376
856.271000	-2.254667
856.476000	-0.275058
856.682000	-0.981582
856.887000	-3.466619
857.092000	-2.144782
857.297000	0.233337
857.502000	-0.339234
857.708000	-0.760937
857.913000	-0.003067
858.118000	-0.637716
858.323000	-0.701686
858.529000	-0.592101
858.734000	-1.122146
858.939000	-1.078690
859.144000	-1.817456
859.350000	-2.654611
859.555000	-2.560914
859.760000	-0.792027
859.965000	0.170347
860.171000	-1.650637
860.376000	-0.337232
860.581000	-2.220205
860.786000	-4.495898
860.991000	-3.534223
861.197000	-2.245925
861.402000	-0.833553
861.607000	-1.600411
861.812000	-2.806290
862.018000	-2.743864
862.223000	-1.616502
862.428000	-0.814655
862.633000	0.250903
862.839000	-0.333335
863.044000	-1.417700
863.249000	-2.442714
863.454000	-0.509958
863.659000	-1.219617
863.865000	-2.046149
864.070000	-1.992758
864.275000	-2.399682
864.480000	-2.022118
864.686000	-3.640373
864.891000	-2.820372
865.096000	-0.378458
865.301000	-0.097353
865.507000	-0.450116
865.712000	-0.166635
865.917000	-1.274221
866.122000	-0.272180
866.328000	-3.159153
866.533000	-3.017569
866.738000	0.362849
866.943000	0.328651
867.148000	0.708463
867.354000	-1.837325
867.559000	-3.105038
867.764000	-1.401603
867.969000	-0.737470
868.175000	-1.885619
868.380000	-2.223418
868.585000	-2.889548
868.790000	-0.965907
868.996000	-1.261987
869.201000	-2.717567
869.406000	-3.814076
869.611000	-3.061786
869.817000	-2.447436
870.022000	2.266317
870.227000	0.152315
870.432000	-2.004599
870.637000	-0.686811
870.843000	-1.303609
871.048000	-1.480739
871.253000	0.014872
871.458000	-0.891227
871.664000	-2.955798
871.869000	-3.105659
872.074000	-2.375151
872.279000	-1.245785
872.485000	-1.797705
872.690000	-1.728832
872.895000	-2.159387
873.100000	-2.894147
873.306000	-2.790349
873.511000	-1.358130
873.716000	0.113263
873.921000	-1.698404
874.126000	-2.022991
874.332000	-1.205660
874.537000	-0.172241
874.742000	-0.369024
874.947000	-1.272289
875.153000	0.576101
875.358000	-0.625572
875.563000	-1.436281
875.768000	-3.715402
875.974000	-3.983151
876.179000	-0.611185
876.384000	-0.573483
876.589000	-2.322925
876.794000	-1.853060
877.000000	-2.903191
877.205000	-3.946785
877.410000	-1.128783
877.615000	-2.610146
877.821000	-4.462260
878.026000	-3.341583
878.231000	-3.850160
878.436000	-3.627559
878.642000	-2.897787
878.847000	-1.622338
879.052000	-0.077644
879.257000	-2.216208
879.463000	-3.247296
879.668000	-2.135131
879.873000	0.123466
880.078000	-2.426292
880.283000	-4.245942
880.489000	-4.556470
880.694000	-3.920056
880.899000	-1.998659
881.104000	-0.798792
881.310000	0.920655
881.515000	-0.200007
881.720000	1.292277
881.925000	2.395318
882.131000	3.118711
882.336000	0.271646
882.541000	-3.198582
882.746000	-2.878832
882.952000	-3.411706
883.157000	-3.084147
883.362000	-3.055238
883.567000	-3.574859
883.772000	-3.517111
883.978000	-2.644704
884.183000	-1.339044
884.388000	-2.280385
884.593000	-4.227928
884.799000	0.578595
885.004000	0.517190
885.209000	-1.141556
885.414000	-0.767678
885.620000	-3.684491
885.825000	-0.497298
886.030000	-1.280614
886.235000	-2.843134
886.440000	-1.857369
886.646000	-4.508717
886.851000	-4.339791
887.056000	-0.088900
887.261000	-0.413596
887.467000	-3.179782
887.672000	-0.807047
887.877000	-2.216040
888.082000	-4.497425
888.288000	-5.068047
888.493000	-7.269978
888.698000	-5.360504
888.903000	-1.654194
889.109000	-2.950098
889.314000	-0.116387
889.519000	-1.596089
889.724000	0.748547
889.929000	-1.031383
890.135000	-1.964154
890.340000	-1.766440
890.545000	-3.151671
890.750000	-4.697899
890.956000	-3.118921
891.161000	-0.443842
891.366000	-2.720871
891.571000	-1.479575
891.777000	-1.695404
891.982000	-0.068452
892.187000	-0.590698
892.392000	0.464830
892.598000	-0.094519
892.803000	-0.700982
893.008000	-2.888684
893.213000	-2.868215
893.418000	-2.914290
893.624000	-3.448683
893.829000	-5.335162
894.034000	-2.545597
894.239000	-1.000206
894.445000	-3.649351
894.650000	-3.431455
894.855000	-3.186006
895.060000	-3.338149
895.266000	-2.989725
895.471000	-4.418525
895.676000	-1.344506
895.881000	-0.767643
896.087000	-2.560194
896.292000	-3.882775
896.497000	0.684581
896.702000	-1.083393
896.907000	-3.109440
897.113000	1.240785
897.318000	1.186003
897.523000	0.225337
897.728000	-2.022215
897.934000	-2.341687
898.139000	-2.361764
898.344000	-0.142982
898.549000	-1.001047
898.755000	-2.497854
898.960000	-2.708323
899.165000	-4.814173
899.370000	-1.559246
899.575000	1.818618
899.781000	-2.552732
899.986000	-3.256521
900.191000	-1.676901
900.396000	-2.387821
900.602000	-1.161137
900.807000	-2.031267
901.012000	-2.319217
901.217000	-0.353674
901.423000	-2.678133
901.628000	-4.310374
901.833000	0.212659
902.038000	0.287707
902.244000	-3.240995
902.449000	-2.641636
902.654000	-2.803399
902.859000	-1.475613
903.064000	0.352026
903.270000	0.023952
903.475000	-4.095937
903.680000	-5.902667
903.885000	-5.150188
904.091000	-4.039455
904.296000	-5.242938
904.501000	-4.468985
904.706000	-3.609385
904.912000	0.319269
905.117000	-1.998348
905.322000	-4.760286
905.527000	-4.175996
905.733000	-3.225475
905.938000	-3.056959
906.143000	-3.077780
906.348000	-4.832201
906.553000	-1.017004
906.759000	0.185960
906.964000	-1.118078
907.169000	-2.420486
907.374000	-5.324810
907.580000	-4.264332
907.785000	-3.312875
907.990000	13.737654
908.195000	9.614733
908.401000	-0.524677
908.606000	-7.936926
908.811000	-9.322159
909.016000	-2.722208
909.221000	-2.276810
909.427000	-2.526530
909.632000	-4.305858
909.837000	-4.421758
910.042000	-5.761146
910.248000	-7.070974
910.453000	-2.042433
910.658000	-3.372740
910.863000	-4.419918
911.069000	-5.543273
911.274000	-0.768373
911.479000	1.115119
911.684000	-5.826940
911.890000	-2.947149
912.095000	-2.968732
912.300000	-6.207572
912.506000	-5.360783
912.711000	-4.951481
912.917000	-2.170040
913.123000	-1.768401
913.328000	-2.462265
913.534000	-2.205445
913.740000	7.758197
913.946000	3.479999
914.151000	-3.829746
914.357000	-5.525935
914.563000	-1.139636
914.768000	-4.837747
914.974000	-6.618527
915.180000	-5.266378
915.385000	-4.391297
915.591000	-7.496505
915.797000	-2.137606
916.002000	0.944865
916.208000	-2.715133
916.414000	-5.461935
916.620000	-6.614787
916.825000	-3.221354
917.031000	-3.083118
917.237000	-9.047690
917.442000	-5.168245
917.648000	-5.907699
917.854000	-6.848735
918.059000	-0.752874
918.265000	-0.090893
918.471000	-3.288712
918.676000	-6.513383
918.882000	-8.415133
919.088000	-6.081669
919.294000	-10.862472
919.499000	-6.578860
919.705000	-1.044877
919.911000	-3.441037
920.116000	-1.665788
920.322000	-7.716211
920.528000	-5.842336
920.733000	-7.597935
920.939000	-8.211997
921.145000	-6.941135
921.350000	-5.739166
921.556000	-3.502878
921.762000	-3.926858
921.968000	-4.988823
922.173000	-6.723930
922.379000	-9.104796
922.585000	-4.261961
922.790000	-4.597218
922.996000	-5.788921
923.202000	-7.172000
923.407000	-7.264942
923.613000	-5.109619
923.819000	-3.704850
924.024000	-4.066026
924.230000	-1.579669
924.436000	-4.093259
924.642000	4.690493
924.847000	1.084089
925.053000	-5.002458
925.259000	-9.138063
925.464000	-3.915409
925.670000	-4.937825
925.876000	-6.739019
926.081000	-7.207503
926.287000	-3.654857
926.493000	-2.500299
926.698000	-4.219147
926.904000	-1.869415
927.110000	-3.984640
927.316000	-3.166726
927.521000	3.125219
927.727000	-2.845897
927.933000	-5.114747
928.138000	-4.435631
928.344000	-10.491784
928.550000	-5.067774
928.755000	-0.398134
928.961000	-5.612481
929.167000	-6.063118
929.372000	1.744767
929.578000	0.101262
929.784000	-6.414860
929.990000	-9.233901
930.195000	-6.118950
930.401000	-5.560694
930.607000	-3.671873
930.812000	-2.630938
931.018000	-6.148728
931.224000	-12.361508
931.429000	-8.430854
931.635000	-11.559184
931.841000	-11.372524
932.046000	-6.747036
932.252000	-2.309651
932.458000	4.746465
932.664000	0.141899
932.869000	-5.972172
933.075000	-8.935321
933.281000	-8.778697
933.486000	-0.683704
933.692000	-2.997467
933.898000	-8.806083
934.103000	-2.181398
934.309000	-5.763036
934.515000	-2.969196
934.720000	-0.552739
934.926000	2.671319
935.132000	1.414966
935.338000	-2.695560
935.543000	-9.813937
935.749000	-10.962063
935.955000	-12.391716
936.160000	-10.639248
936.366000	-2.318708
936.572000	-2.547975
936.777000	-0.277247
936.983000	0.923823
937.189000	-4.556929
937.394000	-9.451847
937.600000	-0.169567
937.806000	3.478143
938.012000	-5.299596
938.217000	4.592234
938.423000	2.504536
938.629000	-5.898119
938.834000	-13.718431
939.040000	-12.944862
939.246000	-6.422662
939.451000	-9.996629
939.657000	-5.140119
939.863000	-8.832789
940.068000	-0.662221
940.274000	-7.161058
940.480000	-4.492428
940.686000	-2.251506
940.891000	-5.244767
941.097000	12.772040
941.303000	1.744687
941.508000	-5.792056
941.714000	-1.526741
941.920000	-12.892660
942.125000	-5.045513
942.331000	-3.151761
942.537000	4.093254
942.742000	1.538765
942.948000	-8.752401
943.154000	-11.193564
943.360000	-23.068435
943.565000	-8.926853
943.771000	3.237241
943.977000	7.415053
944.182000	-11.922800
944.388000	-13.620210
944.594000	-0.510108
944.799000	8.006701
945.005000	-0.506655
945.211000	3.009861
945.416000	0.377076
945.622000	-13.599233
945.828000	-9.824289
946.034000	1.001558
946.239000	0.801608
946.445000	-6.496049
946.651000	-18.147779
946.856000	-16.376688
947.062000	-1.641463
947.268000	2.632511
947.473000	-12.877950
947.679000	-17.285452
947.885000	-2.967398
948.090000	1.123510
948.296000	14.260267
948.502000	0.135544
948.708000	-10.591155
948.913000	-11.781198
949.119000	-0.021277
949.325000	-7.845588
949.530000	-20.420418
949.736000	-23.853260
949.942000	-13.238695
950.147000	-13.707832
950.353000	-10.898512
950.559000	-7.259836
950.764000	13.844543
950.970000	6.314404
951.176000	-7.245883
951.382000	-12.463555
951.587000	-0.301551
951.793000	3.406441
951.999000	2.305169
952.204000	-11.437084
952.410000	-23.701818
952.616000	-11.246926
952.821000	-6.390991
953.027000	-14.057987
953.233000	-16.569631
953.438000	-15.835787
953.644000	-1.216750
953.850000	-4.062333
954.056000	-8.992600
954.261000	-10.437000
954.467000	-1.414964
954.673000	6.863264
954.878000	-3.507299
955.084000	-3.686051
955.290000	-18.878156
955.495000	-20.162772
955.701000	-15.437885
955.907000	1.641038
956.112000	-0.915745
956.318000	6.930781
956.524000	7.487539
956.730000	-7.774856
956.935000	-11.078066
957.141000	-13.295047
957.347000	-1.003853
957.552000	-6.750577
957.758000	-21.195706
957.964000	-29.940847
958.169000	3.080647
958.375000	1.906447
958.581000	-11.482036
958.786000	-23.324907
958.992000	-28.899611
959.198000	-9.690247
959.404000	-3.214364
959.609000	-11.199558
959.815000	-15.863027
960.021000	1.857405
960.226000	-5.136705
960.432000	-26.447894
960.638000	-14.484219
960.843000	-9.656346
961.049000	-10.806198
961.255000	1.720111
961.460000	-12.208674
961.666000	-33.586885
961.872000	-20.087153
962.078000	-16.958344
962.283000	-24.799740
962.489000	-25.910951
962.695000	-16.855185
962.900000	-11.505423
963.106000	-9.801750
963.312000	-14.273984
963.517000	-19.393047
963.723000	-22.743391
963.929000	1.776769
964.134000	8.981792
964.340000	-16.138144
964.546000	-15.335240
964.752000	-19.843036
964.957000	-26.128656
965.163000	-1.683605
965.369000	-4.218572
965.574000	-1.954129
965.780000	-8.115635
966.000000	-18.833749
966.220000	-11.891894
966.440000	-10.629970
966.661000	0.360657
966.881000	-19.378034
967.101000	-35.585316
967.321000	-34.063126
967.541000	-12.302371
967.761000	-19.457078
967.981000	-10.744814
968.202000	-8.277605
968.422000	1.622436
968.642000	2.855285
968.862000	-0.370689
969.082000	-10.302706
969.302000	-2.401028
969.522000	-8.647264
969.743000	4.914796
969.963000	-13.920850
970.183000	-26.790187
970.403000	-22.833831
970.623000	-21.298478
970.843000	0.673029
971.063000	-0.035969
971.284000	-21.748853
971.504000	-33.718672
971.724000	-8.859319
971.944000	-24.953250
972.164000	-36.069117
972.384000	-23.527772
972.604000	-36.246935
972.825000	-42.739904
973.045000	-28.855863
973.265000	23.630133
973.485000	12.403164
973.705000	-7.370235
973.925000	-15.816816
974.145000	-49.526272
974.365000	-14.776658
974.586000	-11.592113
974.806000	-29.133091
975.026000	3.037901
975.246000	-9.339344
975.466000	-27.950629
975.686000	-12.707088
975.906000	-20.695028
976.127000	-42.585958
976.347000	-35.433514
976.567000	-9.219665
976.787000	-7.428467
977.007000	-17.121727
977.227000	-23.941330
977.447000	-24.788383
977.668000	-45.394351
977.888000	-28.269961
978.108000	-28.879581
978.328000	-18.370570
978.548000	11.532998
978.768000	16.720055
978.988000	2.609231
979.209000	-13.035016
979.429000	-15.891672
979.649000	-2.766570
979.869000	-27.248548
980.089000	-40.693992
980.309000	-43.329315
980.529000	-50.396180
980.750000	-29.732289
980.970000	-41.855628
981.190000	-29.339131
981.410000	-29.481662
981.630000	-40.211095
981.850000	-23.992458
982.070000	-12.709717
982.291000	-45.836376
982.511000	-46.193051
982.731000	-8.359183
982.951000	-21.202585
983.171000	-22.888860
983.391000	-22.365277
983.611000	3.734980
983.832000	-22.581623
984.052000	-45.872522
984.272000	-21.176892
984.492000	-13.893519
984.712000	-26.270887
984.932000	-45.526451
985.152000	-52.620986
985.373000	-40.855730
985.593000	-15.987436
985.813000	-23.978142
986.033000	-33.974791
986.253000	3.135023
986.473000	11.346397
986.693000	-25.119743
986.914000	-38.255873
987.134000	8.293184
987.354000	-23.910427
987.574000	121.699762
987.794000	70.728654
988.014000	-41.738315
988.234000	-20.755179
988.455000	-6.798874
988.675000	-12.704944
988.895000	-19.409105
989.115000	-27.290922
989.335000	-11.854976
989.555000	3.365532
989.775000	-40.941552
989.995000	-30.633772
990.216000	-23.570245
990.436000	-18.051948
990.656000	13.447078
990.876000	-27.766332
991.096000	-13.576122
991.316000	12.713301
991.536000	-13.744226
991.757000	-23.919323
991.977000	-67.667874
992.197000	-20.375109
992.417000	-35.614278
992.637000	-80.465328
992.857000	-79.534878
993.077000	-67.092297
993.298000	-30.723109
993.518000	-32.490312
993.738000	-85.999423
993.958000	-46.934945
994.178000	-54.727484
994.398000	-40.325157
994.618000	-71.694390
994.839000	-122.468943
995.059000	-29.685533
995.279000	40.967213
995.499000	-3.317922
995.719000	-12.262154
995.939000	-34.043934
996.159000	-28.953066
996.380000	-17.667892
996.600000	-61.353696
996.820000	-26.451305
997.040000	16.549753
997.260000	-47.072319
997.480000	-26.383212
997.700000	-90.332324
997.921000	-54.607765
998.141000	40.333611
998.361000	-3.553593
998.581000	-49.839869
998.801000	-78.933007
999.021000	-47.319415
999.241000	-23.214520
999.462000	-53.521146
999.682000	-103.572079
999.902000	-58.435608
1000.122000	-78.479352
1000.342000	-129.086144
1000.562000	-57.272150
1000.782000	-54.644547
1001.003000	-1012.745747
