Wavelength	Irradiance
(nm)	(mW/cm2/nm)

294.396000	0.000000
294.577000	0.000000
294.757000	0.000000
294.938000	0.000000
295.118000	0.000000
295.299000	0.000000
295.479000	-0.000000
295.660000	-0.000000
295.840000	-0.000000
296.021000	-0.000000
296.202000	-0.000000
296.382000	-0.000000
296.563000	-0.000000
296.743000	-0.000000
296.924000	0.000000
297.104000	-0.000000
297.285000	-0.000000
297.465000	-0.000000
297.646000	-0.000000
297.826000	-0.000000
298.007000	0.000000
298.187000	0.000000
298.368000	-0.000000
298.548000	0.000000
298.729000	0.000000
298.909000	-0.000000
299.090000	-0.000000
299.270000	-0.000000
299.451000	-0.000000
299.631000	-0.000000
299.812000	-0.000000
299.992000	0.000000
300.173000	0.000000
300.353000	-0.000000
300.534000	-0.000000
300.714000	0.000000
300.895000	0.000000
301.075000	-0.000000
301.256000	0.000000
301.436000	0.000000
301.617000	-0.000000
301.797000	-0.000000
301.978000	0.000000
302.159000	0.000000
302.339000	0.000000
302.520000	-0.000000
302.700000	-0.000000
302.881000	0.000000
303.061000	0.000000
303.242000	0.000000
303.422000	0.000000
303.603000	0.000000
303.783000	-0.000000
303.964000	-0.000000
304.144000	-0.000000
304.325000	-0.000000
304.505000	-0.000000
304.686000	-0.000000
304.866000	0.000000
305.047000	-0.000000
305.227000	-0.000000
305.408000	-0.000000
305.588000	-0.000000
305.769000	-0.000000
305.949000	-0.000000
306.130000	-0.000000
306.310000	-0.000000
306.491000	-0.000000
306.671000	0.000000
306.852000	-0.000000
307.032000	-0.000000
307.213000	0.000000
307.393000	-0.000000
307.574000	0.000000
307.755000	0.000000
307.935000	0.000000
308.116000	-0.000000
308.296000	-0.000000
308.477000	0.000000
308.657000	0.000000
308.838000	0.000000
309.018000	0.000000
309.199000	-0.000000
309.379000	-0.000000
309.560000	0.000000
309.740000	-0.000000
309.921000	0.000000
310.101000	0.000000
310.282000	-0.000000
310.462000	-0.000000
310.643000	-0.000000
310.823000	-0.000000
311.004000	-0.000000
311.184000	-0.000000
311.365000	0.000000
311.545000	0.000000
311.726000	0.000000
311.906000	0.000000
312.087000	0.000000
312.267000	-0.000000
312.448000	-0.000000
312.628000	-0.000000
312.809000	-0.000000
312.989000	-0.000000
313.170000	-0.000000
313.344000	-0.000000
313.518000	-0.000000
313.691000	-0.000000
313.865000	-0.000000
314.039000	-0.000000
314.213000	-0.000000
314.387000	-0.000000
314.560000	-0.000000
314.734000	-0.000000
314.908000	-0.000000
315.082000	-0.000000
315.255000	0.000000
315.429000	0.000000
315.603000	0.000000
315.777000	-0.000000
315.951000	0.000000
316.124000	-0.000000
316.298000	-0.000000
316.472000	-0.000000
316.646000	-0.000000
316.820000	-0.000000
316.993000	-0.000000
317.167000	-0.000000
317.341000	-0.000000
317.515000	-0.000000
317.688000	-0.000000
317.862000	-0.000000
318.036000	-0.000000
318.210000	-0.000000
318.384000	-0.000000
318.557000	-0.000000
318.731000	-0.000000
318.905000	-0.000000
319.079000	-0.000000
319.253000	-0.000000
319.426000	0.000000
319.600000	0.000000
319.774000	-0.000000
319.948000	-0.000000
320.122000	0.000000
320.295000	-0.000000
320.469000	-0.000000
320.643000	-0.000000
320.817000	-0.000000
320.990000	-0.000000
321.164000	-0.000000
321.338000	-0.000000
321.512000	-0.000000
321.686000	-0.000000
321.859000	-0.000000
322.033000	0.000000
322.207000	-0.000000
322.381000	-0.000000
322.555000	0.000000
322.728000	0.000000
322.902000	-0.000000
323.076000	-0.000000
323.250000	-0.000000
323.423000	-0.000000
323.597000	-0.000000
323.771000	-0.000000
323.945000	-0.000000
324.119000	-0.000000
324.292000	0.000000
324.466000	0.000000
324.640000	0.000000
324.814000	0.000000
324.988000	-0.000000
325.161000	-0.000000
325.335000	-0.000000
325.509000	-0.000000
325.683000	-0.000000
325.856000	-0.000000
326.030000	-0.000000
326.204000	-0.000000
326.378000	0.000000
326.552000	-0.000000
326.725000	-0.000000
326.899000	-0.000000
327.073000	-0.000000
327.247000	-0.000000
327.421000	0.000000
327.594000	-0.000000
327.768000	-0.000000
327.942000	-0.000000
328.116000	0.000000
328.289000	-0.000000
328.463000	0.000000
328.637000	0.000000
328.811000	-0.000000
328.985000	-0.000000
329.158000	0.000000
329.332000	-0.000000
329.506000	0.000000
329.680000	-0.000000
329.854000	-0.000000
330.027000	-0.000000
330.201000	0.000000
330.375000	0.000000
330.549000	0.000000
330.723000	-0.000000
330.896000	-0.000000
331.070000	-0.000000
331.244000	-0.000000
331.418000	-0.000000
331.591000	-0.000000
331.765000	-0.000000
331.939000	-0.000000
332.113000	-0.000000
332.287000	-0.000000
332.460000	0.000000
332.634000	0.000000
332.808000	-0.000000
332.982000	-0.000000
333.156000	-0.000000
333.329000	-0.000000
333.503000	-0.000000
333.677000	-0.000000
333.851000	-0.000000
334.024000	0.000000
334.198000	-0.000000
334.372000	-0.000000
334.546000	-0.000000
334.720000	-0.000000
334.893000	-0.000000
335.067000	-0.000000
335.241000	0.000000
335.415000	-0.000000
335.589000	-0.000000
335.762000	-0.000000
335.936000	-0.000000
336.110000	-0.000000
336.284000	-0.000000
336.458000	0.000000
336.631000	-0.000000
336.805000	-0.000000
336.979000	-0.000000
337.153000	-0.000000
337.326000	-0.000000
337.500000	0.000000
337.674000	-0.000000
337.848000	-0.000000
338.022000	-0.000000
338.195000	-0.000000
338.369000	-0.000000
338.543000	-0.000000
338.717000	-0.000000
338.891000	0.000000
339.064000	0.000000
339.238000	-0.000000
339.412000	-0.000000
339.586000	-0.000000
339.759000	-0.000000
339.933000	-0.000000
340.107000	0.000000
340.281000	-0.000000
340.455000	-0.000000
340.628000	-0.000000
340.802000	-0.000000
340.976000	-0.000000
341.150000	-0.000000
341.324000	-0.000000
341.497000	-0.000000
341.671000	-0.000000
341.845000	-0.000000
342.019000	-0.000000
342.192000	-0.000000
342.366000	-0.000000
342.540000	-0.000000
342.714000	-0.000000
342.888000	-0.000000
343.061000	-0.000000
343.235000	-0.000000
343.409000	-0.000000
343.583000	-0.000000
343.757000	-0.000000
343.930000	-0.000000
344.104000	-0.000000
344.278000	0.000000
344.452000	0.000000
344.626000	-0.000000
344.799000	-0.000000
344.973000	-0.000000
345.147000	-0.000000
345.321000	-0.000000
345.494000	-0.000000
345.668000	0.000000
345.842000	0.000000
346.016000	-0.000000
346.190000	0.000000
346.363000	0.000000
346.537000	-0.000000
346.711000	-0.000000
346.885000	-0.000000
347.059000	-0.000000
347.232000	0.000000
347.406000	0.000000
347.580000	-0.000000
347.754000	-0.000000
347.927000	-0.000000
348.101000	0.000000
348.275000	-0.000000
348.449000	-0.000000
348.623000	-0.000000
348.796000	0.000000
348.970000	0.000000
349.144000	-0.000000
349.318000	-0.000000
349.492000	-0.000000
349.665000	-0.000000
349.839000	-0.000000
350.013000	-0.000000
350.187000	-0.000000
350.361000	-0.000000
350.534000	-0.000000
350.708000	0.000000
350.882000	0.000000
351.056000	0.000000
351.229000	0.000000
351.403000	0.000000
351.577000	-0.000000
351.751000	-0.000000
351.925000	-0.000000
352.098000	-0.000000
352.272000	-0.000000
352.446000	-0.000000
352.620000	-0.000000
352.794000	-0.000000
352.967000	-0.000000
353.141000	0.000000
353.315000	0.000000
353.489000	-0.000000
353.662000	-0.000000
353.836000	-0.000000
354.010000	-0.000000
354.184000	-0.000000
354.358000	-0.000000
354.531000	-0.000000
354.705000	-0.000000
354.879000	-0.000000
355.053000	-0.000000
355.227000	0.000000
355.400000	-0.000000
355.574000	0.000000
355.748000	0.000000
355.922000	-0.000000
356.095000	-0.000000
356.269000	0.000000
356.443000	-0.000000
356.617000	-0.000000
356.791000	-0.000000
356.964000	-0.000000
357.138000	-0.000000
357.312000	-0.000000
357.486000	-0.000000
357.660000	-0.000000
357.833000	-0.000000
358.007000	-0.000000
358.181000	-0.000000
358.355000	-0.000000
358.529000	-0.000000
358.702000	-0.000000
358.876000	-0.000000
359.050000	-0.000000
359.224000	-0.000000
359.397000	-0.000000
359.571000	0.000000
359.745000	0.000000
359.919000	-0.000000
360.093000	0.001638
360.266000	0.053549
360.440000	0.130676
360.614000	0.129651
360.788000	-0.010723
360.962000	-0.219908
361.135000	-0.039566
361.309000	-0.113901
361.483000	-0.275739
361.657000	-0.352588
361.830000	-0.232943
362.004000	-0.053966
362.178000	-0.366962
362.352000	-0.220200
362.526000	0.006091
362.699000	-0.050446
362.873000	-0.383177
363.047000	-0.320288
363.221000	-0.341183
363.395000	-0.196136
363.568000	-0.228131
363.742000	-0.256012
363.916000	-0.166476
364.090000	-0.186167
364.263000	-0.227945
364.437000	-0.366777
364.611000	0.001848
364.785000	0.001879
364.959000	-0.186341
365.132000	-0.230272
365.306000	-0.208200
365.480000	-0.081457
365.656000	-0.132129
365.831000	-0.074812
366.007000	-0.085835
366.183000	-0.012450
366.358000	-0.178006
366.534000	-0.155741
366.710000	-0.335995
366.886000	-0.186168
367.061000	-0.031679
367.237000	0.011436
367.413000	-0.088773
367.588000	-0.261426
367.764000	-0.244782
367.940000	-0.272330
368.115000	-0.263994
368.291000	-0.249857
368.467000	-0.256888
368.643000	0.026115
368.818000	-0.217987
368.994000	-0.380932
369.170000	-0.244514
369.345000	-0.085120
369.521000	-0.223374
369.697000	-0.204099
369.872000	-0.355399
370.048000	-0.496624
370.224000	-0.334809
370.399000	-0.482102
370.575000	-0.393377
370.751000	-0.472030
370.927000	-0.372439
371.102000	-0.281284
371.278000	-0.345319
371.454000	-0.364507
371.629000	-0.018001
371.805000	-0.037965
371.981000	0.052569
372.156000	0.232897
372.332000	0.095316
372.508000	-0.003000
372.683000	-0.077523
372.859000	-0.138133
373.035000	-0.078914
373.211000	0.291354
373.386000	0.017217
373.562000	-0.356189
373.738000	-0.459717
373.913000	-0.600330
374.089000	-0.395606
374.265000	-0.013140
374.440000	-0.094832
374.616000	-0.043752
374.792000	-0.176196
374.968000	0.170503
375.143000	0.021954
375.319000	-0.281113
375.495000	-0.332155
375.670000	-0.256543
375.846000	-0.168476
376.022000	-0.271570
376.197000	-0.178886
376.373000	-0.324149
376.549000	-0.406751
376.724000	-0.453280
376.900000	-0.302776
377.076000	-0.116390
377.252000	0.161475
377.427000	0.128439
377.603000	-0.332927
377.779000	-0.180320
377.954000	-0.294024
378.130000	-0.201359
378.306000	-0.198426
378.481000	-0.197611
378.657000	-0.201447
378.833000	-0.273623
379.009000	-0.012746
379.184000	0.021472
379.360000	-0.148023
379.536000	-0.163883
379.711000	-0.216192
379.887000	-0.247214
380.063000	-0.191418
380.238000	-0.270650
380.414000	0.030976
380.590000	-0.159315
380.765000	-0.119847
380.941000	-0.055882
381.117000	-0.194341
381.293000	-0.131805
381.468000	-0.338119
381.644000	-0.285649
381.820000	-0.050848
381.995000	0.127880
382.171000	0.269623
382.347000	0.293602
382.522000	-0.167245
382.698000	-0.065407
382.874000	-0.017288
383.050000	-0.389620
383.225000	0.074324
383.401000	0.384460
383.577000	-0.017555
383.752000	-0.198948
383.928000	-0.160328
384.104000	-0.037173
384.279000	-0.242799
384.455000	-0.159830
384.631000	-0.107662
384.806000	-0.268447
384.982000	-0.055325
385.158000	-0.209740
385.334000	-0.092845
385.509000	-0.074205
385.685000	-0.466732
385.861000	-0.268663
386.036000	-0.345975
386.212000	-0.523360
386.388000	-0.324157
386.563000	-0.304676
386.739000	-0.360327
386.915000	-0.507022
387.090000	-0.065236
387.266000	0.059274
387.442000	0.087872
387.618000	-0.083387
387.793000	-0.389935
387.969000	-0.456602
388.145000	-0.326706
388.320000	-0.251184
388.496000	-0.270486
388.672000	-0.469600
388.847000	-0.054695
389.023000	-0.078774
389.199000	-0.379708
389.375000	-0.247335
389.550000	-0.352790
389.726000	-0.166549
389.902000	-0.333003
390.077000	-0.141547
390.253000	-0.021646
390.429000	-0.201637
390.604000	-0.143835
390.780000	-0.044900
390.956000	-0.174501
391.131000	-0.271441
391.307000	0.127009
391.483000	-0.081551
391.659000	-0.263121
391.834000	-0.137013
392.010000	-0.261636
392.186000	-0.326693
392.361000	-0.336673
392.537000	-0.379362
392.713000	0.065650
392.888000	0.289473
393.064000	0.029326
393.240000	-0.176426
393.416000	-0.388839
393.591000	-0.391647
393.767000	-0.489278
393.943000	-0.424217
394.118000	0.060395
394.294000	0.231510
394.470000	0.055707
394.645000	0.100313
394.821000	0.276559
394.997000	-0.056399
395.172000	-0.211941
395.348000	-0.270355
395.524000	-0.431634
395.700000	-0.366501
395.875000	-0.117568
396.051000	-0.095344
396.227000	-0.140525
396.402000	-0.279860
396.578000	-0.163206
396.754000	-0.282065
396.929000	-0.232238
397.105000	-0.011462
397.281000	-0.178932
397.457000	-0.283875
397.632000	-0.154790
397.808000	-0.405193
397.984000	-0.551194
398.159000	-0.429069
398.335000	-0.182478
398.511000	0.255699
398.686000	-0.011372
398.862000	-0.276296
399.038000	-0.461907
399.213000	-0.222535
399.389000	-0.389240
399.565000	-0.093571
399.741000	0.105583
399.916000	0.067282
400.092000	0.362590
400.268000	-0.071576
400.443000	-0.294955
400.619000	0.058358
400.795000	0.001748
400.970000	-0.166492
401.146000	-0.193125
401.322000	0.084573
401.497000	0.393801
401.673000	0.128732
401.849000	-0.185913
402.025000	-0.006953
402.200000	-0.058940
402.376000	-0.214865
402.552000	0.193134
402.727000	0.114299
402.903000	-0.248855
403.079000	-0.192819
403.254000	0.127214
403.430000	0.018912
403.606000	-0.088688
403.782000	-0.088577
403.957000	-0.304431
404.133000	-0.491115
404.309000	-0.240296
404.484000	-0.028423
404.660000	-0.019865
404.841000	-0.097657
405.023000	0.139239
405.204000	0.018965
405.385000	-0.249404
405.566000	-0.243972
405.748000	-0.202963
405.929000	-0.090169
406.110000	-0.019902
406.292000	-0.079671
406.473000	-0.028340
406.654000	-0.149752
406.835000	-0.032781
407.017000	-0.097112
407.198000	-0.113025
407.379000	-0.078815
407.560000	-0.019553
407.742000	-0.071108
407.923000	-0.049965
408.104000	-0.212630
408.286000	-0.100966
408.467000	-0.011096
408.648000	-0.238013
408.829000	-0.292631
409.011000	-0.139237
409.192000	-0.285563
409.373000	-0.131028
409.555000	-0.019700
409.736000	0.065511
409.917000	0.027327
410.098000	-0.036477
410.280000	-0.006737
410.461000	0.010088
410.642000	0.010107
410.823000	0.271097
411.005000	0.187143
411.186000	0.043865
411.367000	-0.086961
411.549000	-0.154392
411.730000	0.149288
411.911000	0.317438
412.092000	0.052049
412.274000	0.005832
412.455000	0.093509
412.636000	0.085237
412.818000	-0.173127
412.999000	-0.205024
413.180000	-0.006654
413.361000	-0.010852
413.543000	-0.039856
413.724000	-0.213679
413.905000	-0.242675
414.087000	-0.197534
414.268000	-0.100968
414.449000	-0.216294
414.630000	-0.241903
414.812000	-0.274370
414.993000	0.095572
415.174000	0.238636
415.355000	-0.006578
415.537000	-0.288986
415.718000	-0.039336
415.899000	-0.080071
416.081000	-0.087879
416.262000	0.127488
416.443000	-0.014580
416.624000	0.082428
416.806000	0.155456
416.987000	0.217218
417.168000	0.195700
417.350000	0.074381
417.531000	-0.034556
417.712000	0.045803
417.893000	0.371110
418.075000	0.477755
418.256000	0.238366
418.437000	0.327966
418.618000	0.378974
418.800000	0.318255
418.981000	0.137199
419.162000	0.318599
419.344000	0.496191
419.525000	0.342473
419.706000	0.314750
419.887000	0.514450
420.069000	0.661998
420.250000	0.513772
420.431000	0.456642
420.613000	0.358541
420.794000	0.174387
420.975000	0.542407
421.156000	0.439863
421.338000	0.407657
421.519000	0.415534
421.700000	0.484631
421.882000	0.448623
422.063000	0.515209
422.244000	1.075123
422.425000	0.820754
422.607000	0.499856
422.788000	0.485539
422.969000	0.394801
423.150000	0.446952
423.332000	0.497209
423.513000	0.657900
423.694000	0.753322
423.876000	0.747052
424.057000	0.798999
424.238000	0.994095
424.419000	1.017056
424.601000	0.808248
424.782000	0.863559
424.963000	1.126748
425.145000	1.046105
425.326000	1.061462
425.507000	1.139172
425.688000	1.037399
425.870000	0.945539
426.051000	0.835789
426.232000	0.998574
426.413000	1.084356
426.595000	1.118423
426.776000	1.125853
426.957000	1.182577
427.139000	1.229224
427.320000	1.426203
427.501000	1.604022
427.682000	1.560305
427.864000	1.619185
428.045000	1.839684
428.226000	1.810176
428.408000	1.499966
428.589000	1.629226
428.770000	1.701154
428.951000	1.706215
429.133000	1.534739
429.314000	1.821378
429.495000	1.929677
429.677000	2.039391
429.858000	2.089133
430.039000	2.222461
430.220000	2.373578
430.402000	2.350338
430.583000	2.145778
430.764000	2.263558
430.945000	2.568570
431.127000	2.762301
431.308000	2.679265
431.489000	2.780581
431.671000	3.001156
431.852000	2.953641
432.033000	2.852024
432.214000	3.042093
432.396000	3.174565
432.577000	3.087695
432.758000	3.017450
432.940000	3.272793
433.121000	3.492393
433.302000	3.527635
433.483000	3.723070
433.665000	3.841921
433.846000	3.841155
434.027000	3.840321
434.208000	3.862342
434.390000	3.989079
434.571000	4.417629
434.752000	4.847259
434.934000	4.671317
435.115000	4.763636
435.296000	4.900314
435.477000	4.786408
435.659000	4.641360
435.840000	4.891104
436.026000	5.062239
436.211000	5.071824
436.397000	4.988533
436.582000	5.199854
436.768000	5.527030
436.953000	5.598522
437.139000	5.740213
437.325000	6.260568
437.510000	6.263410
437.696000	6.380961
437.881000	6.627600
438.067000	6.508260
438.252000	6.668608
438.438000	6.737880
438.624000	6.945359
438.809000	7.185972
438.995000	7.343185
439.180000	7.470949
439.366000	7.547456
439.551000	7.625211
439.737000	7.810651
439.923000	8.040297
440.108000	8.106424
440.294000	8.314671
440.479000	8.582714
440.665000	8.948731
440.850000	8.916963
441.036000	9.077426
441.222000	9.375645
441.407000	9.426358
441.593000	9.682944
441.778000	10.010699
441.964000	10.444492
442.149000	10.086666
442.335000	10.263540
442.521000	10.689097
442.706000	11.155178
442.892000	11.229965
443.077000	11.341957
443.263000	11.626351
443.448000	11.844379
443.634000	11.965192
443.820000	12.433661
444.005000	12.624447
444.191000	12.636715
444.376000	12.883494
444.562000	13.385688
444.747000	13.650280
444.933000	13.871297
445.119000	13.955631
445.304000	14.091930
445.490000	14.577569
445.675000	14.788251
445.861000	15.073352
446.046000	15.378858
446.232000	15.668049
446.418000	15.826298
446.603000	16.155196
446.789000	16.492148
446.974000	16.831839
447.160000	16.874448
447.345000	17.165585
447.531000	17.246262
447.717000	17.908853
447.902000	18.370279
448.088000	18.605919
448.273000	18.855196
448.459000	18.877073
448.644000	19.193878
448.830000	19.631535
449.016000	19.888545
449.201000	20.303986
449.387000	20.599278
449.572000	20.970627
449.758000	21.348776
449.943000	21.645434
450.129000	21.871810
450.315000	22.159732
450.500000	22.389502
450.686000	22.821738
450.871000	23.112620
451.057000	23.559095
451.243000	23.922324
451.428000	24.321672
451.614000	24.491314
451.799000	24.805497
451.985000	25.360416
452.170000	25.603657
452.356000	25.656328
452.542000	26.025682
452.727000	26.632468
452.913000	26.635833
453.098000	26.994914
453.284000	27.491565
453.469000	27.750784
453.655000	28.043863
453.841000	28.353910
454.026000	28.260028
454.212000	28.292894
454.397000	28.595904
454.583000	28.966929
454.768000	29.047869
454.954000	29.243934
455.140000	29.497977
455.325000	29.467230
455.511000	29.476503
455.696000	29.837356
455.882000	30.278037
456.067000	30.543052
456.253000	30.284499
456.439000	30.383549
456.624000	30.470020
456.810000	30.349692
456.995000	30.407290
457.181000	30.204340
457.366000	30.463001
457.552000	30.489096
457.738000	30.478047
457.923000	30.120773
458.109000	30.482594
458.294000	30.593673
458.480000	30.595125
458.665000	30.300258
458.851000	30.112296
459.037000	29.452228
459.222000	29.421763
459.408000	29.262690
459.593000	29.218800
459.779000	29.128485
459.964000	29.199215
460.150000	29.286720
460.336000	28.786694
460.521000	28.101358
460.707000	27.666488
460.892000	27.356229
461.078000	27.375275
461.263000	26.910412
461.449000	26.633959
461.635000	26.515579
461.820000	26.289633
462.006000	25.999152
462.191000	25.547867
462.377000	24.934364
462.562000	24.991742
462.748000	24.871287
462.934000	24.196365
463.119000	23.601600
463.305000	23.315456
463.490000	22.792470
463.676000	22.583813
463.861000	22.298159
464.047000	21.816144
464.233000	21.420043
464.418000	21.113214
464.604000	20.584899
464.789000	20.450643
464.975000	20.094036
465.160000	19.608845
465.346000	19.436219
465.532000	19.137900
465.717000	18.616175
465.903000	18.512078
466.088000	18.328174
466.274000	17.643218
466.459000	17.308906
466.645000	17.348307
466.831000	16.923279
467.016000	16.733107
467.202000	16.528019
467.387000	16.005686
467.573000	15.494787
467.758000	15.356311
467.944000	14.917229
468.130000	14.819941
468.315000	14.754495
468.501000	14.595197
468.686000	14.267695
468.872000	13.989573
469.057000	13.818530
469.243000	13.469298
469.429000	13.313144
469.614000	12.986688
469.800000	12.804865
469.985000	12.786192
470.171000	12.536369
470.356000	12.337710
470.542000	12.208769
470.728000	11.933492
470.913000	11.744525
471.099000	11.588970
471.284000	11.298412
471.470000	11.208525
471.655000	11.231492
471.841000	11.014201
472.027000	10.681232
472.212000	10.720467
472.398000	10.607474
472.583000	10.267603
472.769000	10.171517
472.954000	10.037574
473.140000	9.729260
473.326000	9.512287
473.511000	9.737064
473.697000	9.621814
473.882000	9.437312
474.068000	9.160898
474.253000	8.864760
474.439000	8.927278
474.625000	8.850535
474.810000	8.633119
474.996000	8.451697
475.181000	8.306002
475.367000	8.329656
475.552000	8.319504
475.738000	7.925905
475.924000	7.883280
476.109000	7.798540
476.295000	7.512510
476.480000	7.489989
476.666000	7.300369
476.851000	7.190802
477.037000	7.100937
477.223000	6.809997
477.408000	6.666710
477.594000	6.515394
477.779000	6.522700
477.965000	6.458354
478.151000	6.148162
478.336000	6.178078
478.522000	5.960748
478.707000	5.884550
478.893000	5.908839
479.078000	5.604561
479.264000	5.496639
479.450000	5.404635
479.635000	5.458007
479.821000	5.251726
480.006000	5.177866
480.192000	5.172962
480.377000	5.111219
480.563000	5.008970
480.749000	4.695990
480.934000	4.584655
481.120000	4.670738
481.305000	4.709622
481.491000	4.558875
481.676000	4.514402
481.862000	4.543118
482.048000	4.263928
482.233000	4.186198
482.419000	4.159244
482.604000	3.984254
482.790000	3.859777
482.975000	3.848145
483.161000	3.879080
483.347000	3.794157
483.532000	3.794918
483.718000	3.521916
483.903000	3.499489
484.089000	3.463735
484.274000	3.315875
484.460000	3.398430
484.646000	3.277265
484.831000	3.066940
485.017000	3.096696
485.202000	3.096863
485.388000	3.315359
485.573000	3.194253
485.759000	3.011903
485.945000	3.160675
486.130000	2.919612
486.316000	2.881449
486.501000	2.934113
486.687000	2.595860
486.872000	2.546995
487.058000	2.729577
487.244000	2.683000
487.429000	2.416539
487.615000	2.600495
487.800000	2.666236
487.986000	2.494278
488.171000	2.572130
488.357000	2.509553
488.543000	2.401996
488.728000	2.432610
488.914000	2.359557
489.099000	2.295482
489.285000	2.290862
489.470000	2.421936
489.656000	2.408863
489.842000	2.417409
490.027000	2.424867
490.213000	2.132849
490.398000	1.871036
490.584000	2.068591
490.769000	2.118866
490.955000	2.138833
491.141000	2.137059
491.326000	2.147197
491.512000	2.181413
491.697000	2.062744
491.883000	1.890742
492.068000	1.841166
492.254000	1.891409
492.440000	1.972420
492.625000	1.861268
492.811000	1.816643
492.996000	1.939483
493.182000	1.912965
493.367000	1.720278
493.553000	1.656632
493.739000	1.726898
493.924000	1.798798
494.110000	1.778581
494.295000	1.755803
494.481000	1.859432
494.666000	1.782423
494.852000	1.837503
495.038000	1.671866
495.223000	1.593309
495.409000	1.664656
495.594000	1.647161
495.780000	1.674613
495.965000	1.656087
496.151000	1.838713
496.337000	1.888874
496.522000	1.700698
496.708000	1.761618
496.893000	1.865239
497.079000	1.716839
497.264000	1.687745
497.450000	1.682661
497.636000	1.755993
497.821000	1.591009
498.007000	1.866066
498.192000	1.956390
498.378000	1.711851
498.563000	1.626263
498.749000	1.728517
498.935000	1.757475
499.120000	1.844820
499.306000	1.658243
499.491000	1.585138
499.677000	1.767583
499.862000	1.820193
500.048000	1.846387
500.234000	1.841723
500.419000	1.793383
500.605000	1.863972
500.790000	1.813088
500.976000	1.746975
501.161000	1.677496
501.347000	1.838442
501.533000	1.914424
501.718000	1.781026
501.904000	1.822644
502.089000	1.963910
502.275000	1.941534
502.460000	1.772201
502.646000	1.926552
502.832000	2.048349
503.017000	1.980459
503.203000	1.787046
503.388000	1.779768
503.574000	1.991443
503.759000	2.074534
503.945000	2.124291
504.131000	2.046290
504.316000	2.111442
504.502000	2.135349
504.687000	2.057076
504.873000	1.991589
505.058000	1.991340
505.244000	1.880803
505.430000	1.959791
505.615000	2.139504
505.801000	2.239422
505.986000	2.133032
506.172000	2.177802
506.358000	2.290249
506.543000	2.289008
506.729000	2.392062
506.914000	2.400231
507.100000	2.557430
507.285000	2.266179
507.471000	2.187654
507.657000	2.494281
507.842000	2.403284
508.028000	2.261791
508.213000	2.296718
508.399000	2.366027
508.584000	2.532847
508.770000	2.434562
508.956000	2.395396
509.141000	2.425511
509.327000	2.550953
509.512000	2.526230
509.698000	2.503692
509.883000	2.581200
510.069000	2.576372
510.255000	2.598151
510.440000	2.704658
510.626000	2.653111
510.811000	2.591942
510.997000	2.698868
511.182000	2.955362
511.368000	2.890624
511.554000	2.546449
511.739000	2.565480
511.925000	2.771064
512.110000	2.685764
512.296000	2.876052
512.481000	2.967182
512.667000	2.920065
512.853000	2.722191
513.038000	2.856471
513.224000	2.842338
513.409000	2.767909
513.595000	2.846621
513.780000	2.681898
513.966000	2.699118
514.152000	2.702415
514.337000	2.626466
514.523000	2.730421
514.708000	2.819238
514.894000	2.853787
515.079000	2.679684
515.265000	2.715654
515.451000	2.817911
515.636000	2.693981
515.822000	2.721147
516.007000	2.587639
516.193000	2.837837
516.378000	2.970774
516.564000	2.835587
516.750000	2.854420
516.935000	2.876702
517.121000	2.858294
517.306000	2.902606
517.492000	2.772722
517.677000	2.578867
517.863000	2.641938
518.049000	2.714313
518.234000	2.667581
518.420000	2.817061
518.605000	2.989039
518.791000	2.913040
518.976000	2.724119
519.162000	2.536933
519.348000	2.692810
519.533000	2.691883
519.719000	2.831962
519.904000	2.721567
520.090000	2.686218
520.275000	2.789516
520.461000	2.801025
520.647000	2.495444
520.832000	2.328271
521.018000	2.453832
521.203000	2.481577
521.389000	2.265283
521.574000	2.309357
521.760000	2.485601
521.946000	2.430256
522.131000	2.279473
522.317000	2.272963
522.502000	2.266006
522.688000	2.341836
522.873000	2.269152
523.059000	2.228783
523.245000	2.217714
523.430000	2.136555
523.616000	2.055004
523.801000	2.009688
523.987000	2.100517
524.172000	2.094277
524.358000	2.098180
524.544000	2.040683
524.729000	2.188049
524.915000	2.295388
525.100000	2.051349
525.286000	2.084444
525.471000	2.069227
525.657000	2.014027
525.843000	1.756565
526.028000	1.908974
526.214000	1.881057
526.399000	1.716758
526.585000	1.692852
526.770000	1.671434
526.956000	1.781968
527.142000	1.705690
527.327000	1.783703
527.513000	1.639724
527.698000	1.626314
527.884000	1.678137
528.069000	1.607575
528.255000	1.686134
528.441000	1.678963
528.626000	1.714829
528.812000	1.876082
528.997000	1.606227
529.183000	1.439574
529.368000	1.508011
529.554000	1.456279
529.740000	1.488324
529.925000	1.494854
530.111000	1.480964
530.296000	1.554758
530.482000	1.624117
530.667000	1.437444
530.853000	1.467101
531.039000	1.451473
531.224000	1.468739
531.410000	1.562935
531.595000	1.466500
531.781000	1.504624
531.967000	1.366933
532.152000	1.476336
532.338000	1.310085
532.523000	1.111081
532.709000	1.099137
532.894000	1.198098
533.080000	1.241366
533.266000	1.135650
533.451000	1.104190
533.637000	1.156594
533.822000	1.373573
534.008000	1.156919
534.193000	1.171041
534.379000	1.264032
534.565000	1.216305
534.750000	1.088258
534.936000	1.288651
535.121000	1.195264
535.307000	1.180630
535.492000	1.162455
535.678000	0.950603
535.864000	1.050025
536.049000	1.277233
536.235000	1.047037
536.420000	0.986817
536.606000	0.965623
536.791000	0.909221
536.977000	0.928799
537.163000	1.137369
537.348000	1.070645
537.534000	1.098924
537.719000	0.960609
537.905000	0.794421
538.090000	0.943287
538.276000	1.060752
538.462000	0.989058
538.647000	1.082885
538.833000	0.962372
539.018000	1.010425
539.204000	0.891271
539.389000	0.769389
539.575000	1.092099
539.761000	0.957781
539.946000	0.703616
540.132000	0.813941
540.317000	0.697225
540.503000	0.818041
540.688000	0.871969
540.874000	1.077849
541.060000	1.133925
541.245000	0.988052
541.431000	0.859005
541.616000	0.830921
541.802000	0.736436
541.987000	0.849285
542.173000	0.910028
542.359000	0.838182
542.544000	0.871453
542.730000	0.567123
542.915000	0.537638
543.101000	0.784929
543.286000	0.662815
543.472000	0.565781
543.658000	0.698588
543.843000	0.700309
544.029000	0.914031
544.214000	0.762278
544.400000	0.405906
544.585000	0.450074
544.771000	0.506808
544.957000	0.757107
545.142000	0.828990
545.328000	0.926434
545.513000	0.963952
545.699000	0.920185
545.884000	0.848874
546.070000	0.649342
546.261000	0.523293
546.451000	0.347797
546.642000	0.275815
546.833000	0.437865
547.023000	0.296420
547.214000	0.394934
547.405000	0.581345
547.595000	0.821591
547.786000	0.755482
547.977000	0.512382
548.167000	0.300164
548.358000	0.416497
548.549000	0.756081
548.740000	0.492236
548.930000	0.203726
549.121000	0.324252
549.312000	0.188487
549.502000	0.093223
549.693000	0.259482
549.884000	0.346912
550.074000	0.456665
550.265000	0.298751
550.456000	0.299477
550.646000	0.523015
550.837000	0.485345
551.028000	0.288060
551.218000	0.313246
551.409000	0.191983
551.600000	0.251399
551.790000	0.401105
551.981000	0.171651
552.172000	0.180485
552.362000	0.567599
552.553000	0.673119
552.744000	0.407706
552.934000	0.266906
553.125000	0.215962
553.316000	0.198949
553.506000	0.598939
553.697000	0.415728
553.888000	0.458048
554.079000	0.682440
554.269000	0.609810
554.460000	0.269789
554.651000	0.161867
554.841000	0.019065
555.032000	0.040791
555.223000	0.079959
555.413000	0.300248
555.604000	0.318901
555.795000	0.232616
555.985000	0.333490
556.176000	0.258812
556.367000	-0.046175
556.557000	-0.055071
556.748000	0.041165
556.939000	0.041101
557.129000	-0.024465
557.320000	0.150379
557.511000	0.163188
557.701000	0.162931
557.892000	0.268559
558.083000	0.443033
558.273000	0.368826
558.464000	0.058561
558.655000	0.019212
558.845000	0.162826
559.036000	0.215222
559.227000	0.176142
559.418000	0.338081
559.608000	0.381609
559.799000	0.102043
559.990000	0.010410
560.180000	0.053857
560.371000	-0.111358
560.562000	-0.033009
560.752000	0.140851
560.943000	-0.028705
561.134000	-0.180443
561.324000	0.101376
561.515000	0.317402
561.706000	0.161909
561.896000	-0.076027
562.087000	0.018985
562.278000	-0.071599
562.468000	-0.209828
562.659000	-0.114530
562.850000	0.260228
563.040000	0.380864
563.231000	-0.101758
563.422000	0.023207
563.612000	-0.148861
563.803000	-0.144296
563.994000	-0.216260
564.185000	-0.177497
564.375000	0.061512
564.566000	0.052905
564.757000	0.061609
564.947000	-0.079483
565.138000	0.082621
565.329000	0.039952
565.519000	-0.219199
565.710000	-0.121617
565.901000	0.108084
566.091000	0.239821
566.282000	0.065333
566.473000	0.098964
566.663000	0.119971
566.854000	-0.069846
567.045000	0.022662
567.235000	0.039441
567.426000	0.031038
567.617000	0.014209
567.807000	0.022578
567.998000	0.072602
568.189000	-0.015017
568.379000	-0.002497
568.570000	0.122161
568.761000	0.088733
568.951000	-0.039742
569.142000	-0.213901
569.333000	-0.184880
569.524000	-0.221355
569.714000	-0.246112
569.905000	-0.315769
570.096000	0.022256
570.286000	0.153938
570.477000	0.375180
570.668000	0.177982
570.858000	0.063152
571.049000	-0.133215
571.240000	-0.219139
571.430000	0.042464
571.621000	0.026039
571.812000	0.139389
572.002000	0.127459
572.193000	-0.103746
572.384000	0.021875
572.574000	0.070541
572.765000	-0.034802
572.956000	-0.107306
573.146000	0.171301
573.337000	0.074190
573.528000	0.037836
573.718000	0.158173
573.909000	0.266185
574.100000	0.153389
574.290000	-0.062116
574.481000	-0.042112
574.672000	0.033410
574.863000	0.132315
575.053000	-0.049821
575.244000	-0.002367
575.435000	-0.077241
575.625000	-0.080824
575.816000	-0.127747
576.007000	-0.061131
576.197000	-0.014129
576.388000	-0.033622
576.579000	0.153985
576.769000	0.212362
576.960000	-0.072554
577.155000	-0.274632
577.350000	-0.010102
577.545000	0.094623
577.740000	-0.079649
577.935000	0.225335
578.130000	0.171450
578.326000	-0.160148
578.521000	0.124672
578.716000	0.193042
578.911000	-0.132379
579.106000	0.001525
579.301000	0.183918
579.496000	-0.066669
579.691000	-0.339116
579.886000	-0.153261
580.081000	-0.058798
580.276000	-0.058654
580.471000	-0.130069
580.666000	-0.268693
580.861000	-0.283604
581.057000	-0.204958
581.252000	-0.069837
581.447000	-0.163338
581.642000	-0.174870
581.837000	-0.167140
582.032000	-0.118085
582.227000	0.161238
582.422000	0.138688
582.617000	-0.105574
582.812000	-0.149486
583.007000	-0.127325
583.202000	-0.277690
583.397000	-0.024158
583.592000	0.209733
583.788000	-0.162444
583.983000	-0.173206
584.178000	0.005086
584.373000	-0.161546
584.568000	-0.215425
584.763000	-0.251815
584.958000	-0.295211
585.153000	-0.212017
585.348000	-0.211901
585.543000	-0.074567
585.738000	-0.038352
585.933000	-0.186742
586.128000	0.030389
586.324000	0.037723
586.519000	-0.060168
586.714000	-0.023941
586.909000	0.074132
587.104000	0.158237
587.299000	0.052352
587.494000	-0.002178
587.689000	-0.114954
587.884000	-0.071516
588.079000	-0.097064
588.274000	-0.082619
588.469000	-0.137180
588.664000	-0.071603
588.859000	0.041707
589.055000	0.016116
589.250000	-0.086481
589.445000	-0.163632
589.640000	-0.134389
589.835000	0.156058
590.030000	0.321591
590.225000	0.273807
590.420000	-0.035379
590.615000	-0.157135
590.810000	-0.116430
591.005000	-0.124305
591.200000	-0.153965
591.395000	-0.183546
591.591000	-0.131512
591.786000	-0.016979
591.981000	-0.072559
592.176000	0.031160
592.371000	0.016328
592.566000	-0.061557
592.761000	0.109008
592.956000	0.098050
593.151000	0.183564
593.346000	-0.028319
593.541000	-0.032012
593.736000	-0.017175
593.931000	-0.177805
594.126000	-0.047136
594.322000	-0.058356
594.517000	-0.159325
594.712000	-0.316545
594.907000	-0.336460
595.102000	-0.084978
595.297000	0.072898
595.492000	0.095647
595.687000	-0.123005
595.882000	-0.198569
596.077000	-0.146001
596.272000	0.035547
596.467000	0.122565
596.662000	0.020447
596.857000	0.024331
597.053000	-0.017517
597.248000	-0.025122
597.443000	0.035828
597.638000	-0.067244
597.833000	-0.273821
598.028000	-0.059584
598.223000	0.062762
598.418000	-0.055973
598.613000	-0.216963
598.808000	-0.090535
599.003000	-0.129036
599.198000	-0.317613
599.393000	-0.202196
599.589000	-0.075548
599.784000	-0.199031
599.979000	-0.098890
600.174000	0.121378
600.369000	-0.114540
600.564000	-0.044945
600.759000	0.218783
600.954000	0.264887
601.149000	0.106435
601.344000	-0.309518
601.539000	-0.064623
601.734000	-0.181175
601.929000	-0.403799
602.124000	-0.310514
602.320000	-0.100037
602.515000	0.146171
602.710000	0.197386
602.905000	-0.182478
603.100000	-0.295561
603.295000	-0.217770
603.490000	-0.037708
603.685000	-0.057358
603.880000	-0.037761
604.075000	-0.132497
604.270000	-0.160439
604.465000	-0.156369
604.660000	-0.464743
604.856000	-0.259053
605.051000	-0.081505
605.246000	-0.073532
605.441000	-0.279309
605.636000	-0.346664
605.831000	-0.133211
606.026000	-0.184675
606.221000	-0.200801
606.416000	-0.101721
606.611000	0.049320
606.806000	0.041328
607.001000	0.180644
607.196000	-0.062129
607.391000	-0.221743
607.587000	-0.086320
607.782000	-0.038415
607.977000	-0.182040
608.172000	0.113730
608.367000	0.085697
608.562000	-0.150870
608.757000	-0.227035
608.952000	-0.227564
609.147000	0.242540
609.342000	0.142371
609.537000	-0.078972
609.732000	0.037934
609.927000	-0.167546
610.122000	-0.204143
610.318000	0.050076
610.513000	0.094548
610.708000	-0.059055
610.903000	0.046163
611.098000	0.192352
611.293000	0.147754
611.488000	0.050341
611.683000	0.017894
611.878000	0.005695
612.073000	0.083013
612.268000	0.009777
612.463000	0.107786
612.658000	0.111870
612.854000	0.099831
613.049000	-0.006549
613.244000	0.165463
613.439000	0.153235
613.634000	-0.105150
613.829000	0.075598
614.024000	-0.093074
614.219000	-0.163062
614.414000	0.100539
614.609000	-0.085008
614.804000	-0.295541
614.999000	-0.233413
615.194000	-0.134789
615.389000	-0.101831
615.585000	-0.313519
615.780000	-0.139459
615.975000	-0.123102
616.170000	-0.106543
616.365000	0.134981
616.560000	0.297744
616.755000	0.173166
616.950000	-0.040172
617.145000	-0.006701
617.340000	-0.111518
617.535000	-0.388211
617.730000	-0.120065
617.925000	-0.195947
618.120000	-0.267514
618.316000	0.064917
618.511000	-0.074259
618.706000	-0.218484
618.901000	-0.201443
619.096000	-0.083263
619.291000	-0.104412
619.486000	-0.057907
619.681000	-0.317885
619.876000	-0.402935
620.071000	-0.219976
620.266000	0.082905
620.461000	0.198644
620.656000	0.053185
620.852000	-0.071109
621.047000	-0.230167
621.242000	-0.333667
621.437000	0.010344
621.632000	0.126988
621.827000	0.006052
622.022000	-0.218922
622.217000	-0.059000
622.412000	0.006080
622.607000	0.006086
622.802000	-0.215729
622.997000	-0.260126
623.192000	-0.159728
623.387000	-0.085556
623.583000	-0.304411
623.778000	0.063156
623.973000	0.076364
624.168000	0.124935
624.363000	0.076427
624.558000	-0.011440
624.753000	-0.276315
624.948000	-0.055720
625.143000	-0.055761
625.338000	-0.024824
625.533000	-0.140123
625.728000	-0.104762
625.923000	0.050638
626.119000	-0.113977
626.314000	-0.256696
626.509000	-0.261955
626.704000	-0.168524
626.899000	-0.123810
627.094000	-0.222809
627.289000	-0.128770
627.484000	-0.056864
627.679000	-0.129189
627.874000	-0.251474
628.069000	0.164875
628.264000	0.074217
628.459000	-0.102515
628.654000	-0.125309
628.850000	-0.139416
629.045000	-0.093960
629.240000	-0.144276
629.435000	-0.203896
629.630000	-0.053131
629.825000	-0.144733
630.020000	-0.200481
630.215000	-0.370412
630.410000	-0.311899
630.605000	-0.399890
630.800000	-0.275171
630.995000	-0.039795
631.190000	0.178071
631.385000	0.011136
631.581000	-0.072509
631.776000	-0.012092
631.971000	-0.222101
632.166000	-0.142889
632.361000	-0.133676
632.556000	-0.082377
632.751000	0.044139
632.946000	-0.157825
633.141000	-0.299649
633.336000	-0.290681
633.531000	-0.177976
633.726000	-0.196667
633.921000	-0.244605
634.117000	-0.392425
634.312000	-0.483178
634.507000	-0.445614
634.702000	-0.222252
634.897000	-0.256002
635.092000	-0.170480
635.287000	-0.089251
635.482000	-0.156840
635.677000	-0.022138
635.872000	0.025991
636.067000	0.079117
636.262000	-0.012592
636.457000	-0.364649
636.652000	-0.432822
636.848000	-0.535434
637.043000	-0.406400
637.238000	-0.266118
637.433000	-0.358996
637.628000	-0.300452
637.823000	-0.066431
638.018000	0.090051
638.213000	-0.066708
638.408000	-0.253332
638.603000	-0.386444
638.798000	-0.357463
638.993000	-0.298952
639.188000	-0.382948
639.383000	-0.269674
639.579000	0.219064
639.774000	-0.032655
639.969000	-0.245506
640.164000	-0.375055
640.359000	-0.440023
640.554000	-0.216815
640.749000	-0.212426
640.944000	-0.062967
641.139000	-0.027928
641.334000	-0.237815
641.529000	-0.598725
641.724000	-0.363887
641.919000	-0.224017
642.115000	-0.103718
642.310000	-0.083460
642.505000	-0.138715
642.700000	-0.078546
642.895000	-0.189893
643.090000	-0.129248
643.285000	0.027267
643.480000	0.002024
643.675000	0.057744
643.870000	0.311606
644.065000	0.113902
644.260000	-0.257228
644.455000	-0.237336
644.650000	-0.186868
644.846000	-0.074545
645.041000	-0.350109
645.236000	-0.540255
645.431000	-0.438563
645.626000	-0.545826
645.821000	-0.407418
646.016000	-0.311077
646.211000	0.079202
646.406000	-0.018550
646.601000	-0.008236
646.796000	-0.188362
646.991000	-0.569291
647.186000	-0.457060
647.381000	-0.106338
647.577000	-0.127107
647.772000	0.069241
647.967000	-0.049703
648.162000	-0.117102
648.357000	-0.049809
648.552000	0.053939
648.747000	-0.065387
648.942000	0.048812
649.137000	0.059378
649.332000	-0.227393
649.527000	-0.232510
649.722000	0.106313
649.917000	0.179800
650.113000	-0.211950
650.308000	-0.311580
650.503000	-0.212137
650.698000	-0.024105
650.893000	-0.081804
651.088000	-0.134331
651.283000	-0.108330
651.478000	-0.355495
651.673000	-0.129236
651.868000	-0.197927
652.063000	-0.008439
652.258000	0.102403
652.453000	0.249537
652.648000	-0.076967
652.844000	-0.156156
653.039000	-0.182842
653.234000	-0.632221
653.429000	-0.696897
653.624000	-0.452964
653.819000	-0.162280
654.014000	-0.098660
654.209000	-0.162738
654.404000	-0.098816
654.599000	-0.333423
654.794000	-0.300946
654.989000	0.076792
655.184000	0.012814
655.380000	-0.307281
655.575000	-0.419358
655.770000	-0.414710
655.965000	-0.233065
656.160000	-0.275975
656.355000	-0.094112
656.550000	-0.255312
656.745000	-0.132036
656.940000	-0.201977
657.135000	-0.228780
657.330000	-0.180520
657.525000	-0.368824
657.720000	-0.154036
657.915000	0.018295
658.111000	-0.051676
658.306000	0.072189
658.501000	-0.230023
658.696000	-0.408047
658.891000	-0.149038
659.086000	-0.132785
659.281000	-0.127595
659.476000	-0.317275
659.671000	-0.620415
659.866000	-0.328217
660.061000	0.002168
660.256000	0.018436
660.451000	-0.052100
660.646000	-0.307577
660.842000	-0.182800
661.037000	-0.291720
661.232000	-0.248536
661.427000	-0.068620
661.622000	-0.265164
661.817000	-0.406912
662.012000	-0.172797
662.207000	-0.342548
662.402000	-0.453126
662.597000	-0.091127
662.792000	-0.365268
662.987000	-0.474569
663.182000	-0.217467
663.378000	-0.151689
663.573000	-0.537726
663.768000	-0.580595
663.963000	-0.295018
664.158000	-0.217762
664.353000	0.151290
664.548000	0.217473
664.743000	-0.030945
664.938000	-0.240902
665.133000	-0.213610
665.328000	0.002217
665.523000	-0.169922
665.718000	-0.164388
665.913000	-0.209131
666.109000	-0.198450
666.304000	-0.125941
666.499000	-0.337488
666.694000	-0.081540
666.889000	0.264697
667.084000	-0.031377
667.279000	-0.266548
667.474000	-0.266698
667.669000	-0.120993
667.864000	-0.149177
668.059000	-0.284205
668.254000	-0.245199
668.449000	-0.307409
668.644000	-0.183712
668.840000	0.013507
669.035000	-0.318997
669.230000	-0.563252
669.425000	-0.229754
669.620000	-0.410810
669.815000	-0.349828
670.010000	-0.338157
670.205000	-0.179441
670.400000	-0.088427
670.595000	0.002274
670.790000	-0.185601
670.985000	-0.294080
671.180000	-0.071890
671.376000	-0.363198
671.571000	-0.478468
671.766000	-0.456631
671.961000	-0.451066
672.156000	-0.457373
672.351000	-0.325293
672.546000	-0.256866
672.741000	-0.239065
672.936000	-0.204853
673.131000	0.383121
673.326000	-0.009258
673.521000	-0.408842
673.716000	-0.403042
673.911000	-0.501845
674.107000	-0.038319
674.302000	0.165001
674.497000	-0.073288
674.692000	-0.463325
674.887000	-0.529151
675.082000	-0.377868
675.277000	-0.108951
675.472000	-0.085632
675.667000	-0.250242
675.862000	-0.338528
676.057000	-0.250537
676.252000	-0.198025
676.447000	-0.363935
676.643000	-0.133412
676.838000	0.043766
677.033000	-0.216772
677.228000	0.216127
677.423000	0.097435
677.618000	-0.283565
677.813000	-0.372705
678.008000	-0.272364
678.203000	-0.135131
678.398000	-0.380972
678.593000	-0.231297
678.788000	-0.033665
678.983000	-0.267790
679.178000	-0.015619
679.374000	-0.111898
679.569000	-0.178458
679.764000	-0.299924
679.959000	-0.664324
680.154000	-0.603832
680.349000	-0.593757
680.544000	-0.526132
680.739000	-0.453466
680.934000	-0.551279
681.129000	-0.479601
681.324000	-0.577941
681.519000	-0.346878
681.714000	-0.310216
681.909000	-0.462920
682.105000	-0.587034
682.300000	-0.163972
682.495000	0.119527
682.690000	0.064222
682.885000	-0.077870
683.080000	-0.226822
683.275000	-0.251737
683.470000	0.064563
683.665000	0.238910
683.860000	0.501079
684.055000	0.120976
684.250000	-0.384506
684.445000	-0.402591
684.641000	0.065008
684.836000	-0.103936
685.031000	-0.116879
685.226000	-0.110745
685.421000	0.053004
685.616000	-0.212016
685.811000	-0.326377
686.006000	-0.104988
686.201000	-0.117794
686.396000	-0.563255
686.591000	-0.392394
686.786000	-0.010208
686.981000	-0.310105
687.176000	-0.221311
687.372000	-0.176736
687.567000	0.060220
687.762000	0.066809
687.957000	-0.119482
688.152000	-0.171236
688.347000	-0.049013
688.542000	-0.391784
688.737000	-0.688873
688.932000	-0.929552
689.127000	-0.483574
689.322000	-0.055906
689.517000	-0.367861
689.712000	-0.571354
689.908000	-0.408710
690.103000	-0.324462
690.298000	-0.187120
690.493000	-0.272887
690.688000	-0.680434
690.883000	-0.405974
691.078000	-0.069883
691.273000	-0.043517
691.468000	-0.208758
691.663000	-0.322286
691.858000	-0.169793
692.053000	-0.123360
692.248000	-0.030540
692.443000	-0.057093
692.639000	-0.163653
692.834000	-0.050685
693.029000	0.476350
693.224000	0.478611
693.419000	-0.252276
693.614000	-0.313253
693.809000	-0.360572
694.004000	-0.334293
694.199000	-0.408324
694.394000	-0.220405
694.589000	-0.579345
694.784000	-0.437660
694.979000	-0.132793
695.174000	-0.160298
695.370000	0.402781
695.565000	0.125071
695.760000	-0.262977
695.955000	-0.099709
696.150000	0.043722
696.345000	-0.340157
696.540000	-0.120912
696.740000	-0.319919
696.940000	-0.086567
697.140000	0.099444
697.340000	-0.156343
697.539000	-0.004153
697.739000	-0.177261
697.939000	-0.260532
698.139000	-0.593744
698.339000	-0.964972
698.539000	-0.741754
698.739000	-0.722817
698.939000	-0.417646
699.138000	-0.446413
699.338000	0.233637
699.538000	0.318789
699.738000	-0.264793
699.938000	-0.243871
700.138000	-0.441971
700.338000	-0.577779
700.538000	-0.295286
700.737000	-0.195847
700.937000	-0.655132
701.137000	-0.613624
701.337000	-0.068376
701.537000	-0.061388
701.737000	-0.282317
701.937000	-0.340119
702.137000	-0.433031
702.337000	-0.541123
702.536000	-0.549400
702.736000	-0.463889
702.936000	-0.658746
703.136000	-0.191861
703.336000	-0.170184
703.536000	-0.257430
703.736000	-0.569914
703.936000	-0.568733
704.135000	-0.553984
704.335000	-0.243681
704.535000	-0.513418
704.735000	-0.615859
704.935000	-0.069736
705.135000	-0.230667
705.335000	-0.509749
705.535000	-0.304878
705.735000	-0.312153
705.934000	-0.165517
706.134000	-0.465949
706.334000	-0.525804
706.534000	-0.445663
706.734000	-0.313537
706.934000	-0.674141
707.134000	-0.755293
707.334000	-0.358531
707.533000	-0.277895
707.733000	-0.322006
707.933000	-0.425828
708.133000	-0.152108
708.333000	-0.115788
708.533000	-0.480368
708.733000	-0.153159
708.933000	-0.346773
709.132000	-0.466742
709.332000	-0.467532
709.532000	-0.505990
709.732000	-0.266079
709.932000	-0.738714
710.132000	-0.655890
710.332000	-0.730429
710.532000	-0.319109
710.732000	-0.267405
710.931000	-0.523178
711.131000	-0.540316
711.331000	-0.359481
711.531000	-0.382786
711.731000	-0.330662
711.931000	-0.148893
712.131000	-0.338400
712.331000	-0.391638
712.530000	-0.444227
712.730000	-0.589808
712.930000	-0.468041
713.130000	-0.439182
713.330000	-0.447360
713.530000	-0.326411
713.730000	0.286698
713.930000	0.018392
714.129000	-0.387358
714.329000	-0.603637
714.529000	-0.488068
714.729000	-0.173790
714.929000	-0.181486
715.129000	-0.497602
715.329000	-0.351574
715.529000	-0.151734
715.729000	0.412621
715.928000	0.072816
716.128000	-0.306948
716.328000	-0.214568
716.528000	-0.362692
716.728000	-0.238220
716.928000	-0.487386
717.128000	-0.480672
717.328000	-0.332359
717.527000	-0.239026
717.727000	-0.293992
717.927000	-0.255717
718.127000	-0.389289
718.327000	-0.901075
718.527000	-0.735588
718.727000	-0.303632
718.927000	-0.446029
719.127000	-0.724744
719.326000	-0.477525
719.526000	0.137363
719.726000	-0.068035
719.926000	-0.616188
720.126000	-0.719531
720.326000	-0.552670
720.526000	-0.528946
720.726000	-0.323425
720.925000	-0.259861
721.125000	-0.620858
721.325000	-0.228544
721.525000	-0.285170
721.725000	-0.557586
721.925000	-0.518987
722.125000	-0.535098
722.325000	-0.061056
722.524000	-0.270750
722.724000	-0.569605
722.924000	-0.722854
723.124000	-0.521813
723.324000	-0.126140
723.524000	-0.126254
723.724000	-0.693407
723.924000	-0.476395
724.124000	-0.273249
724.323000	-0.070029
724.523000	-0.053697
724.723000	0.247862
724.923000	-0.013049
725.123000	-0.070213
725.323000	-0.013086
725.523000	-0.209780
725.723000	-0.553371
725.922000	-0.390091
726.122000	-0.259259
726.322000	-0.399809
726.522000	-0.293151
726.722000	0.266493
726.922000	-0.078907
727.122000	-0.219399
727.322000	-0.062766
727.521000	-0.261613
727.721000	-0.560478
727.921000	-0.552213
728.121000	-0.436023
728.321000	-0.785622
728.521000	-0.546181
728.721000	-0.321927
728.921000	0.020009
729.121000	0.596253
729.320000	0.212347
729.520000	-0.306009
729.720000	-0.792245
729.920000	-0.602483
730.120000	-0.349158
730.320000	-0.333186
730.520000	-0.644760
730.720000	-0.553910
730.919000	-0.368079
731.119000	-0.038905
731.319000	-0.606555
731.519000	-0.843640
731.719000	-0.276341
731.919000	-0.259526
732.119000	-0.684721
732.319000	-0.772091
732.519000	-0.235332
732.718000	-0.816204
732.918000	-0.782726
733.118000	-0.382060
733.318000	-0.039519
733.518000	-0.383190
733.718000	-1.037600
733.918000	-0.857423
734.118000	-0.564532
734.317000	-0.238484
734.517000	-0.557417
734.717000	-0.430048
734.917000	0.046926
735.117000	-0.153106
735.317000	-0.179158
735.517000	0.378476
735.717000	0.589510
735.916000	-0.328915
736.116000	-0.398551
736.316000	-0.330657
736.516000	-0.427259
736.716000	-0.365905
736.916000	-0.959118
737.116000	-0.697549
737.316000	-0.102929
737.516000	-0.218713
737.715000	-0.005338
737.915000	-0.557170
738.115000	-0.683941
738.315000	-0.362775
738.515000	-0.827252
738.715000	-0.625431
738.915000	0.156567
739.115000	-0.275798
739.314000	-0.536691
739.514000	-0.113869
739.714000	0.057984
739.914000	-0.105404
740.114000	-0.351397
740.314000	-0.069238
740.514000	0.286502
740.714000	-0.600579
740.913000	-1.032375
741.113000	-0.758505
741.313000	-0.189167
741.513000	-0.189700
741.713000	-0.217910
741.913000	-0.098337
742.113000	-0.283448
742.313000	-0.859584
742.513000	-0.646683
742.712000	-0.490312
742.912000	-0.583681
743.112000	-0.604365
743.312000	-0.877130
743.512000	-0.522206
743.712000	-0.646372
743.912000	-1.138168
744.112000	-1.157784
744.311000	-1.123037
744.511000	-0.688701
744.711000	-0.348062
744.911000	-0.700929
745.111000	-0.654123
745.311000	-0.063054
745.511000	-0.359714
745.711000	-0.628178
745.911000	-0.427639
746.110000	-0.888302
746.310000	-1.018988
746.510000	-0.506468
746.710000	0.042560
746.910000	-0.005809
747.110000	-0.655520
747.310000	-0.967514
747.510000	-0.863938
747.709000	-0.523077
747.909000	-0.465715
748.109000	-0.192413
748.309000	-0.241991
748.509000	-0.537945
748.709000	-0.727829
748.909000	-0.529886
749.109000	-0.561986
749.308000	-0.045720
749.508000	-0.235425
749.708000	-0.455042
749.908000	-0.205613
750.108000	-0.106115
750.308000	-0.689143
750.508000	0.114815
750.708000	-0.429190
750.908000	-1.177270
751.107000	-0.208632
751.307000	0.297404
751.507000	-0.392123
751.707000	-0.452500
751.907000	-0.555318
752.107000	-0.281660
752.307000	-0.559072
752.507000	-0.488673
752.706000	-0.529378
752.906000	0.281701
753.106000	-0.656143
753.306000	-1.113485
753.506000	-0.234510
753.706000	-0.494911
753.906000	-0.255813
754.106000	-0.016660
754.305000	-0.068813
754.505000	0.066902
754.705000	-0.132434
754.905000	-0.427363
755.105000	-0.269869
755.305000	-1.051425
755.505000	-0.726260
755.705000	-0.091161
755.905000	-0.304075
756.104000	-1.049219
756.304000	-1.382799
756.504000	-1.546026
756.704000	-0.414845
756.904000	-0.049409
757.104000	-0.478380
757.304000	-0.500310
757.504000	-0.125302
757.703000	-0.287278
757.903000	0.199197
758.103000	0.384023
758.303000	-0.202342
758.503000	-0.595540
758.703000	-0.454804
758.903000	-0.761262
759.103000	-0.500138
759.303000	-0.315188
759.502000	-0.437792
759.702000	-0.183449
759.902000	-0.662011
760.102000	-0.574523
760.302000	-0.554115
760.502000	-0.407662
760.702000	-0.207470
760.902000	-0.465003
761.101000	-0.869904
761.301000	-1.096024
761.501000	-0.725675
761.701000	-0.873461
761.901000	-0.482000
762.101000	-0.244917
762.301000	-0.505715
762.501000	-0.789837
762.700000	-0.930280
762.900000	-1.010444
763.100000	-0.771827
763.300000	-0.580089
763.500000	-0.569187
763.703000	-0.521537
763.905000	-0.833498
764.108000	-0.375602
764.311000	-0.433268
764.513000	-0.583772
764.716000	-0.516634
764.919000	-0.308539
765.121000	-0.645167
765.324000	-0.914794
765.527000	-0.556953
765.729000	-0.533535
765.932000	-0.112507
766.135000	-0.335078
766.337000	-0.499360
766.540000	-0.618606
766.743000	-0.291461
766.945000	-0.799338
767.148000	-1.215943
767.351000	-0.955081
767.553000	-0.352062
767.756000	-0.864422
767.958000	-1.054820
768.161000	-0.757842
768.364000	-0.928068
768.566000	-0.930099
768.769000	-0.476222
768.972000	-0.476156
769.174000	-0.887672
769.377000	-1.374025
769.580000	-1.522406
769.782000	-0.406914
769.985000	-0.845585
770.188000	-1.882734
770.390000	-1.157747
770.593000	0.396028
770.796000	0.237304
770.998000	-0.521396
771.201000	-0.791493
771.404000	-0.706723
771.606000	-0.992847
771.809000	-0.635412
772.012000	-0.550271
772.214000	-1.476775
772.417000	-1.365794
772.620000	-0.425953
772.822000	-0.540909
773.025000	-0.751951
773.228000	-0.890102
773.430000	-0.717254
773.633000	-0.706138
773.836000	-0.682116
774.038000	-0.785016
774.241000	-0.671972
774.444000	-0.586009
774.646000	0.231199
774.849000	-0.196459
775.052000	-0.687489
775.254000	-0.461760
775.457000	-0.663017
775.659000	-0.639336
775.862000	-0.942801
776.065000	-0.640540
776.267000	0.030434
776.470000	0.425426
776.673000	-0.466508
776.875000	-0.046021
777.078000	0.068921
777.281000	-0.930127
777.483000	-0.573220
777.686000	-0.368269
777.889000	-0.368665
778.091000	-0.046565
778.294000	-0.847313
778.497000	-0.861335
778.699000	-0.680817
778.902000	-0.813017
779.105000	-0.748131
779.307000	0.005203
779.510000	-1.024630
779.713000	-0.622928
779.915000	-0.624985
780.118000	0.452113
780.321000	0.636893
780.523000	-0.218946
780.726000	-1.089908
780.929000	-1.221418
781.131000	-1.381835
781.334000	-1.811278
781.537000	-1.656784
781.739000	-0.566962
781.942000	-0.927053
782.145000	-1.427226
782.347000	-1.414729
782.550000	-1.187741
782.753000	-1.205095
782.955000	-1.060021
783.158000	-0.938091
783.361000	-0.791779
783.563000	-0.859479
783.766000	-0.658474
783.968000	1.443812
784.171000	1.068743
784.374000	-0.485340
784.576000	-0.635116
784.779000	-0.253102
784.982000	0.073905
785.184000	-0.531148
785.387000	0.308701
785.590000	0.983460
785.792000	0.669187
785.995000	0.171707
786.198000	-0.285720
786.400000	-0.774422
786.603000	-0.692605
786.806000	-0.885356
787.008000	-0.370253
787.211000	-0.022351
787.414000	-0.835433
787.616000	-0.979294
787.819000	-0.812360
788.022000	-1.350112
788.224000	-1.027845
788.427000	-1.680047
788.630000	-1.060466
788.832000	-0.633318
789.035000	-1.185227
789.238000	-1.774470
789.440000	-1.312116
789.643000	-0.208703
789.846000	-0.725374
790.048000	-0.310396
790.251000	-0.051745
790.454000	-0.553712
790.656000	-0.051832
790.859000	-0.715784
791.062000	-0.962807
791.264000	-0.210892
791.467000	-0.951577
791.669000	-1.316141
791.872000	-0.607340
792.075000	-1.189945
792.277000	-0.898437
792.480000	-0.580706
792.683000	-0.915477
792.885000	-1.209131
793.088000	-1.301717
793.291000	-1.349160
793.493000	-1.263085
793.696000	-0.540269
793.899000	-0.260518
794.101000	-0.735890
794.304000	-0.856513
794.507000	-0.351453
794.709000	-0.053760
794.912000	-0.788657
795.115000	-1.361023
795.317000	-0.714866
795.520000	-0.386147
795.723000	-0.720887
795.925000	-1.176945
796.128000	-1.857065
796.331000	-1.179298
796.533000	-1.486770
796.736000	-0.759368
796.939000	-0.623067
797.141000	-0.886289
797.344000	-0.301872
797.547000	-0.117103
797.749000	-0.348728
797.952000	-0.784744
798.155000	-1.108003
798.357000	-1.348197
798.560000	-1.340152
798.763000	-0.431660
798.965000	-0.431251
799.168000	-0.745922
799.371000	-0.762482
799.573000	-0.906697
799.776000	-1.743591
799.978000	-2.018578
800.181000	-0.817853
800.384000	1.133430
800.586000	-0.041370
800.789000	-1.663643
800.992000	-1.344636
801.194000	-1.873267
801.397000	-1.862139
801.600000	-1.243537
801.802000	0.503934
802.005000	-0.267259
802.208000	-1.818034
802.410000	-0.364586
802.613000	-0.171755
802.816000	-0.739733
803.018000	-1.473645
803.221000	-1.117889
803.424000	-0.009798
803.626000	-0.500463
803.829000	-1.059901
804.032000	0.253338
804.234000	1.272876
804.437000	-0.340236
804.640000	-0.438965
804.842000	-0.489590
805.045000	-1.289906
805.248000	-0.992555
805.450000	-1.024861
805.653000	-0.746730
805.856000	-0.812813
806.058000	-0.144272
806.261000	-0.766785
806.464000	-0.683390
806.666000	-0.010115
806.869000	-0.756727
807.072000	-1.944206
807.274000	-2.301984
807.477000	-1.218820
807.679000	-0.742804
807.882000	-1.342170
808.085000	-1.058970
808.287000	-0.406111
808.490000	-1.337909
808.693000	-1.338852
808.895000	-0.856723
809.098000	-0.753452
809.301000	-0.860005
809.503000	-1.003047
809.706000	0.112058
809.909000	0.549693
810.111000	0.445281
810.314000	-0.133538
810.517000	-0.973757
810.719000	-1.014469
810.922000	-0.665027
811.125000	0.165899
811.327000	0.255597
811.530000	-0.295814
811.735000	-0.846959
811.940000	-1.080684
812.146000	-1.103139
812.351000	-0.727125
812.556000	-0.909130
812.761000	-1.344592
812.967000	-0.191879
813.172000	-0.245925
813.377000	-0.663877
813.582000	-0.083792
813.788000	-0.249444
813.993000	-1.218477
814.198000	-0.798463
814.403000	-1.420328
814.609000	-0.397837
814.814000	-0.288622
815.019000	0.542947
815.224000	0.210422
815.429000	-0.995927
815.635000	-0.477161
815.840000	-0.347063
816.045000	-0.686043
816.250000	-0.123912
816.456000	-1.384171
816.661000	-2.354060
816.866000	-1.658659
817.071000	-1.203474
817.277000	-1.801617
817.482000	-1.194251
817.687000	-0.526204
817.892000	-0.682569
818.097000	-0.338496
818.303000	-0.030772
818.508000	0.065263
818.713000	6.883893
818.918000	3.708482
819.124000	0.278272
819.329000	-0.652058
819.534000	-0.712394
819.739000	-0.848715
819.945000	-1.067854
820.150000	-0.503524
820.355000	-0.524210
820.560000	-0.601416
820.766000	-0.622661
820.971000	-0.646070
821.176000	-1.819749
821.381000	-2.765328
821.586000	-1.546387
821.792000	-0.411946
821.997000	-1.032827
822.202000	-1.454593
822.407000	-1.599679
822.613000	-1.441929
822.818000	-0.779382
823.023000	-0.315368
823.228000	-0.480176
823.434000	-0.052859
823.639000	0.232263
823.844000	-0.768078
824.049000	0.171719
824.255000	0.582452
824.460000	-0.239013
824.665000	-0.796444
824.870000	-0.012422
825.075000	-0.261190
825.281000	-0.054059
825.486000	1.200528
825.691000	-1.185586
825.896000	-2.069391
826.102000	-0.537620
826.307000	-0.791552
826.512000	-1.449563
826.717000	-1.220879
826.923000	-0.841751
827.128000	-0.204508
827.333000	-1.020574
827.538000	-0.959834
827.744000	-0.358116
827.949000	-0.938810
828.154000	-0.553461
828.359000	0.073470
828.564000	-0.773131
828.770000	-0.928977
828.975000	0.227307
829.180000	-0.298754
829.385000	-2.077307
829.591000	-1.931685
829.796000	-1.254334
830.001000	-0.812656
830.206000	-1.527984
830.412000	-1.237160
830.617000	-1.039405
830.822000	0.390040
831.027000	-0.662040
831.232000	-1.566132
831.438000	-1.327925
831.643000	-0.693362
831.848000	-0.990350
832.053000	-0.674914
832.259000	-1.063849
832.464000	-2.898315
832.669000	-2.380336
832.874000	-1.619485
833.080000	-1.903128
833.285000	-0.036924
833.490000	-0.175515
833.695000	-1.641180
833.901000	-1.158435
834.106000	-1.791764
834.311000	-1.025216
834.516000	0.032970
834.721000	-0.772067
834.927000	-0.109392
835.132000	-0.919743
835.337000	0.629984
835.542000	-0.350472
835.748000	-2.218545
835.953000	-0.471208
836.158000	0.033740
836.363000	-0.667835
836.569000	-0.624243
836.774000	-1.480298
836.979000	-2.264723
837.184000	-2.736033
837.390000	-1.979630
837.595000	-0.901347
837.800000	-0.779999
838.005000	-0.660603
838.210000	-1.008726
838.416000	-1.586294
838.621000	-0.990350
838.826000	-1.414634
839.031000	-1.899213
839.237000	-2.014646
839.442000	-2.220668
839.647000	-2.445161
839.852000	-1.794750
840.058000	-1.367510
840.263000	-1.297312
840.468000	-1.580925
840.673000	-1.273081
840.878000	-1.351355
841.084000	-1.927983
841.289000	-1.388739
841.494000	1.288843
841.699000	1.711928
841.905000	0.614136
842.110000	0.723002
842.315000	-1.417351
842.520000	-0.808347
842.726000	-1.154515
842.931000	-1.629827
843.136000	-0.948726
843.341000	-1.976038
843.547000	-1.382539
843.752000	-0.928113
843.957000	-1.449545
844.162000	-1.836833
844.367000	-1.840837
844.573000	-0.864214
844.778000	-0.889208
844.983000	-1.164822
845.188000	-0.291325
845.394000	-1.846931
845.599000	-2.008379
845.804000	-1.404554
846.009000	-0.408068
846.215000	-1.645451
846.420000	-1.762512
846.625000	-0.638379
846.830000	0.180130
847.036000	-0.950263
847.241000	-1.380317
847.446000	0.380535
847.651000	-0.245252
847.856000	-1.974031
848.062000	-2.124193
848.267000	0.069288
848.472000	-0.944421
848.677000	-2.428654
848.883000	-1.292944
849.088000	0.597381
849.293000	-0.311628
849.498000	-1.573768
849.704000	-0.665425
849.909000	-0.549071
850.114000	-1.729922
850.319000	-0.816598
850.524000	-0.999586
850.730000	-0.676155
850.935000	-1.159487
851.140000	-0.409601
851.345000	-0.078295
851.551000	-0.138939
851.756000	-0.443352
851.961000	-2.210479
852.166000	-2.607648
852.372000	-1.178927
852.577000	-1.525960
852.782000	-2.188506
852.987000	-0.265830
853.193000	-0.328832
853.398000	-0.328930
853.603000	-1.293778
853.808000	-2.445776
854.013000	-1.334006
854.219000	-0.552140
854.424000	0.799930
854.629000	0.896384
854.834000	-1.258232
855.040000	-1.170361
855.245000	-0.624656
855.450000	-2.592605
855.655000	-4.041548
855.861000	-4.099347
856.066000	-3.290563
856.271000	-2.484872
856.476000	0.208328
856.682000	-0.869198
856.887000	-3.872035
857.092000	-1.851738
857.297000	0.801488
857.502000	-0.414698
857.708000	-1.470760
857.913000	-0.284091
858.118000	-0.420064
858.323000	-0.488171
858.529000	-1.622494
858.734000	-1.526482
858.939000	-0.490183
859.144000	-1.435099
859.350000	-2.479770
859.555000	-2.859301
859.760000	-1.073837
859.965000	-0.190245
860.171000	-1.897026
860.376000	-1.219713
860.581000	-2.459696
860.786000	-4.608878
860.991000	-3.797424
861.197000	-2.306151
861.402000	-0.125014
861.607000	-1.445532
861.812000	-3.196648
862.018000	-3.033752
862.223000	-2.302412
862.428000	-0.833190
862.633000	0.367335
862.839000	-0.518916
863.044000	-2.171861
863.249000	-3.202488
863.454000	-1.130570
863.659000	-2.102929
863.865000	-2.870740
864.070000	-3.022907
864.275000	-2.520889
864.480000	-1.768330
864.686000	-3.637373
864.891000	-3.750054
865.096000	-1.600905
865.301000	-0.316365
865.507000	-1.169298
865.712000	-1.243221
865.917000	-1.549121
866.122000	-0.395801
866.328000	-3.627474
866.533000	-3.099588
866.738000	0.315614
866.943000	-0.060244
867.148000	1.264658
867.354000	-1.854634
867.559000	-3.992815
867.764000	-2.324542
867.969000	-0.485772
868.175000	-2.443716
868.380000	-2.992099
868.585000	-3.497902
868.790000	-1.766610
868.996000	-1.895279
869.201000	-2.995035
869.406000	-4.107466
869.611000	-3.090858
869.817000	-2.301819
870.022000	1.711214
870.227000	-0.102767
870.432000	-2.605652
870.637000	-0.739643
870.843000	-1.943844
871.048000	-2.905169
871.253000	-0.584573
871.458000	-1.271662
871.664000	-2.778184
871.869000	-3.039024
872.074000	-2.803017
872.279000	-1.086361
872.485000	-1.874334
872.690000	-1.965024
872.895000	-2.387672
873.100000	-3.428036
873.306000	-3.317577
873.511000	-2.081637
873.716000	0.058885
873.921000	-2.542212
874.126000	-2.588276
874.332000	-1.977306
874.537000	-0.963695
874.742000	-1.173103
874.947000	-1.775655
875.153000	0.146487
875.358000	-0.975992
875.563000	-1.406541
875.768000	-3.535442
875.974000	-4.550575
876.179000	-0.854352
876.384000	-0.157684
876.589000	-2.192225
876.794000	-1.884982
877.000000	-3.082228
877.205000	-4.449413
877.410000	-1.315617
877.615000	-2.999504
877.821000	-5.577705
878.026000	-3.385890
878.231000	-3.519452
878.436000	-4.332696
878.642000	-3.414246
878.847000	-1.837658
879.052000	-0.659891
879.257000	-3.264312
879.463000	-3.588396
879.668000	-3.041472
879.873000	-0.531854
880.078000	-3.107020
880.283000	-5.841425
880.489000	-4.549384
880.694000	-3.781366
880.899000	-2.362506
881.104000	-0.121887
881.310000	1.987638
881.515000	0.440149
881.720000	1.614633
881.925000	3.039790
882.131000	3.889664
882.336000	0.019027
882.541000	-3.576468
882.746000	-4.316785
882.952000	-4.263644
883.157000	-3.164606
883.362000	-3.555989
883.567000	-3.910495
883.772000	-3.848868
883.978000	-3.804060
884.183000	-3.075712
884.388000	-2.382272
884.593000	-4.835120
884.799000	-0.275840
885.004000	-0.579453
885.209000	-1.579188
885.414000	-0.976139
885.620000	-3.441199
885.825000	-1.495502
886.030000	-2.148103
886.235000	-3.581866
886.440000	-2.742022
886.646000	-5.522793
886.851000	-4.725206
887.056000	-0.031050
887.261000	-0.445411
887.467000	-3.515385
887.672000	-1.287985
887.877000	-4.031009
888.082000	-6.218139
888.288000	-5.721309
888.493000	-7.815969
888.698000	-6.052569
888.903000	-2.061876
889.109000	-2.377441
889.314000	0.341351
889.519000	-1.307081
889.724000	-0.031926
889.929000	-1.843209
890.135000	-3.236963
890.340000	-3.368748
890.545000	-3.421002
890.750000	-4.884075
890.956000	-3.656320
891.161000	-0.464481
891.366000	-3.011412
891.571000	-2.312721
891.777000	-2.640917
891.982000	-1.288685
892.187000	-1.020012
892.392000	-0.196952
892.598000	0.847327
892.803000	0.910325
893.008000	-2.473186
893.213000	-3.075021
893.418000	-2.539735
893.624000	-2.272600
893.829000	-4.961564
894.034000	-3.905881
894.239000	-1.218133
894.445000	-3.015773
894.650000	-3.087522
894.855000	-3.600939
895.060000	-4.103646
895.266000	-4.129867
895.471000	-5.498356
895.676000	-1.919149
895.881000	-1.993278
896.087000	-2.742727
896.292000	-2.470593
896.497000	0.664391
896.702000	-0.092874
896.907000	-3.116084
897.113000	0.431795
897.318000	0.081650
897.523000	-0.678309
897.728000	-2.324520
897.934000	-2.902137
898.139000	-3.320845
898.344000	-0.213205
898.549000	-1.524757
898.755000	-2.839110
898.960000	-4.236952
899.165000	-6.280232
899.370000	-2.086173
899.575000	1.414481
899.781000	-3.431066
899.986000	-4.158716
900.191000	-2.354983
900.396000	-2.724202
900.602000	-1.757397
900.807000	-2.079226
901.012000	-1.905913
901.217000	-0.474539
901.423000	-2.090771
901.628000	-4.782417
901.833000	-1.167049
902.038000	1.163475
902.244000	-2.560186
902.449000	-2.638691
902.654000	-1.961418
902.859000	-1.637083
903.064000	0.218467
903.270000	0.864115
903.475000	-4.233536
903.680000	-7.194825
903.885000	-5.757554
904.091000	-3.892956
904.296000	-5.482296
904.501000	-4.582320
904.706000	-4.332866
904.912000	-1.775891
905.117000	-2.721929
905.322000	-4.636457
905.527000	-3.404034
905.733000	-2.598459
905.938000	-2.614721
906.143000	-2.714695
906.348000	-6.215875
906.553000	-2.183561
906.759000	-0.593889
906.964000	-2.331828
907.169000	-4.508469
907.374000	-6.726704
907.580000	-4.032314
907.785000	-3.745742
907.990000	25.913434
908.195000	19.465279
908.401000	1.108480
908.606000	-7.787524
908.811000	-11.105715
909.016000	-3.725886
909.221000	-3.447941
909.427000	-2.884787
909.632000	-4.379871
909.837000	-4.780393
910.042000	-5.239526
910.248000	-7.652187
910.453000	-5.141010
910.658000	-5.104688
910.863000	-4.194153
911.069000	-7.086391
911.274000	-2.028656
911.479000	0.721305
911.684000	-6.562667
911.890000	-4.679696
912.095000	-3.834969
912.300000	-6.432002
912.506000	-6.045836
912.711000	-5.332364
912.917000	-1.784305
913.123000	-2.655141
913.328000	-3.705182
913.534000	-2.455334
913.740000	6.577326
913.946000	2.062651
914.151000	-5.647302
914.357000	-6.322429
914.563000	-1.267939
914.768000	-4.472634
914.974000	-6.755120
915.180000	-6.152119
915.385000	-2.735906
915.591000	-6.062278
915.797000	-1.919780
916.002000	1.402334
916.208000	-5.754343
916.414000	-8.227171
916.620000	-8.331009
916.825000	-3.685431
917.031000	-3.774817
917.237000	-10.308642
917.442000	-6.290631
917.648000	-6.162905
917.854000	-8.282573
918.059000	-2.459093
918.265000	-2.278041
918.471000	-5.509295
918.676000	-9.364602
918.882000	-9.517393
919.088000	-7.711717
919.294000	-13.466303
919.499000	-7.177418
919.705000	-0.055798
919.911000	-3.496500
920.116000	-1.089505
920.322000	-8.828536
920.528000	-7.168893
920.733000	-7.268963
920.939000	-8.554049
921.145000	-7.571396
921.350000	-7.668483
921.556000	-4.977311
921.762000	-4.866697
921.968000	-5.766175
922.173000	-7.686917
922.379000	-9.155485
922.585000	-4.791112
922.790000	-5.001266
922.996000	-5.954775
923.202000	-6.438124
923.407000	-6.581913
923.613000	-6.383507
923.819000	-5.992560
924.024000	-6.058973
924.230000	-2.975768
924.436000	-5.507538
924.642000	5.978874
924.847000	2.827660
925.053000	-3.916063
925.259000	-9.278495
925.464000	-2.868579
925.670000	-4.267056
925.876000	-8.238136
926.081000	-8.501418
926.287000	-3.688971
926.493000	-2.078129
926.698000	-2.081595
926.904000	-0.177964
927.110000	-5.102386
927.316000	-5.910473
927.521000	0.726475
927.727000	-3.180030
927.933000	-6.549653
928.138000	-6.578316
928.344000	-11.240057
928.550000	-5.958030
928.755000	1.357738
928.961000	-4.706996
929.167000	-4.496514
929.372000	2.569341
929.578000	-0.072701
929.784000	-7.152421
929.990000	-10.128126
930.195000	-6.712580
930.401000	-4.037707
930.607000	-2.060967
930.812000	-2.081110
931.018000	-8.510026
931.224000	-16.278499
931.429000	-10.969584
931.635000	-12.352448
931.841000	-13.377162
932.046000	-7.719356
932.252000	-2.552429
932.458000	5.440086
932.664000	1.249092
932.869000	-6.198783
933.075000	-10.124880
933.281000	-9.589814
933.486000	-3.936089
933.692000	-5.474536
933.898000	-8.042426
934.103000	-2.035506
934.309000	-7.487473
934.515000	-0.520875
934.720000	2.235844
934.926000	2.254596
935.132000	1.084249
935.338000	-4.976418
935.543000	-12.409203
935.749000	-13.587088
935.955000	-14.411300
936.160000	-11.650282
936.366000	-5.831667
936.572000	-9.425982
936.777000	-5.261350
936.983000	-0.582372
937.189000	-6.945444
937.394000	-11.666091
937.600000	-1.925707
937.806000	4.749003
938.012000	-3.159374
938.217000	7.426781
938.423000	1.275350
938.629000	-6.825837
938.834000	-16.596536
939.040000	-14.295344
939.246000	-8.951041
939.451000	-11.034292
939.657000	-5.354613
939.863000	-10.383654
940.068000	-4.371585
940.274000	-7.199025
940.480000	-1.436281
940.686000	-0.307898
940.891000	-6.602300
941.097000	16.373487
941.303000	3.777257
941.508000	-10.888870
941.714000	-6.025389
941.920000	-13.684915
942.125000	-3.929857
942.331000	-2.336663
942.537000	2.093354
942.742000	-1.545301
942.948000	-8.459711
943.154000	-12.917827
943.360000	-27.238535
943.565000	-11.324681
943.771000	4.899608
943.977000	6.321808
944.182000	-13.203235
944.388000	-17.013534
944.594000	-6.042819
944.799000	2.859972
945.005000	-0.965343
945.211000	5.135706
945.416000	3.077671
945.622000	-11.270582
945.828000	-13.124836
946.034000	0.308172
946.239000	-2.789027
946.445000	-15.386281
946.651000	-26.810311
946.856000	-20.572215
947.062000	-2.095087
947.268000	0.966981
947.473000	-17.785300
947.679000	-21.001654
947.885000	-4.142109
948.090000	2.330243
948.296000	8.521657
948.502000	-4.850727
948.708000	-12.142087
948.913000	-14.807749
949.119000	-7.240762
949.325000	-9.308908
949.530000	-19.410091
949.736000	-20.486481
949.942000	-11.751823
950.147000	-18.260724
950.353000	-16.058570
950.559000	-7.419973
950.764000	13.645990
950.970000	10.963470
951.176000	-3.416119
951.382000	-13.127165
951.587000	-4.955401
951.793000	3.486867
951.999000	7.017807
952.204000	-9.303929
952.410000	-28.093066
952.616000	-11.756533
952.821000	-6.107269
953.027000	-12.809318
953.233000	-16.688662
953.438000	-14.358620
953.644000	-0.146955
953.850000	-4.558637
954.056000	-11.294267
954.261000	-11.613677
954.467000	-0.649492
954.673000	7.827451
954.878000	-6.403545
955.084000	-3.906981
955.290000	-18.507256
955.495000	-22.092042
955.701000	-17.002693
955.907000	1.383082
956.112000	0.614766
956.318000	3.655796
956.524000	0.359519
956.730000	-8.503341
956.935000	-11.668598
957.141000	-15.746919
957.347000	-4.377023
957.552000	-6.479651
957.758000	-28.888516
957.964000	-37.702302
958.169000	1.712320
958.375000	2.522760
958.581000	-14.185675
958.786000	-22.163130
958.992000	-28.508465
959.198000	-10.091013
959.404000	0.109893
959.609000	-7.233918
959.815000	-15.419306
960.021000	3.189262
960.226000	-2.144998
960.432000	-26.800319
960.638000	-22.331508
960.843000	-8.754161
961.049000	-6.891937
961.255000	-1.620873
961.460000	-17.083398
961.666000	-40.431029
961.872000	-24.824459
962.078000	-18.788058
962.283000	-26.559203
962.489000	-23.093049
962.695000	-12.866290
962.900000	-9.169237
963.106000	-12.297351
963.312000	-21.048264
963.517000	-30.462178
963.723000	-33.324075
963.929000	-1.742322
964.134000	12.234489
964.340000	-15.260083
964.546000	-24.635625
964.752000	-26.305728
964.957000	-28.459769
965.163000	-1.165573
965.369000	-11.349494
965.574000	-6.164206
965.780000	-11.808005
966.000000	-24.763902
966.220000	-8.882843
966.440000	-9.265555
966.661000	-1.553598
966.881000	-17.142107
967.101000	-34.314716
967.321000	-36.174346
967.541000	-8.100246
967.761000	-20.346169
967.981000	-19.291346
968.202000	-8.026461
968.422000	0.855790
968.642000	1.564122
968.862000	-0.217747
969.082000	-17.766978
969.302000	-11.928297
969.522000	-14.321120
969.743000	-0.216772
969.963000	-21.638245
970.183000	-32.617415
970.403000	-27.528979
970.623000	-20.619036
970.843000	0.152590
971.063000	5.965363
971.284000	-15.822409
971.504000	-33.814313
971.724000	-16.072891
971.944000	-28.150512
972.164000	-36.362592
972.384000	-31.313450
972.604000	-40.651524
972.825000	-46.229287
973.045000	-29.261798
973.265000	26.886727
973.485000	21.103623
973.705000	-7.410838
973.925000	-19.918715
974.145000	-50.746859
974.365000	-15.147208
974.586000	-7.309747
974.806000	-24.544215
975.026000	3.713692
975.246000	-14.670373
975.466000	-28.424693
975.686000	-16.544673
975.906000	-31.976934
976.127000	-51.027429
976.347000	-40.684745
976.567000	-11.307879
976.787000	-9.498426
977.007000	-20.536904
977.227000	-23.784290
977.447000	-31.095487
977.668000	-54.660188
977.888000	-40.171274
978.108000	-44.873710
978.328000	-24.624117
978.548000	10.464223
978.768000	19.126931
978.988000	2.289582
979.209000	-6.008761
979.429000	-19.588751
979.649000	-11.000800
979.869000	-38.338116
980.089000	-50.558529
980.309000	-41.572877
980.529000	-52.244677
980.750000	-41.132807
980.970000	-51.233118
981.190000	-27.940925
981.410000	-25.583142
981.630000	-34.713297
981.850000	-26.279959
982.070000	-27.902340
982.291000	-59.622303
982.511000	-45.310005
982.731000	-1.550047
982.951000	-18.938065
983.171000	-26.800998
983.391000	-25.428751
983.611000	-7.016319
983.832000	-34.979333
984.052000	-60.521924
984.272000	-26.463731
984.492000	-16.687459
984.712000	-23.718369
984.932000	-44.636419
985.152000	-42.602042
985.373000	-26.721589
985.593000	-15.420373
985.813000	-33.616841
986.033000	-49.335551
986.253000	-6.614554
986.473000	10.745031
986.693000	-21.992424
986.914000	-38.550905
987.134000	5.224529
987.354000	-35.625792
987.574000	166.726667
987.794000	97.445665
988.014000	-53.705245
988.234000	-45.005514
988.455000	-19.524973
988.675000	-17.323182
988.895000	-9.201689
989.115000	-24.572154
989.335000	-30.140810
989.555000	-13.718230
989.775000	-57.805343
989.995000	-46.613876
990.216000	-38.133860
990.436000	-22.035296
990.656000	19.758972
990.876000	-31.805456
991.096000	-16.516461
991.316000	21.204736
991.536000	-24.244551
991.757000	-43.905837
991.977000	-69.979539
992.197000	-12.130772
992.417000	-21.516634
992.637000	-78.627342
992.857000	-81.992563
993.077000	-73.877433
993.298000	-49.938191
993.518000	-57.830675
993.738000	-86.978976
993.958000	-47.768109
994.178000	-53.934530
994.398000	-55.463427
994.618000	-99.022758
994.839000	-130.822563
995.059000	-30.924296
995.279000	24.786885
995.499000	-14.505910
995.719000	-1.644252
995.939000	-22.244783
996.159000	-21.556698
996.380000	-15.562668
996.600000	-66.874422
996.820000	-45.842107
997.040000	1.569304
997.260000	-58.338423
997.480000	-35.705474
997.700000	-101.935556
997.921000	-71.001031
998.141000	20.813178
998.361000	0.456949
998.581000	-50.556436
998.801000	-82.859739
999.021000	-79.668874
999.241000	-32.242138
999.462000	-36.486540
999.682000	-114.379718
999.902000	-76.200942
1000.122000	-82.981798
1000.342000	-153.942853
1000.562000	-73.477467
1000.782000	-82.965996
1001.003000	-1014.422392
