Wavelength	Irradiance
(nm)	(mW/cm2/nm)

294.396000	0.000000
294.577000	0.000000
294.757000	-0.000000
294.938000	-0.000000
295.118000	-0.000000
295.299000	0.000000
295.479000	-0.000000
295.660000	-0.000000
295.840000	-0.000000
296.021000	-0.000000
296.202000	-0.000000
296.382000	-0.000000
296.563000	-0.000000
296.743000	-0.000000
296.924000	-0.000000
297.104000	-0.000000
297.285000	-0.000000
297.465000	-0.000000
297.646000	-0.000000
297.826000	-0.000000
298.007000	0.000000
298.187000	0.000000
298.368000	-0.000000
298.548000	0.000000
298.729000	0.000000
298.909000	-0.000000
299.090000	-0.000000
299.270000	-0.000000
299.451000	-0.000000
299.631000	-0.000000
299.812000	-0.000000
299.992000	0.000000
300.173000	0.000000
300.353000	-0.000000
300.534000	0.000000
300.714000	0.000000
300.895000	0.000000
301.075000	-0.000000
301.256000	0.000000
301.436000	-0.000000
301.617000	-0.000000
301.797000	-0.000000
301.978000	-0.000000
302.159000	0.000000
302.339000	0.000000
302.520000	-0.000000
302.700000	-0.000000
302.881000	0.000000
303.061000	0.000000
303.242000	0.000000
303.422000	0.000000
303.603000	-0.000000
303.783000	-0.000000
303.964000	-0.000000
304.144000	-0.000000
304.325000	-0.000000
304.505000	0.000000
304.686000	0.000000
304.866000	0.000000
305.047000	-0.000000
305.227000	-0.000000
305.408000	-0.000000
305.588000	-0.000000
305.769000	-0.000000
305.949000	-0.000000
306.130000	-0.000000
306.310000	-0.000000
306.491000	-0.000000
306.671000	0.000000
306.852000	-0.000000
307.032000	-0.000000
307.213000	0.000000
307.393000	-0.000000
307.574000	0.000000
307.755000	0.000000
307.935000	0.000000
308.116000	-0.000000
308.296000	-0.000000
308.477000	-0.000000
308.657000	0.000000
308.838000	0.000000
309.018000	0.000000
309.199000	-0.000000
309.379000	-0.000000
309.560000	0.000000
309.740000	-0.000000
309.921000	-0.000000
310.101000	0.000000
310.282000	-0.000000
310.462000	-0.000000
310.643000	-0.000000
310.823000	-0.000000
311.004000	-0.000000
311.184000	-0.000000
311.365000	0.000000
311.545000	0.000000
311.726000	0.000000
311.906000	0.000000
312.087000	0.000000
312.267000	-0.000000
312.448000	-0.000000
312.628000	-0.000000
312.809000	-0.000000
312.989000	-0.000000
313.170000	-0.000000
313.344000	-0.000000
313.518000	-0.000000
313.691000	-0.000000
313.865000	-0.000000
314.039000	-0.000000
314.213000	-0.000000
314.387000	-0.000000
314.560000	-0.000000
314.734000	-0.000000
314.908000	-0.000000
315.082000	-0.000000
315.255000	0.000000
315.429000	0.000000
315.603000	0.000000
315.777000	-0.000000
315.951000	0.000000
316.124000	-0.000000
316.298000	-0.000000
316.472000	-0.000000
316.646000	-0.000000
316.820000	-0.000000
316.993000	-0.000000
317.167000	-0.000000
317.341000	-0.000000
317.515000	-0.000000
317.688000	-0.000000
317.862000	-0.000000
318.036000	-0.000000
318.210000	-0.000000
318.384000	-0.000000
318.557000	-0.000000
318.731000	-0.000000
318.905000	0.000000
319.079000	0.000000
319.253000	-0.000000
319.426000	0.000000
319.600000	0.000000
319.774000	-0.000000
319.948000	-0.000000
320.122000	0.000000
320.295000	0.000000
320.469000	-0.000000
320.643000	-0.000000
320.817000	-0.000000
320.990000	-0.000000
321.164000	-0.000000
321.338000	-0.000000
321.512000	-0.000000
321.686000	-0.000000
321.859000	-0.000000
322.033000	-0.000000
322.207000	-0.000000
322.381000	-0.000000
322.555000	-0.000000
322.728000	-0.000000
322.902000	-0.000000
323.076000	-0.000000
323.250000	-0.000000
323.423000	-0.000000
323.597000	-0.000000
323.771000	-0.000000
323.945000	-0.000000
324.119000	-0.000000
324.292000	0.000000
324.466000	-0.000000
324.640000	0.000000
324.814000	0.000000
324.988000	-0.000000
325.161000	-0.000000
325.335000	-0.000000
325.509000	-0.000000
325.683000	0.000000
325.856000	-0.000000
326.030000	-0.000000
326.204000	-0.000000
326.378000	-0.000000
326.552000	-0.000000
326.725000	-0.000000
326.899000	-0.000000
327.073000	-0.000000
327.247000	-0.000000
327.421000	0.000000
327.594000	-0.000000
327.768000	-0.000000
327.942000	-0.000000
328.116000	0.000000
328.289000	0.000000
328.463000	-0.000000
328.637000	0.000000
328.811000	-0.000000
328.985000	-0.000000
329.158000	-0.000000
329.332000	-0.000000
329.506000	0.000000
329.680000	-0.000000
329.854000	-0.000000
330.027000	-0.000000
330.201000	0.000000
330.375000	0.000000
330.549000	0.000000
330.723000	-0.000000
330.896000	-0.000000
331.070000	-0.000000
331.244000	-0.000000
331.418000	-0.000000
331.591000	-0.000000
331.765000	-0.000000
331.939000	-0.000000
332.113000	-0.000000
332.287000	-0.000000
332.460000	0.000000
332.634000	0.000000
332.808000	-0.000000
332.982000	-0.000000
333.156000	-0.000000
333.329000	0.000000
333.503000	-0.000000
333.677000	-0.000000
333.851000	-0.000000
334.024000	-0.000000
334.198000	-0.000000
334.372000	-0.000000
334.546000	-0.000000
334.720000	-0.000000
334.893000	-0.000000
335.067000	-0.000000
335.241000	-0.000000
335.415000	-0.000000
335.589000	-0.000000
335.762000	-0.000000
335.936000	-0.000000
336.110000	-0.000000
336.284000	-0.000000
336.458000	-0.000000
336.631000	-0.000000
336.805000	-0.000000
336.979000	-0.000000
337.153000	-0.000000
337.326000	-0.000000
337.500000	0.000000
337.674000	-0.000000
337.848000	-0.000000
338.022000	-0.000000
338.195000	-0.000000
338.369000	-0.000000
338.543000	-0.000000
338.717000	-0.000000
338.891000	0.000000
339.064000	0.000000
339.238000	-0.000000
339.412000	-0.000000
339.586000	-0.000000
339.759000	-0.000000
339.933000	-0.000000
340.107000	0.000000
340.281000	-0.000000
340.455000	-0.000000
340.628000	-0.000000
340.802000	-0.000000
340.976000	0.000000
341.150000	-0.000000
341.324000	-0.000000
341.497000	-0.000000
341.671000	-0.000000
341.845000	-0.000000
342.019000	-0.000000
342.192000	-0.000000
342.366000	-0.000000
342.540000	-0.000000
342.714000	-0.000000
342.888000	-0.000000
343.061000	-0.000000
343.235000	-0.000000
343.409000	-0.000000
343.583000	-0.000000
343.757000	-0.000000
343.930000	-0.000000
344.104000	-0.000000
344.278000	0.000000
344.452000	0.000000
344.626000	-0.000000
344.799000	-0.000000
344.973000	-0.000000
345.147000	-0.000000
345.321000	-0.000000
345.494000	-0.000000
345.668000	0.000000
345.842000	0.000000
346.016000	-0.000000
346.190000	0.000000
346.363000	-0.000000
346.537000	-0.000000
346.711000	-0.000000
346.885000	-0.000000
347.059000	-0.000000
347.232000	0.000000
347.406000	0.000000
347.580000	-0.000000
347.754000	-0.000000
347.927000	-0.000000
348.101000	0.000000
348.275000	-0.000000
348.449000	-0.000000
348.623000	-0.000000
348.796000	0.000000
348.970000	0.000000
349.144000	-0.000000
349.318000	-0.000000
349.492000	-0.000000
349.665000	-0.000000
349.839000	-0.000000
350.013000	-0.000000
350.187000	-0.000000
350.361000	-0.000000
350.534000	-0.000000
350.708000	-0.000000
350.882000	-0.000000
351.056000	0.000000
351.229000	-0.000000
351.403000	-0.000000
351.577000	-0.000000
351.751000	-0.000000
351.925000	-0.000000
352.098000	-0.000000
352.272000	-0.000000
352.446000	-0.000000
352.620000	-0.000000
352.794000	-0.000000
352.967000	-0.000000
353.141000	0.000000
353.315000	0.000000
353.489000	-0.000000
353.662000	-0.000000
353.836000	-0.000000
354.010000	-0.000000
354.184000	0.000000
354.358000	-0.000000
354.531000	-0.000000
354.705000	-0.000000
354.879000	-0.000000
355.053000	-0.000000
355.227000	0.000000
355.400000	-0.000000
355.574000	0.000000
355.748000	0.000000
355.922000	-0.000000
356.095000	-0.000000
356.269000	-0.000000
356.443000	-0.000000
356.617000	-0.000000
356.791000	-0.000000
356.964000	-0.000000
357.138000	-0.000000
357.312000	-0.000000
357.486000	-0.000000
357.660000	0.000000
357.833000	-0.000000
358.007000	-0.000000
358.181000	-0.000000
358.355000	-0.000000
358.529000	-0.000000
358.702000	-0.000000
358.876000	-0.000000
359.050000	-0.000000
359.224000	-0.000000
359.397000	0.000000
359.571000	-0.000000
359.745000	-0.000000
359.919000	-0.000000
360.093000	-0.043926
360.266000	0.026408
360.440000	0.144532
360.614000	0.087134
360.788000	-0.035296
360.962000	-0.212899
361.135000	-0.102246
361.309000	-0.187324
361.483000	-0.254547
361.657000	-0.202724
361.830000	-0.153864
362.004000	-0.041295
362.178000	-0.334651
362.352000	-0.179837
362.526000	0.019326
362.699000	-0.046641
362.873000	-0.360291
363.047000	-0.372309
363.221000	-0.332460
363.395000	-0.090042
363.568000	-0.052206
363.742000	-0.177675
363.916000	-0.270523
364.090000	-0.367098
364.263000	-0.355770
364.437000	-0.408822
364.611000	-0.059573
364.785000	-0.065658
364.959000	-0.228222
365.132000	-0.250940
365.306000	-0.161324
365.480000	0.010529
365.656000	-0.049548
365.831000	-0.108581
366.007000	-0.157975
366.183000	-0.160297
366.358000	-0.336680
366.534000	-0.175447
366.710000	-0.381008
366.886000	-0.255498
367.061000	-0.035879
367.237000	0.041814
367.413000	-0.108063
367.588000	-0.290081
367.764000	-0.298198
367.940000	-0.307013
368.115000	-0.240423
368.291000	-0.314218
368.467000	-0.243508
368.643000	0.141979
368.818000	-0.168907
368.994000	-0.371193
369.170000	-0.303876
369.345000	-0.146178
369.521000	-0.205636
369.697000	-0.113821
369.872000	-0.150027
370.048000	-0.296553
370.224000	-0.224816
370.399000	-0.485674
370.575000	-0.367397
370.751000	-0.463835
370.927000	-0.471833
371.102000	-0.421463
371.278000	-0.359372
371.454000	-0.310648
371.629000	-0.053628
371.805000	-0.069811
371.981000	0.016975
372.156000	0.185423
372.332000	0.053758
372.508000	0.054699
372.683000	-0.015612
372.859000	-0.102474
373.035000	-0.120015
373.211000	0.330481
373.386000	0.082837
373.562000	-0.409374
373.738000	-0.472749
373.913000	-0.619362
374.089000	-0.517451
374.265000	-0.076100
374.440000	0.028169
374.616000	0.072200
374.792000	-0.138870
374.968000	0.124036
375.143000	-0.069728
375.319000	-0.300705
375.495000	-0.404678
375.670000	-0.349556
375.846000	-0.216738
376.022000	-0.246449
376.197000	-0.168208
376.373000	-0.449123
376.549000	-0.484925
376.724000	-0.513613
376.900000	-0.366879
377.076000	-0.122349
377.252000	0.079086
377.427000	0.100668
377.603000	-0.260899
377.779000	-0.170261
377.954000	-0.325359
378.130000	-0.261661
378.306000	-0.274790
378.481000	-0.220933
378.657000	-0.267022
378.833000	-0.318945
379.009000	-0.195970
379.184000	-0.089347
379.360000	-0.057121
379.536000	0.005812
379.711000	-0.203589
379.887000	-0.327623
380.063000	-0.318909
380.238000	-0.363341
380.414000	-0.036179
380.590000	-0.243005
380.765000	-0.258086
380.941000	-0.171702
381.117000	-0.175793
381.293000	-0.211596
381.468000	-0.316672
381.644000	-0.269474
381.820000	-0.072234
381.995000	0.011020
382.171000	0.227241
382.347000	0.111113
382.522000	-0.266537
382.698000	0.162035
382.874000	0.109769
383.050000	-0.297976
383.225000	0.073721
383.401000	0.262803
383.577000	-0.031169
383.752000	-0.160091
383.928000	-0.149393
384.104000	-0.116044
384.279000	-0.153258
384.455000	-0.102550
384.631000	-0.149147
384.806000	-0.359154
384.982000	-0.231990
385.158000	-0.213147
385.334000	-0.091858
385.509000	-0.133465
385.685000	-0.397277
385.861000	-0.187927
386.036000	-0.397005
386.212000	-0.542879
386.388000	-0.383420
386.563000	-0.188536
386.739000	-0.257654
386.915000	-0.561351
387.090000	-0.248914
387.266000	-0.035731
387.442000	0.062601
387.618000	0.015911
387.793000	-0.222086
387.969000	-0.475507
388.145000	-0.396754
388.320000	-0.339638
388.496000	-0.381036
388.672000	-0.591990
388.847000	-0.142513
389.023000	-0.148572
389.199000	-0.449075
389.375000	-0.152312
389.550000	-0.146101
389.726000	-0.105926
389.902000	-0.392495
390.077000	-0.209969
390.253000	-0.060663
390.429000	-0.225106
390.604000	-0.299930
390.780000	-0.212303
390.956000	-0.260939
391.131000	-0.280513
391.307000	0.065784
391.483000	-0.145070
391.659000	-0.291595
391.834000	0.010531
392.010000	-0.169763
392.186000	-0.300278
392.361000	-0.240641
392.537000	-0.407493
392.713000	0.000494
392.888000	0.272542
393.064000	-0.009432
393.240000	-0.217371
393.416000	-0.245561
393.591000	-0.267160
393.767000	-0.302815
393.943000	-0.259735
394.118000	0.068845
394.294000	0.200545
394.470000	-0.023848
394.645000	0.102365
394.821000	0.254225
394.997000	-0.052856
395.172000	-0.120107
395.348000	-0.178340
395.524000	-0.425050
395.700000	-0.247665
395.875000	-0.095285
396.051000	-0.071251
396.227000	-0.100687
396.402000	-0.202928
396.578000	-0.120286
396.754000	-0.278185
396.929000	-0.253026
397.105000	0.110325
397.281000	0.057771
397.457000	-0.123298
397.632000	-0.183234
397.808000	-0.445122
397.984000	-0.584291
398.159000	-0.366240
398.335000	-0.194359
398.511000	0.185462
398.686000	-0.004264
398.862000	-0.267789
399.038000	-0.398536
399.213000	-0.209776
399.389000	-0.437208
399.565000	-0.182557
399.741000	0.028595
399.916000	0.019405
400.092000	0.240676
400.268000	-0.144338
400.443000	-0.179147
400.619000	0.146730
400.795000	-0.037409
400.970000	-0.312604
401.146000	-0.205935
401.322000	0.161044
401.497000	0.411045
401.673000	0.028936
401.849000	-0.264286
402.025000	-0.032484
402.200000	-0.163856
402.376000	-0.374966
402.552000	0.141842
402.727000	-0.037053
402.903000	-0.266316
403.079000	-0.177508
403.254000	0.052032
403.430000	-0.004191
403.606000	-0.092814
403.782000	-0.046116
403.957000	-0.270474
404.133000	-0.472562
404.309000	-0.261726
404.484000	-0.041521
404.660000	0.000468
404.841000	-0.102518
405.023000	0.177379
405.204000	0.098524
405.385000	-0.210615
405.566000	-0.261035
405.748000	-0.145798
405.929000	0.033668
406.110000	-0.037028
406.292000	-0.217631
406.473000	-0.143740
406.654000	-0.219903
406.835000	-0.050933
407.017000	-0.055396
407.198000	-0.105412
407.379000	-0.077579
407.560000	-0.077822
407.742000	-0.069144
407.923000	-0.008866
408.104000	-0.110995
408.286000	-0.092231
408.467000	-0.073510
408.648000	-0.217501
408.829000	-0.290676
409.011000	-0.226261
409.192000	-0.422235
409.373000	-0.161894
409.555000	-0.018094
409.736000	-0.017973
409.917000	-0.142932
410.098000	-0.054681
410.280000	0.132747
410.461000	0.005009
410.642000	-0.054288
410.823000	0.233035
411.005000	0.164839
411.186000	-0.127482
411.367000	-0.241921
411.549000	-0.086371
411.730000	0.178632
411.911000	0.178331
412.092000	-0.008640
412.274000	-0.022114
412.455000	0.063765
412.636000	0.113615
412.818000	-0.134804
412.999000	-0.236887
413.180000	-0.071630
413.361000	-0.040244
413.543000	-0.071513
413.724000	-0.134136
413.905000	-0.170031
414.087000	-0.134421
414.268000	-0.092930
414.449000	-0.146560
414.630000	-0.205267
414.812000	-0.352129
414.993000	0.000442
415.174000	0.164233
415.355000	0.013808
415.537000	-0.141457
415.718000	0.138051
415.899000	0.115511
416.081000	0.053331
416.262000	0.119198
416.443000	-0.043436
416.624000	0.031079
416.806000	0.118853
416.987000	0.286878
417.168000	0.267639
417.350000	0.048610
417.531000	0.026553
417.712000	0.061372
417.893000	0.278901
418.075000	0.416569
418.256000	0.152591
418.437000	0.231772
418.618000	0.470137
418.800000	0.551903
418.981000	0.233750
419.162000	0.326689
419.344000	0.549207
419.525000	0.478320
419.706000	0.457104
419.887000	0.638488
420.069000	0.767895
420.250000	0.581295
420.431000	0.489074
420.613000	0.478356
420.794000	0.226790
420.975000	0.655243
421.156000	0.548600
421.338000	0.444647
421.519000	0.453180
421.700000	0.454524
421.882000	0.480387
422.063000	0.647428
422.244000	1.103348
422.425000	0.874934
422.607000	0.596793
422.788000	0.633021
422.969000	0.611432
423.150000	0.637988
423.332000	0.571718
423.513000	0.754523
423.694000	0.823463
423.876000	0.915975
424.057000	1.075931
424.238000	1.184023
424.419000	1.209209
424.601000	1.009073
424.782000	1.077544
424.963000	1.193508
425.145000	1.149261
425.326000	1.269037
425.507000	1.357342
425.688000	1.342663
425.870000	1.135694
426.051000	1.011732
426.232000	1.127831
426.413000	1.173420
426.595000	1.283530
426.776000	1.248509
426.957000	1.357630
427.139000	1.545569
427.320000	1.621571
427.501000	1.779787
427.682000	1.797001
427.864000	1.860728
428.045000	2.108571
428.226000	2.072673
428.408000	1.771227
428.589000	1.984107
428.770000	2.074467
428.951000	2.040815
429.133000	1.914561
429.314000	2.096161
429.495000	2.149003
429.677000	2.353801
429.858000	2.317727
430.039000	2.466526
430.220000	2.630247
430.402000	2.810500
430.583000	2.593806
430.764000	2.579202
430.945000	2.905595
431.127000	3.059286
431.308000	2.935145
431.489000	3.134508
431.671000	3.326932
431.852000	3.287693
432.033000	3.347521
432.214000	3.451182
432.396000	3.552002
432.577000	3.445429
432.758000	3.475813
432.940000	3.612158
433.121000	3.790633
433.302000	3.938652
433.483000	4.268224
433.665000	4.523690
433.846000	4.434197
434.027000	4.251319
434.208000	4.233189
434.390000	4.379072
434.571000	4.994701
434.752000	5.437727
434.934000	5.183850
435.115000	5.192641
435.296000	5.423881
435.477000	5.453579
435.659000	5.277208
435.840000	5.663768
436.026000	5.770115
436.211000	5.661311
436.397000	5.509193
436.582000	5.803469
436.768000	6.235297
436.953000	6.389834
437.139000	6.530427
437.325000	6.930849
437.510000	6.970335
437.696000	7.274813
437.881000	7.384245
438.067000	7.085479
438.252000	7.383538
438.438000	7.674878
438.624000	7.711300
438.809000	7.907339
438.995000	8.324687
439.180000	8.501702
439.366000	8.544457
439.551000	8.628199
439.737000	8.986625
439.923000	9.311376
440.108000	9.318911
440.294000	9.625711
440.479000	9.909967
440.665000	10.025235
440.850000	10.086073
441.036000	10.295912
441.222000	10.542759
441.407000	10.580800
441.593000	11.027847
441.778000	11.265579
441.964000	11.484702
442.149000	11.394525
442.335000	11.687797
442.521000	12.032752
442.706000	12.470689
442.892000	12.573820
443.077000	12.780922
443.263000	13.029650
443.448000	13.126958
443.634000	13.634881
443.820000	14.202404
444.005000	14.295222
444.191000	14.188596
444.376000	14.408358
444.562000	14.979614
444.747000	15.404338
444.933000	15.581925
445.119000	15.664464
445.304000	15.867200
445.490000	16.352398
445.675000	16.640205
445.861000	16.800745
446.046000	17.085788
446.232000	17.645063
446.418000	17.909046
446.603000	18.037656
446.789000	18.297743
446.974000	18.816587
447.160000	18.923980
447.345000	19.243414
447.531000	19.500556
447.717000	20.163764
447.902000	20.577050
448.088000	20.858116
448.273000	21.106062
448.459000	21.293860
448.644000	21.619064
448.830000	21.944378
449.016000	22.307382
449.201000	22.667649
449.387000	23.122433
449.572000	23.603576
449.758000	23.953598
449.943000	24.213315
450.129000	24.227231
450.315000	24.530795
450.500000	25.129594
450.686000	25.765274
450.871000	25.967055
451.057000	26.423371
451.243000	26.709171
451.428000	27.183377
451.614000	27.383550
451.799000	27.701375
451.985000	28.243450
452.170000	28.634566
452.356000	28.661669
452.542000	29.037162
452.727000	29.567523
452.913000	29.693231
453.098000	30.364178
453.284000	30.861516
453.469000	30.996987
453.655000	31.433627
453.841000	31.537685
454.026000	31.505137
454.212000	31.824735
454.397000	32.267172
454.583000	32.438543
454.768000	32.454877
454.954000	32.940212
455.140000	32.996350
455.325000	33.040026
455.511000	33.243992
455.696000	33.308772
455.882000	33.592264
456.067000	34.118584
456.253000	33.773410
456.439000	33.989126
456.624000	34.108124
456.810000	34.021503
456.995000	34.117857
457.181000	34.017019
457.366000	34.158412
457.552000	34.025334
457.738000	34.158014
457.923000	34.207463
458.109000	34.586361
458.294000	34.391090
458.480000	34.211978
458.665000	33.825242
458.851000	33.498948
459.037000	33.032375
459.222000	33.094836
459.408000	33.138038
459.593000	32.865579
459.779000	32.802407
459.964000	32.547713
460.150000	32.580830
460.336000	32.252578
460.521000	31.544623
460.707000	31.032662
460.892000	30.670170
461.078000	30.630544
461.263000	30.330587
461.449000	29.976157
461.635000	29.669465
461.820000	29.377711
462.006000	29.003944
462.191000	28.556705
462.377000	27.927227
462.562000	28.140306
462.748000	27.866353
462.934000	27.153464
463.119000	26.398738
463.305000	26.057956
463.490000	25.545145
463.676000	25.324670
463.861000	25.001899
464.047000	24.589336
464.233000	24.322975
464.418000	23.776627
464.604000	23.185459
464.789000	23.135080
464.975000	22.554054
465.160000	22.150960
465.346000	21.828835
465.532000	21.530371
465.717000	21.088357
465.903000	20.960682
466.088000	20.592589
466.274000	19.943593
466.459000	19.599091
466.645000	19.723258
466.831000	19.276932
467.016000	18.724104
467.202000	18.464584
467.387000	18.199751
467.573000	17.546762
467.758000	17.568324
467.944000	17.151562
468.130000	16.862421
468.315000	16.665978
468.501000	16.471155
468.686000	16.065327
468.872000	15.767532
469.057000	15.532639
469.243000	15.306904
469.429000	15.028378
469.614000	14.607468
469.800000	14.265750
469.985000	14.283652
470.171000	14.210715
470.356000	13.817459
470.542000	13.633414
470.728000	13.445343
470.913000	13.182556
471.099000	13.085497
471.284000	12.823786
471.470000	12.717386
471.655000	12.449472
471.841000	12.160694
472.027000	11.893377
472.212000	11.936156
472.398000	11.880331
472.583000	11.660146
472.769000	11.583343
472.954000	11.424236
473.140000	11.019272
473.326000	10.758667
473.511000	10.857622
473.697000	10.814837
473.882000	10.531248
474.068000	10.219234
474.253000	9.962630
474.439000	9.922721
474.625000	9.950406
474.810000	9.738059
474.996000	9.512040
475.181000	9.254989
475.367000	9.280879
475.552000	9.386331
475.738000	8.918629
475.924000	8.843731
476.109000	8.777990
476.295000	8.451926
476.480000	8.300013
476.666000	8.208861
476.851000	8.014767
477.037000	7.938319
477.223000	7.671300
477.408000	7.516153
477.594000	7.361769
477.779000	7.321108
477.965000	7.287581
478.151000	6.981004
478.336000	6.951323
478.522000	6.711990
478.707000	6.639241
478.893000	6.597179
479.078000	6.337121
479.264000	6.279512
479.450000	6.226063
479.635000	6.270228
479.821000	5.974926
480.006000	6.000009
480.192000	5.843078
480.377000	5.611953
480.563000	5.468192
480.749000	5.267507
480.934000	5.209221
481.120000	5.193399
481.305000	5.209148
481.491000	5.105445
481.676000	4.998337
481.862000	4.871186
482.048000	4.660968
482.233000	4.625920
482.419000	4.560757
482.604000	4.335036
482.790000	4.266014
482.975000	4.194191
483.161000	4.352444
483.347000	4.319232
483.532000	4.179057
483.718000	3.840749
483.903000	3.701146
484.089000	3.748106
484.274000	3.545260
484.460000	3.628023
484.646000	3.697398
484.831000	3.525609
485.017000	3.544083
485.202000	3.458754
485.388000	3.508836
485.573000	3.410465
485.759000	3.212792
485.945000	3.354300
486.130000	3.129202
486.316000	3.136958
486.501000	3.131926
486.687000	2.850334
486.872000	2.774585
487.058000	2.939732
487.244000	2.856583
487.429000	2.616939
487.615000	2.826003
487.800000	2.851600
487.986000	2.629744
488.171000	2.726931
488.357000	2.630157
488.543000	2.549499
488.728000	2.621430
488.914000	2.564919
489.099000	2.369448
489.285000	2.277322
489.470000	2.493929
489.656000	2.460325
489.842000	2.441250
490.027000	2.507503
490.213000	2.181330
490.398000	1.855577
490.584000	2.166317
490.769000	2.169516
490.955000	2.140186
491.141000	2.103548
491.326000	2.038941
491.512000	2.130183
491.697000	2.024309
491.883000	1.939446
492.068000	1.898422
492.254000	1.914524
492.440000	1.859361
492.625000	1.749277
492.811000	1.745741
492.996000	1.935961
493.182000	1.926644
493.367000	1.673294
493.553000	1.550615
493.739000	1.652325
493.924000	1.682622
494.110000	1.686733
494.295000	1.546727
494.481000	1.598883
494.666000	1.659731
494.852000	1.785730
495.038000	1.547213
495.223000	1.420946
495.409000	1.511471
495.594000	1.476366
495.780000	1.453769
495.965000	1.373887
496.151000	1.647240
496.337000	1.692536
496.522000	1.440287
496.708000	1.532916
496.893000	1.617102
497.079000	1.426221
497.264000	1.342705
497.450000	1.396072
497.636000	1.437790
497.821000	1.278885
498.007000	1.493058
498.192000	1.573369
498.378000	1.374710
498.563000	1.337824
498.749000	1.364098
498.935000	1.383801
499.120000	1.426963
499.306000	1.180537
499.491000	1.205223
499.677000	1.341098
499.862000	1.399025
500.048000	1.445077
500.234000	1.354462
500.419000	1.313372
500.605000	1.386169
500.790000	1.328636
500.976000	1.271571
501.161000	1.196469
501.347000	1.311671
501.533000	1.437185
501.718000	1.358462
501.904000	1.277326
502.089000	1.388673
502.275000	1.444323
502.460000	1.312574
502.646000	1.332767
502.832000	1.364632
503.017000	1.398599
503.203000	1.228654
503.388000	1.131346
503.574000	1.337749
503.759000	1.437357
503.945000	1.461714
504.131000	1.352182
504.316000	1.323212
504.502000	1.373773
504.687000	1.289606
504.873000	1.149085
505.058000	1.199154
505.244000	1.173764
505.430000	1.210555
505.615000	1.319104
505.801000	1.337255
505.986000	1.142527
506.172000	1.287654
506.358000	1.359823
506.543000	1.399976
506.729000	1.586501
506.914000	1.498519
507.100000	1.573269
507.285000	1.334985
507.471000	1.241663
507.657000	1.504319
507.842000	1.439008
508.028000	1.332399
508.213000	1.319866
508.399000	1.370280
508.584000	1.552999
508.770000	1.454976
508.956000	1.379832
509.141000	1.419889
509.327000	1.531017
509.512000	1.442547
509.698000	1.444737
509.883000	1.486967
510.069000	1.353720
510.255000	1.427769
510.440000	1.551032
510.626000	1.451163
510.811000	1.414850
510.997000	1.514383
511.182000	1.688424
511.368000	1.591040
511.554000	1.306950
511.739000	1.456524
511.925000	1.646385
512.110000	1.584046
512.296000	1.671405
512.481000	1.775090
512.667000	1.674385
512.853000	1.418067
513.038000	1.455390
513.224000	1.471808
513.409000	1.478081
513.595000	1.560904
513.780000	1.380012
513.966000	1.463305
514.152000	1.479531
514.337000	1.483338
514.523000	1.541257
514.708000	1.520339
514.894000	1.518088
515.079000	1.454384
515.265000	1.517360
515.451000	1.527657
515.636000	1.410620
515.822000	1.467185
516.007000	1.370684
516.193000	1.543282
516.378000	1.616913
516.564000	1.437349
516.750000	1.473301
516.935000	1.583689
517.121000	1.644645
517.306000	1.697779
517.492000	1.600143
517.677000	1.365895
517.863000	1.362920
518.049000	1.476389
518.234000	1.439776
518.420000	1.590215
518.605000	1.705960
518.791000	1.624391
518.976000	1.455791
519.162000	1.359288
519.348000	1.456664
519.533000	1.431927
519.719000	1.582179
519.904000	1.447950
520.090000	1.438552
520.275000	1.643264
520.461000	1.507176
520.647000	1.283336
520.832000	1.078894
521.018000	1.183023
521.203000	1.224367
521.389000	1.084703
521.574000	1.176274
521.760000	1.375158
521.946000	1.262526
522.131000	1.094745
522.317000	1.164392
522.502000	1.176858
522.688000	1.268170
522.873000	1.197966
523.059000	1.150094
523.245000	1.171733
523.430000	0.994525
523.616000	1.049464
523.801000	0.966291
523.987000	1.000608
524.172000	1.143848
524.358000	1.173670
524.544000	1.083894
524.729000	1.171887
524.915000	1.187707
525.100000	1.122203
525.286000	1.166199
525.471000	1.087847
525.657000	1.092239
525.843000	0.897140
526.028000	1.018961
526.214000	0.959645
526.399000	0.791672
526.585000	0.772126
526.770000	0.795022
526.956000	0.905646
527.142000	0.796865
527.327000	0.890052
527.513000	0.788873
527.698000	0.773241
527.884000	0.878824
528.069000	0.820813
528.255000	0.931211
528.441000	0.839456
528.626000	0.891937
528.812000	1.064080
528.997000	0.859714
529.183000	0.776107
529.368000	0.856644
529.554000	0.825374
529.740000	0.763798
529.925000	0.629403
530.111000	0.636834
530.296000	0.772683
530.482000	0.930106
530.667000	0.795189
530.853000	0.875776
531.039000	0.843684
531.224000	0.902919
531.410000	0.882135
531.595000	0.749539
531.781000	0.777026
531.967000	0.660944
532.152000	0.797611
532.338000	0.723117
532.523000	0.613616
532.709000	0.521989
532.894000	0.583968
533.080000	0.668558
533.266000	0.560527
533.451000	0.548554
533.637000	0.575016
533.822000	0.743665
534.008000	0.594483
534.193000	0.543444
534.379000	0.648704
534.565000	0.569056
534.750000	0.531674
534.936000	0.739100
535.121000	0.560363
535.307000	0.528761
535.492000	0.598488
535.678000	0.441612
535.864000	0.616038
536.049000	0.884973
536.235000	0.612901
536.420000	0.574930
536.606000	0.494793
536.791000	0.359368
536.977000	0.311532
537.163000	0.572419
537.348000	0.598482
537.534000	0.602491
537.719000	0.412978
537.905000	0.268849
538.090000	0.420078
538.276000	0.587712
538.462000	0.577994
538.647000	0.521952
538.833000	0.419141
539.018000	0.578375
539.204000	0.559103
539.389000	0.459933
539.575000	0.662524
539.761000	0.562231
539.946000	0.304660
540.132000	0.378188
540.317000	0.262390
540.503000	0.448760
540.688000	0.492233
540.874000	0.746510
541.060000	0.787019
541.245000	0.614635
541.431000	0.432000
541.616000	0.445548
541.802000	0.404678
541.987000	0.467889
542.173000	0.544426
542.359000	0.391235
542.544000	0.486153
542.730000	0.392222
542.915000	0.397347
543.101000	0.527177
543.286000	0.314618
543.472000	0.299720
543.658000	0.388526
543.843000	0.313363
544.029000	0.539222
544.214000	0.459203
544.400000	0.106743
544.585000	0.230578
544.771000	0.278369
544.957000	0.386102
545.142000	0.450752
545.328000	0.542239
545.513000	0.551867
545.699000	0.515307
545.884000	0.355462
546.070000	0.290651
546.261000	0.330837
546.451000	0.253367
546.642000	0.013542
546.833000	0.074829
547.023000	-0.034562
547.214000	0.022403
547.405000	0.299085
547.595000	0.532539
547.786000	0.437472
547.977000	0.226193
548.167000	0.071326
548.358000	0.107239
548.549000	0.549780
548.740000	0.415796
548.930000	-0.039762
549.121000	0.018370
549.312000	-0.004048
549.502000	-0.026600
549.693000	0.117578
549.884000	0.203232
550.074000	0.307957
550.265000	0.082045
550.456000	0.177666
550.646000	0.250962
550.837000	0.241936
551.028000	0.109953
551.218000	0.246759
551.409000	0.087499
551.600000	0.101328
551.790000	0.175377
551.981000	-0.077788
552.172000	-0.013373
552.362000	0.253980
552.553000	0.324764
552.744000	0.218063
552.934000	0.195082
553.125000	0.093305
553.316000	0.042270
553.506000	0.382142
553.697000	0.234063
553.888000	0.168360
554.079000	0.429864
554.269000	0.467672
554.460000	0.103513
554.651000	0.000469
554.841000	-0.220145
555.032000	-0.192276
555.223000	-0.008945
555.413000	0.173883
555.604000	0.127553
555.795000	0.113731
555.985000	0.147066
556.176000	0.038234
556.367000	-0.188295
556.557000	-0.075285
556.748000	0.062148
556.939000	0.009947
557.129000	-0.075252
557.320000	0.043096
557.511000	0.005200
557.701000	0.042947
557.892000	0.128411
558.083000	0.303402
558.273000	0.137763
558.464000	-0.065808
558.655000	-0.018448
558.845000	0.090084
559.036000	0.123187
559.227000	0.019365
559.418000	0.147164
559.608000	0.203867
559.799000	-0.084563
559.990000	-0.149901
560.180000	0.047523
560.371000	-0.107914
560.562000	-0.145391
560.752000	0.028728
560.943000	-0.126744
561.134000	-0.356657
561.324000	-0.112171
561.515000	0.080107
561.706000	0.061437
561.896000	-0.121204
562.087000	-0.069649
562.278000	-0.149056
562.468000	-0.294198
562.659000	-0.256079
562.850000	0.089148
563.040000	0.247841
563.231000	-0.265786
563.422000	-0.185764
563.612000	-0.204613
563.803000	-0.162369
563.994000	-0.263452
564.185000	-0.350834
564.375000	0.046739
564.566000	-0.041136
564.757000	-0.078330
564.947000	-0.115272
565.138000	0.000461
565.329000	-0.073211
565.519000	-0.206632
565.710000	-0.068640
565.901000	0.143368
566.091000	0.147868
566.282000	-0.109842
566.473000	-0.059104
566.663000	0.014187
566.854000	-0.263921
567.045000	-0.163215
567.235000	-0.054092
567.426000	0.023174
567.617000	0.023090
567.807000	-0.103725
567.998000	-0.031190
568.189000	-0.094450
568.379000	0.009466
568.570000	0.063470
568.761000	-0.062438
568.951000	-0.129610
569.142000	-0.179183
569.333000	-0.161217
569.524000	-0.285883
569.714000	-0.330592
569.905000	-0.405945
570.096000	-0.070993
570.286000	0.062872
570.477000	0.151639
570.668000	0.040429
570.858000	0.049312
571.049000	-0.132364
571.240000	-0.252017
571.430000	-0.012828
571.621000	-0.087712
571.812000	-0.039068
572.002000	-0.061125
572.193000	-0.192734
572.384000	-0.030280
572.574000	0.022399
572.765000	-0.104776
572.956000	-0.117559
573.146000	0.079220
573.337000	0.022277
573.528000	-0.056250
573.718000	0.035228
573.909000	0.130721
574.100000	0.099962
574.290000	0.000431
574.481000	-0.025393
574.672000	-0.068511
574.863000	0.064804
575.053000	-0.123794
575.244000	0.008974
575.435000	-0.119113
575.625000	-0.241849
575.816000	-0.262776
576.007000	-0.177874
576.197000	-0.037842
576.388000	0.030071
576.579000	0.157080
576.769000	0.076545
576.960000	-0.257352
577.155000	-0.429421
577.350000	-0.146893
577.545000	0.059236
577.740000	-0.091732
577.935000	0.188519
578.130000	0.092450
578.326000	-0.183086
578.521000	0.142148
578.716000	0.070954
578.911000	-0.152943
579.106000	0.029318
579.301000	0.103327
579.496000	-0.163737
579.691000	-0.467010
579.886000	-0.265407
580.081000	-0.069006
580.276000	-0.093276
580.471000	-0.129912
580.666000	-0.215061
580.861000	-0.219049
581.057000	-0.198858
581.252000	-0.146026
581.447000	-0.182225
581.642000	-0.186597
581.837000	-0.170107
582.032000	-0.112947
582.227000	0.088947
582.422000	0.056643
582.617000	-0.111573
582.812000	-0.250892
583.007000	-0.238796
583.202000	-0.270191
583.397000	0.036085
583.592000	0.210190
583.788000	-0.078520
583.983000	-0.102098
584.178000	-0.074386
584.373000	-0.176185
584.568000	-0.222805
584.763000	-0.258297
584.958000	-0.262198
585.153000	-0.081918
585.348000	-0.101461
585.543000	-0.046665
585.738000	-0.109358
585.933000	-0.301496
586.128000	-0.042720
586.324000	-0.054620
586.519000	-0.078140
586.714000	0.043620
586.909000	0.083065
587.104000	0.091242
587.299000	-0.058684
587.494000	-0.082204
587.689000	-0.137539
587.884000	-0.058897
588.079000	-0.098432
588.274000	-0.126336
588.469000	-0.149797
588.664000	-0.090630
588.859000	-0.011494
589.055000	-0.015475
589.250000	-0.110758
589.445000	-0.230130
589.640000	-0.182582
589.835000	0.076158
590.030000	0.143900
590.225000	0.159874
590.420000	-0.095419
590.615000	-0.167432
590.810000	-0.079431
591.005000	-0.079756
591.200000	-0.172008
591.395000	-0.184009
591.591000	-0.099650
591.786000	0.004399
591.981000	-0.087830
592.176000	-0.051841
592.371000	-0.055881
592.566000	-0.120117
592.761000	0.040569
592.956000	0.004426
593.151000	0.141296
593.346000	0.048844
593.541000	0.032663
593.736000	0.024674
593.931000	-0.108856
594.126000	-0.088754
594.322000	-0.068488
594.517000	-0.165714
594.712000	-0.303605
594.907000	-0.264017
595.102000	-0.158456
595.297000	-0.028088
595.492000	0.053441
595.687000	-0.105869
595.882000	-0.224523
596.077000	-0.147104
596.272000	0.024990
596.467000	0.061881
596.662000	-0.134959
596.857000	-0.044891
597.053000	0.049918
597.248000	0.049896
597.443000	-0.032620
597.638000	-0.065811
597.833000	-0.260595
598.028000	-0.069928
598.223000	0.108207
598.418000	-0.078496
598.613000	-0.165693
598.808000	-0.020364
599.003000	-0.057829
599.198000	-0.257853
599.393000	-0.257775
599.589000	-0.166611
599.784000	-0.312978
599.979000	-0.125125
600.174000	0.142800
600.369000	-0.087614
600.564000	-0.091925
600.759000	0.130695
600.954000	0.155647
601.149000	0.071960
601.344000	-0.290238
601.539000	-0.138752
601.734000	-0.142783
601.929000	-0.320486
602.124000	-0.350336
602.320000	-0.105410
602.515000	0.237528
602.710000	0.191348
602.905000	-0.165020
603.100000	-0.219814
603.295000	-0.186273
603.490000	-0.067659
603.685000	-0.037878
603.880000	-0.076275
604.075000	-0.196083
604.270000	-0.157970
604.465000	-0.076572
604.660000	-0.303539
604.856000	-0.256256
605.051000	-0.046721
605.246000	0.038973
605.441000	-0.205295
605.636000	-0.303958
605.831000	-0.132716
606.026000	-0.209939
606.221000	-0.309105
606.416000	-0.128707
606.611000	-0.003878
606.806000	-0.042619
607.001000	0.116815
607.196000	0.009060
607.391000	-0.150787
607.587000	-0.099141
607.782000	-0.146957
607.977000	-0.328251
608.172000	0.048155
608.367000	0.130580
608.562000	-0.086503
608.757000	-0.182076
608.952000	-0.282679
609.147000	0.022186
609.342000	0.009150
609.537000	-0.134877
609.732000	-0.091372
609.927000	-0.130459
610.122000	-0.073864
610.318000	0.087936
610.513000	0.241184
610.708000	0.074932
610.903000	0.066242
611.098000	0.057591
611.293000	-0.008355
611.488000	0.035624
611.683000	0.088556
611.878000	0.057733
612.073000	0.079791
612.268000	0.004854
612.463000	0.080057
612.658000	0.146405
612.854000	0.062497
613.049000	0.022615
613.244000	0.089182
613.439000	0.053708
613.634000	-0.190892
613.829000	-0.012908
614.024000	-0.079861
614.219000	-0.191372
614.414000	0.237029
614.609000	-0.004023
614.804000	-0.308096
614.999000	-0.307815
615.194000	-0.214553
615.389000	-0.129601
615.585000	-0.246648
615.780000	-0.120954
615.975000	-0.121195
616.170000	-0.202439
616.365000	-0.031141
616.560000	0.158567
616.755000	0.131861
616.950000	0.036720
617.145000	0.091203
617.340000	-0.044964
617.535000	-0.262965
617.730000	-0.154174
617.925000	-0.281972
618.120000	-0.218267
618.316000	0.119190
618.511000	-0.132099
618.706000	-0.302285
618.901000	-0.104989
619.096000	0.037277
619.291000	-0.169670
619.486000	-0.142532
619.681000	-0.401156
619.876000	-0.447126
620.071000	-0.267403
620.266000	-0.050462
620.461000	0.125687
620.656000	0.019051
620.852000	-0.134116
621.047000	-0.199571
621.242000	-0.311630
621.437000	0.051829
621.632000	0.168921
621.827000	0.023886
622.022000	-0.233884
622.217000	-0.107624
622.412000	0.052223
622.607000	0.019308
622.802000	-0.197425
622.997000	-0.226483
623.192000	-0.127179
623.387000	-0.084646
623.583000	-0.293295
623.778000	0.066993
623.973000	0.062283
624.168000	-0.056712
624.363000	0.071851
624.558000	0.119639
624.753000	-0.243394
624.948000	-0.057010
625.143000	-0.057052
625.338000	-0.071555
625.533000	-0.138830
625.728000	-0.052418
625.923000	0.096723
626.119000	-0.110452
626.314000	-0.351954
626.509000	-0.401463
626.704000	-0.290846
626.899000	-0.189043
627.094000	-0.237970
627.289000	-0.204373
627.484000	-0.356418
627.679000	-0.195251
627.874000	-0.141605
628.069000	0.088816
628.264000	0.093639
628.459000	0.039804
628.654000	-0.097878
628.850000	-0.251230
629.045000	-0.142802
629.240000	-0.212191
629.435000	-0.237230
629.630000	-0.068971
629.825000	-0.153320
630.020000	-0.079204
630.215000	-0.288264
630.410000	-0.214431
630.605000	-0.254626
630.800000	-0.179561
630.995000	-0.064667
631.190000	0.211498
631.385000	0.085957
631.581000	-0.105238
631.776000	-0.070036
631.971000	-0.312894
632.166000	-0.242313
632.361000	-0.323556
632.556000	-0.242880
632.751000	-0.070709
632.946000	-0.131795
633.141000	-0.295527
633.336000	-0.255093
633.531000	-0.030254
633.726000	-0.009731
633.921000	-0.199769
634.117000	-0.406084
634.312000	-0.581661
634.507000	-0.381144
634.702000	-0.283658
634.897000	-0.392720
635.092000	-0.170680
635.287000	0.005718
635.482000	-0.051598
635.677000	-0.030760
635.872000	0.026592
636.067000	0.068464
636.262000	-0.114901
636.457000	-0.490660
636.652000	-0.412896
636.848000	-0.445267
637.043000	-0.325987
637.238000	-0.363801
637.433000	-0.512032
637.628000	-0.427469
637.823000	-0.089430
638.018000	-0.089602
638.213000	-0.323606
638.408000	-0.366456
638.603000	-0.356330
638.798000	-0.378184
638.993000	-0.255992
639.188000	-0.207965
639.383000	-0.309804
639.579000	0.000535
639.774000	-0.208503
639.969000	-0.439164
640.164000	-0.429420
640.359000	-0.381461
640.554000	-0.144916
640.749000	-0.166924
640.944000	-0.102321
641.139000	-0.091306
641.334000	-0.183482
641.529000	-0.612283
641.724000	-0.482719
641.919000	-0.336820
642.115000	-0.010363
642.310000	0.082244
642.505000	-0.130129
642.700000	-0.244911
642.895000	-0.371495
643.090000	-0.152599
643.285000	0.016958
643.480000	0.038927
643.675000	0.066397
643.870000	0.346919
644.065000	0.237422
644.260000	-0.071043
644.455000	-0.043588
644.650000	-0.193037
644.846000	-0.209635
645.041000	-0.452820
645.236000	-0.592481
645.431000	-0.393520
645.626000	-0.520864
645.821000	-0.348771
646.016000	-0.366474
646.211000	-0.016157
646.406000	0.028468
646.601000	0.084206
646.796000	-0.228032
646.991000	-0.573795
647.186000	-0.312402
647.381000	-0.144838
647.577000	-0.144977
647.772000	0.006158
647.967000	-0.128442
648.162000	-0.122931
648.357000	-0.111855
648.552000	-0.111811
648.747000	-0.123119
648.942000	0.023065
649.137000	-0.050220
649.332000	-0.248037
649.527000	-0.304409
649.722000	0.017502
649.917000	0.034540
650.113000	-0.197376
650.308000	-0.378889
650.503000	-0.384346
650.698000	-0.090262
650.893000	-0.135773
651.088000	-0.022170
651.283000	0.063237
651.478000	-0.193129
651.673000	-0.044961
651.868000	-0.204726
652.063000	-0.045141
652.258000	0.097784
652.453000	0.257214
652.648000	-0.085095
652.844000	-0.222320
653.039000	-0.142548
653.234000	-0.469012
653.429000	-0.573113
653.624000	-0.446570
653.819000	-0.154546
654.014000	-0.166069
654.209000	-0.385439
654.404000	-0.218131
654.599000	-0.311009
654.794000	-0.229830
654.989000	0.179671
655.184000	-0.010990
655.380000	-0.369298
655.575000	-0.323100
655.770000	-0.306268
655.965000	-0.121032
656.160000	-0.190624
656.355000	-0.161622
656.550000	-0.260899
656.745000	-0.092452
656.940000	-0.249651
657.135000	-0.203047
657.330000	-0.051801
657.525000	-0.337237
657.720000	-0.104441
657.915000	0.152145
658.111000	-0.098553
658.306000	0.093962
658.501000	-0.011114
658.696000	-0.344402
658.891000	-0.110564
659.086000	-0.315184
659.281000	-0.286413
659.476000	-0.456917
659.671000	-0.744254
659.866000	-0.468810
660.061000	-0.069870
660.256000	0.000587
660.451000	-0.064085
660.646000	-0.281990
660.842000	-0.235165
661.037000	-0.400344
661.232000	-0.371396
661.427000	-0.135106
661.622000	-0.271302
661.817000	-0.460321
662.012000	-0.236366
662.207000	-0.295808
662.402000	-0.433240
662.597000	-0.219445
662.792000	-0.498496
662.987000	-0.622757
663.182000	-0.267120
663.378000	-0.225656
663.573000	-0.673856
663.768000	-0.577159
663.963000	-0.243876
664.158000	-0.338970
664.353000	-0.053237
664.548000	0.150087
664.743000	-0.113142
664.938000	-0.478259
665.133000	-0.395078
665.328000	-0.005404
665.523000	-0.155808
665.718000	-0.306238
665.913000	-0.276570
666.109000	-0.168487
666.304000	0.000604
666.499000	-0.282957
666.694000	-0.078050
666.889000	0.206295
667.084000	-0.096513
667.279000	-0.254182
667.474000	-0.157208
667.669000	-0.163238
667.864000	-0.357847
668.059000	-0.242782
668.254000	-0.224813
668.449000	-0.450744
668.644000	-0.255798
668.840000	-0.029875
669.035000	-0.255827
669.230000	-0.471120
669.425000	-0.189434
669.620000	-0.330412
669.815000	-0.319303
670.010000	-0.202223
670.205000	-0.177784
670.400000	-0.165186
670.595000	0.000616
670.790000	-0.098067
670.985000	-0.067298
671.180000	0.043885
671.376000	-0.364387
671.571000	-0.464399
671.766000	-0.372255
671.961000	-0.453218
672.156000	-0.316838
672.351000	-0.229745
672.546000	-0.336297
672.741000	-0.235952
672.936000	-0.111585
673.131000	0.381919
673.326000	-0.024446
673.521000	-0.407153
673.716000	-0.563980
673.911000	-0.652272
674.107000	-0.106296
674.302000	0.195745
674.497000	0.000630
674.692000	-0.377713
674.887000	-0.505545
675.082000	-0.360563
675.277000	0.102166
675.472000	-0.158215
675.667000	-0.438462
675.862000	-0.317713
676.057000	-0.152273
676.252000	-0.222827
676.447000	-0.376982
676.643000	-0.165634
676.838000	0.167229
677.033000	-0.166182
677.228000	0.129290
677.423000	0.142241
677.618000	-0.276863
677.813000	-0.412149
678.008000	-0.290532
678.203000	-0.258452
678.398000	-0.265412
678.593000	-0.122689
678.788000	-0.136113
678.983000	-0.259534
679.178000	-0.266172
679.374000	-0.370837
679.569000	-0.234477
679.764000	-0.287578
679.959000	-0.426163
680.154000	-0.367139
680.349000	-0.572718
680.544000	-0.479807
680.739000	-0.368112
680.934000	-0.539870
681.129000	-0.488499
681.324000	-0.528812
681.519000	-0.337941
681.714000	-0.344701
681.909000	-0.258045
682.105000	-0.524861
682.300000	-0.259777
682.495000	-0.066079
682.690000	-0.046160
682.885000	-0.113148
683.080000	-0.429009
683.275000	-0.449376
683.470000	-0.006053
683.665000	0.202876
683.860000	0.372018
684.055000	0.047964
684.250000	-0.411815
684.445000	-0.471923
684.641000	0.081938
684.836000	-0.134981
685.031000	-0.244388
685.226000	-0.374235
685.421000	0.014355
685.616000	-0.190720
685.811000	-0.335074
686.006000	-0.040425
686.201000	-0.198276
686.396000	-0.605371
686.591000	-0.475470
686.786000	-0.054604
686.981000	-0.158296
687.176000	-0.130964
687.372000	-0.255979
687.567000	-0.075648
687.762000	0.063330
687.957000	-0.152404
688.152000	-0.341024
688.347000	-0.208896
688.542000	-0.447545
688.737000	-0.818387
688.932000	-1.009118
689.127000	-0.504911
689.322000	-0.083805
689.517000	-0.393588
689.712000	-0.500967
689.908000	-0.395380
690.103000	-0.523707
690.298000	-0.403301
690.493000	-0.354611
690.688000	-0.604082
690.883000	-0.513344
691.078000	-0.049280
691.273000	-0.056429
691.468000	-0.242615
691.663000	-0.221986
691.858000	-0.049578
692.053000	-0.142981
692.248000	-0.157511
692.443000	-0.013665
692.639000	-0.071349
692.834000	0.000722
693.029000	0.506650
693.224000	0.342033
693.419000	-0.231868
693.614000	-0.363389
693.809000	-0.604149
694.004000	-0.671001
694.199000	-0.597831
694.394000	-0.226321
694.589000	-0.505179
694.784000	-0.432297
694.979000	-0.182760
695.174000	-0.308314
695.370000	0.243149
695.565000	-0.021355
695.760000	-0.397815
695.955000	0.119116
696.150000	0.185760
696.345000	-0.370732
696.540000	-0.155549
696.740000	-0.170315
696.940000	-0.058799
697.140000	0.060599
697.340000	-0.201597
697.539000	0.015746
697.739000	-0.276797
697.939000	-0.314521
698.139000	-0.495191
698.339000	-0.866630
698.539000	-0.700295
698.739000	-0.694618
698.939000	-0.439544
699.138000	-0.637975
699.338000	0.061382
699.538000	0.190934
699.738000	-0.418845
699.938000	-0.419197
700.138000	-0.389313
700.338000	-0.490156
700.538000	-0.306821
700.737000	-0.176037
700.937000	-0.727355
701.137000	-0.674739
701.337000	0.023920
701.537000	-0.092023
701.737000	-0.238651
701.937000	-0.347562
702.137000	-0.463698
702.337000	-0.573034
702.536000	-0.706294
702.736000	-0.668247
702.936000	-0.630279
703.136000	-0.186751
703.336000	-0.225770
703.536000	-0.265566
703.736000	-0.580488
703.936000	-0.657673
704.135000	-0.727857
704.335000	-0.313486
704.535000	-0.471906
704.735000	-0.661661
704.935000	-0.188083
705.135000	-0.181090
705.335000	-0.340382
705.535000	-0.261211
705.735000	-0.348485
705.934000	-0.221361
706.134000	-0.316677
706.334000	-0.349251
706.534000	-0.532994
706.734000	-0.493551
706.934000	-0.605144
707.134000	-0.685052
707.334000	-0.294903
707.533000	-0.119300
707.733000	-0.279232
707.933000	-0.495752
708.133000	-0.247176
708.333000	-0.168053
708.533000	-0.337534
708.733000	-0.047521
708.933000	-0.257165
709.132000	-0.354593
709.332000	-0.363283
709.532000	-0.550588
709.732000	-0.404039
709.932000	-0.883872
710.132000	-0.850873
710.332000	-0.891021
710.532000	-0.291331
710.732000	-0.170070
710.931000	-0.544789
711.131000	-0.448817
711.331000	-0.375529
711.531000	-0.663003
711.731000	-0.508569
711.931000	-0.303673
712.131000	-0.360847
712.331000	-0.402074
712.530000	-0.442647
712.730000	-0.345005
712.930000	-0.287270
713.130000	-0.337838
713.330000	-0.437499
713.530000	-0.397605
713.730000	0.266576
713.930000	0.034038
714.129000	-0.355780
714.329000	-0.531639
714.529000	-0.340023
714.729000	0.009164
714.929000	-0.115800
715.129000	-0.533227
715.329000	-0.592189
715.529000	-0.544295
715.729000	0.285448
715.928000	0.118326
716.128000	-0.309854
716.328000	-0.074956
716.528000	-0.361719
716.728000	-0.184698
716.928000	-0.353407
717.128000	-0.295023
717.328000	-0.438659
717.527000	-0.566125
717.727000	-0.388796
717.927000	-0.271078
718.127000	-0.381767
718.327000	-0.808360
718.527000	-0.893092
718.727000	-0.280361
718.927000	-0.263795
719.127000	-0.761997
719.326000	-0.647929
719.526000	-0.118877
719.726000	-0.350524
719.926000	-0.807754
720.126000	-0.687433
720.326000	-0.455066
720.526000	-0.575606
720.726000	-0.465156
720.925000	-0.335920
721.125000	-0.735868
721.325000	-0.466610
721.525000	-0.398317
721.725000	-0.528545
721.925000	-0.460407
722.125000	-0.486557
722.325000	-0.042645
722.524000	-0.470523
722.724000	-0.908128
722.924000	-0.908072
723.124000	-0.629177
723.324000	-0.200598
723.524000	-0.200780
723.724000	-0.806477
723.924000	-0.536350
724.124000	-0.228182
724.323000	-0.034404
724.523000	-0.069629
724.723000	0.389527
724.923000	0.045061
725.123000	-0.202544
725.323000	-0.149742
725.523000	-0.309822
725.723000	-0.522332
725.922000	-0.460774
726.122000	-0.265754
726.322000	-0.409064
726.522000	-0.605722
726.722000	0.259296
726.922000	0.072126
727.122000	-0.186751
727.322000	0.045629
727.521000	-0.034978
727.721000	-0.430238
727.921000	-0.430259
728.121000	-0.501993
728.321000	-0.781816
728.521000	-0.459106
728.721000	-0.288220
728.921000	0.073158
729.121000	0.851303
729.320000	0.154872
729.520000	-0.316111
729.720000	-0.616028
729.920000	-0.618962
730.120000	-0.326426
730.320000	-0.254306
730.520000	-0.655632
730.720000	-0.621108
730.919000	-0.410641
731.119000	-0.090708
731.319000	-0.669032
731.519000	-0.815759
731.719000	-0.302124
731.919000	-0.522798
732.119000	-0.993030
732.319000	-0.903826
732.519000	-0.479404
732.718000	-0.720511
732.918000	-0.563759
733.118000	-0.249638
733.318000	-0.073525
733.518000	-0.455145
733.718000	-0.856565
733.918000	-0.810434
734.118000	-0.698278
734.317000	-0.336052
734.517000	-0.569282
734.717000	-0.515667
734.917000	0.029184
735.117000	0.010367
735.317000	-0.112119
735.517000	0.331603
735.717000	0.398910
735.916000	-0.558179
736.116000	-0.614505
736.316000	-0.484920
736.516000	-0.322862
736.716000	-0.161036
736.916000	-0.745318
737.116000	-0.460521
737.316000	0.193214
737.516000	0.020227
737.715000	-0.153241
737.915000	-0.673989
738.115000	-0.811548
738.315000	-0.424950
738.515000	-0.695854
738.715000	-0.437098
738.915000	0.215430
739.115000	-0.409115
739.314000	-0.564831
739.514000	-0.038182
739.714000	0.040242
739.914000	-0.136828
740.114000	-0.472398
740.314000	-0.275359
740.514000	0.109719
740.714000	-0.623849
740.913000	-1.200847
741.113000	-0.983868
741.313000	-0.396930
741.513000	-0.288310
741.713000	-0.249073
741.913000	-0.199999
742.113000	-0.480672
742.313000	-0.843726
742.513000	-0.381490
742.712000	-0.362529
742.912000	-0.655553
743.112000	-0.495607
743.312000	-0.821294
743.512000	-0.405978
743.712000	-0.274582
743.912000	-0.806674
744.112000	-1.114107
744.311000	-1.106860
744.511000	-0.636131
744.711000	-0.215320
744.911000	-0.556093
745.111000	-0.639423
745.311000	-0.288760
745.511000	-0.682994
745.711000	-0.725134
745.911000	-0.372906
746.110000	-1.027799
746.310000	-1.337020
746.510000	-0.833442
746.710000	-0.166615
746.910000	-0.030416
747.110000	-0.524206
747.310000	-1.114438
747.510000	-0.822902
747.709000	-0.305535
747.909000	-0.274521
748.109000	-0.115922
748.309000	-0.467833
748.509000	-0.788773
748.709000	-0.823835
748.909000	-0.598675
749.109000	-0.493724
749.308000	0.033379
749.508000	-0.225865
749.708000	-0.615122
749.908000	-0.128674
750.108000	0.131226
750.308000	-0.782485
750.508000	-0.402609
750.708000	-0.719262
750.908000	-0.972392
751.107000	-0.339027
751.307000	0.154519
751.507000	-0.450112
751.707000	-0.394584
751.907000	-0.505736
752.107000	-0.430059
752.307000	-0.819751
752.507000	-0.788532
752.706000	-0.721311
752.906000	0.279559
753.106000	-0.546528
753.306000	-1.198428
753.506000	0.001124
753.706000	-0.460687
753.906000	-0.370634
754.106000	-0.235761
754.305000	-0.247361
754.505000	-0.112114
754.705000	-0.488480
754.905000	-0.546221
755.105000	-0.101640
755.305000	-0.913751
755.505000	-0.790222
755.705000	-0.308904
755.905000	-0.240726
756.104000	-0.748162
756.304000	-1.143174
756.504000	-1.481430
756.704000	-0.522766
756.904000	-0.208289
757.104000	-0.498491
757.304000	-0.405920
757.504000	0.106489
757.703000	-0.373227
757.903000	-0.139564
758.103000	0.236218
758.303000	-0.340592
758.503000	-0.660530
758.703000	-0.638384
758.903000	-0.757160
759.103000	-0.367151
759.303000	-0.380853
759.502000	-0.537751
759.702000	-0.405853
759.902000	-0.528257
760.102000	-0.445088
760.302000	-0.410279
760.502000	-0.264256
760.702000	-0.192133
760.902000	-0.398401
761.101000	-0.970328
761.301000	-1.251837
761.501000	-0.789799
761.701000	-1.023071
761.901000	-0.697448
762.101000	-0.109325
762.301000	-0.183029
762.501000	-0.847051
762.700000	-0.715096
762.900000	-0.517672
763.100000	-0.505893
763.300000	-0.383764
763.500000	-0.595486
763.703000	-0.531544
763.905000	-0.894250
764.108000	-0.098605
764.311000	-0.273385
764.513000	-0.598674
764.716000	-0.400314
764.919000	-0.551640
765.121000	-1.205530
765.324000	-1.423498
765.527000	-0.886035
765.729000	-0.708553
765.932000	-0.049515
766.135000	-0.125654
766.337000	-0.595579
766.540000	-0.877829
766.743000	-0.447953
766.945000	-0.626404
767.148000	-1.102862
767.351000	-1.282427
767.553000	-0.191989
767.756000	-0.643653
767.958000	-0.901538
768.161000	-0.489241
768.364000	-0.879731
768.566000	-1.167319
768.769000	-0.467704
768.972000	-0.115933
769.174000	-0.416800
769.377000	-1.138671
769.580000	-1.272409
769.782000	-0.366041
769.985000	-0.696251
770.188000	-1.634605
770.390000	-0.979781
770.593000	0.610441
770.796000	0.412122
770.998000	-0.131267
771.201000	-0.702154
771.404000	-0.570225
771.606000	-0.826038
771.809000	-0.799088
772.012000	-0.613503
772.214000	-1.590476
772.417000	-1.858208
772.620000	-0.398767
772.822000	-0.724417
773.025000	-0.953071
773.228000	-0.833642
773.430000	-0.821542
773.633000	-0.323023
773.836000	-0.472338
774.038000	-0.433368
774.241000	-0.501159
774.444000	-0.870526
774.646000	-0.093925
774.849000	-0.203280
775.052000	-0.612466
775.254000	-0.340327
775.457000	-0.790642
775.659000	-0.997856
775.862000	-1.189771
776.065000	-0.752888
776.267000	0.028848
776.470000	0.346349
776.673000	-0.247169
776.875000	0.222965
777.078000	0.111997
777.281000	-0.817491
777.483000	-0.193537
777.686000	0.057193
777.889000	-0.152214
778.091000	-0.012611
778.294000	-0.950105
778.497000	-0.727155
778.699000	-0.699693
778.902000	-0.786501
779.105000	-0.603635
779.307000	0.142318
779.510000	-0.690582
779.713000	-0.381369
779.915000	-0.980040
780.118000	-0.012814
780.321000	0.585902
780.523000	-0.198612
780.726000	-1.227905
780.929000	-1.213174
781.131000	-1.029000
781.334000	-1.593045
781.537000	-1.352619
781.739000	-0.301337
781.942000	-0.979777
782.145000	-1.405469
782.347000	-1.566004
782.550000	-1.044189
782.753000	-1.018480
782.955000	-0.860537
783.158000	-0.655608
783.361000	-0.496213
783.563000	-0.481655
783.766000	-0.482904
783.968000	1.089305
784.171000	0.769408
784.374000	-0.426831
784.576000	-0.589118
784.779000	-0.396550
784.982000	-0.131956
785.184000	-0.639510
785.387000	0.001493
785.590000	0.613285
785.792000	0.166260
785.995000	-0.358531
786.198000	-0.148755
786.400000	-0.330452
786.603000	-0.331291
786.806000	-0.556480
787.008000	-0.239760
787.211000	-0.240625
787.414000	-1.152575
787.616000	-0.913046
787.819000	-0.961034
788.022000	-1.742600
788.224000	-1.041413
788.427000	-1.348925
788.630000	-0.922459
788.832000	-0.752243
789.035000	-1.165733
789.238000	-1.710977
789.440000	-1.317488
789.643000	-0.168797
789.846000	-0.914721
790.048000	-0.403204
790.251000	0.126129
790.454000	-0.402493
790.656000	0.141938
790.859000	-0.436181
791.062000	-1.000755
791.264000	-0.170567
791.467000	-1.145591
791.669000	-1.792503
791.872000	-0.662696
792.075000	-1.420229
792.277000	-1.199253
792.480000	-0.840386
792.683000	-1.123263
792.885000	-1.219500
793.088000	-1.160306
793.291000	-1.306815
793.493000	-1.357153
793.696000	-0.686038
793.899000	-0.174789
794.101000	-0.368068
794.304000	-0.739412
794.507000	-0.530778
794.709000	-0.548429
794.912000	-1.037924
795.115000	-1.235211
795.317000	-0.811859
795.520000	-0.635659
795.723000	-0.966357
795.925000	-1.214230
796.128000	-1.787008
796.331000	-1.331903
796.533000	-1.401083
796.736000	-0.512497
796.939000	-0.796354
797.141000	-1.181847
797.344000	-0.315349
797.547000	-0.148562
797.749000	-0.315939
797.952000	-0.955987
798.155000	-1.590949
798.357000	-1.364414
798.560000	-1.236431
798.763000	-0.964067
798.965000	-0.980081
799.168000	-0.677363
799.371000	-0.321231
799.573000	-0.680416
799.776000	-1.381657
799.978000	-1.660660
800.181000	-0.925500
800.384000	0.913173
800.586000	-0.049989
800.789000	-1.617917
800.992000	-1.238013
801.194000	-1.240747
801.397000	-1.451568
801.600000	-1.352373
801.802000	0.088670
802.005000	-0.172672
802.208000	-1.502515
802.410000	-0.627404
802.613000	-0.559959
802.816000	-0.560612
803.018000	-1.372664
803.221000	-1.604725
803.424000	0.125602
803.626000	0.214387
803.829000	-0.478131
804.032000	0.322567
804.234000	0.839128
804.437000	-0.552884
804.640000	-0.802707
804.842000	-0.858299
805.045000	-1.024638
805.248000	-0.882224
805.450000	-1.187768
805.653000	-0.778122
805.856000	-0.849746
806.058000	-0.089052
806.261000	-0.854365
806.464000	-0.946395
806.666000	-0.564353
806.869000	-0.788540
807.072000	-2.019842
807.274000	-2.278642
807.477000	-1.270598
807.679000	-0.994807
807.882000	-1.700053
808.085000	-1.488031
808.287000	-0.482830
808.490000	-1.100126
808.693000	-1.082210
808.895000	-0.559490
809.098000	-0.484876
809.301000	-0.448931
809.503000	-0.865912
809.706000	0.020865
809.909000	0.551882
810.111000	0.381732
810.314000	-0.207481
810.517000	-0.927783
810.719000	-1.123812
810.922000	-0.649551
811.125000	0.154869
811.327000	0.309586
811.530000	-0.693055
811.735000	-1.019702
811.940000	-1.215175
812.146000	-1.375491
812.351000	-0.483108
812.556000	-0.406803
812.761000	-1.052452
812.967000	0.060792
813.172000	-0.291885
813.377000	-0.646494
813.582000	0.080908
813.788000	-0.276192
813.993000	-1.345783
814.198000	-0.712237
814.403000	-1.286867
814.609000	-0.297303
814.814000	-0.278601
815.019000	0.342112
815.224000	0.281947
815.429000	-0.883669
815.635000	-0.623943
815.840000	-0.786335
816.045000	-0.810224
816.250000	-0.099662
816.456000	-1.159275
816.661000	-2.003754
816.866000	-1.536374
817.071000	-1.268914
817.277000	-1.875415
817.482000	-1.196635
817.687000	-0.287092
817.892000	-0.537970
818.097000	-0.477132
818.303000	-0.164598
818.508000	0.605121
818.713000	7.159165
818.918000	3.551874
819.124000	-0.081646
819.329000	-1.175225
819.534000	-1.389590
819.739000	-1.094472
819.945000	-0.887759
820.150000	-0.615801
820.355000	-0.659697
820.560000	-0.423710
820.766000	-0.616914
820.971000	-0.706350
821.176000	-2.322199
821.381000	-3.023669
821.586000	-1.552200
821.792000	-0.084489
821.997000	-0.583300
822.202000	-0.844338
822.407000	-1.412950
822.613000	-1.786804
822.818000	-1.441487
823.023000	-1.114737
823.228000	-1.188062
823.434000	-0.240067
823.639000	-0.152295
823.844000	-1.259192
824.049000	-0.042078
824.255000	0.113311
824.460000	-0.600452
824.665000	-0.981283
824.870000	-0.087471
825.075000	-0.491804
825.281000	-0.245517
825.486000	0.614033
825.691000	-1.790423
825.896000	-2.862553
826.102000	-0.930510
826.307000	-0.545069
826.512000	-1.050722
826.717000	-1.053962
826.923000	-1.218166
827.128000	-0.874663
827.333000	-1.809411
827.538000	-0.790357
827.744000	-0.114518
827.949000	-1.350616
828.154000	-1.262403
828.359000	-0.348801
828.564000	-0.562294
828.770000	-0.635491
828.975000	0.239146
829.180000	-0.616363
829.385000	-1.805566
829.591000	-1.502605
829.796000	-1.053958
830.001000	-0.647053
830.206000	-0.818006
830.412000	-0.889487
830.617000	-1.350744
830.822000	0.099565
831.027000	-0.409488
831.232000	-1.508940
831.438000	-1.298655
831.643000	-0.783054
831.848000	-1.449371
832.053000	-1.652514
832.259000	-1.382510
832.464000	-2.576852
832.669000	-2.038565
832.874000	-1.935850
833.080000	-2.169051
833.285000	0.227508
833.490000	-0.222665
833.695000	-1.861050
833.901000	-1.490278
834.106000	-1.745956
834.311000	-1.067346
834.516000	-0.864881
834.721000	-1.126326
834.927000	-0.280813
835.132000	-0.565308
835.337000	0.726430
835.542000	-0.283458
835.748000	-2.281436
835.953000	-0.257842
836.158000	-0.049606
836.363000	-0.128445
836.569000	-0.525689
836.774000	-1.823298
836.979000	-1.772525
837.184000	-2.015863
837.390000	-2.179190
837.595000	-1.464689
837.800000	-1.066945
838.005000	-0.912054
838.210000	-1.289273
838.416000	-1.996793
838.621000	-1.351936
838.826000	-1.621873
839.031000	-1.358046
839.237000	-1.889152
839.442000	-2.606200
839.647000	-2.437779
839.852000	-1.787335
840.058000	-1.600318
840.263000	-2.163682
840.468000	-2.416086
840.673000	-1.609959
840.878000	-1.444486
841.084000	-1.593084
841.289000	-0.951519
841.494000	1.613880
841.699000	1.420717
841.905000	0.287166
842.110000	0.688919
842.315000	-1.458117
842.520000	-1.199092
842.726000	-1.058526
842.931000	-1.430288
843.136000	-0.978707
843.341000	-2.498463
843.547000	-1.535484
843.752000	-1.188530
843.957000	-1.901400
844.162000	-1.704369
844.367000	-1.059072
844.573000	-0.767355
844.778000	-0.676680
844.983000	-0.767206
845.188000	-0.741366
845.394000	-2.370367
845.599000	-2.064859
845.804000	-1.680977
846.009000	-0.723668
846.215000	-2.095891
846.420000	-1.400015
846.625000	0.156064
846.830000	0.673844
847.036000	-1.130559
847.241000	-2.612235
847.446000	-0.704511
847.651000	-0.954628
847.856000	-2.179060
848.062000	-1.622728
848.267000	-0.121975
848.472000	-1.785758
848.677000	-3.081089
848.883000	-1.001839
849.088000	0.098343
849.293000	-1.111521
849.498000	-1.459993
849.704000	-0.539063
849.909000	-0.700360
850.114000	-1.979619
850.319000	-1.086578
850.524000	-0.705809
850.730000	-0.450521
850.935000	-1.168249
851.140000	-0.649288
851.345000	-0.257721
851.551000	0.134156
851.756000	-0.194093
851.961000	-1.513995
852.166000	-1.976806
852.372000	-1.617971
852.577000	-0.929882
852.782000	-1.104844
852.987000	0.237753
853.193000	-0.265495
853.398000	-0.500894
853.603000	-1.344316
853.808000	-2.423735
854.013000	-1.726744
854.219000	0.343257
854.424000	1.982240
854.629000	1.678879
854.834000	-0.857091
855.040000	-1.070433
855.245000	-0.169178
855.450000	-3.059920
855.655000	-4.215798
855.861000	-3.442091
856.066000	-2.347279
856.271000	-2.315916
856.476000	-0.172793
856.682000	-1.023050
856.887000	-3.922367
857.092000	-2.123010
857.297000	0.252655
857.502000	-0.852160
857.708000	-1.496866
857.913000	0.110939
858.118000	-0.646487
858.323000	-0.974391
858.529000	-1.334551
858.734000	-1.519508
858.939000	-1.123895
859.144000	-2.003581
859.350000	-3.208371
859.555000	-2.998717
859.760000	0.261380
859.965000	0.555730
860.171000	-2.398862
860.376000	-1.480958
860.581000	-2.303675
860.786000	-4.929418
860.991000	-3.824854
861.197000	-2.959734
861.402000	-1.237699
861.607000	-0.862049
861.812000	-2.491420
862.018000	-3.335901
862.223000	-1.707213
862.428000	-0.187409
862.633000	0.654315
862.839000	-0.573710
863.044000	-2.053890
863.249000	-2.358082
863.454000	-0.189919
863.659000	-1.473426
863.865000	-2.613780
864.070000	-2.463946
864.275000	-2.821210
864.480000	-2.045768
864.686000	-4.743619
864.891000	-3.242919
865.096000	-1.308691
865.301000	-0.992321
865.507000	-0.797725
865.712000	-0.877840
865.917000	-1.125533
866.122000	-0.400469
866.328000	-2.802906
866.533000	-2.922907
866.738000	-0.118042
866.943000	-0.077501
867.148000	0.701431
867.354000	-1.194763
867.559000	-2.890592
867.764000	-0.826952
867.969000	0.129475
868.175000	-1.993844
868.380000	-2.418549
868.585000	-3.300035
868.790000	-2.052328
868.996000	-2.150388
869.201000	-3.299687
869.406000	-4.887924
869.611000	-3.915021
869.817000	-3.314920
870.022000	1.413855
870.227000	-2.008236
870.432000	-4.384791
870.637000	-2.063510
870.843000	-1.858850
871.048000	-1.642994
871.253000	0.091089
871.458000	-0.954753
871.664000	-2.935115
871.869000	-3.614443
872.074000	-3.404004
872.279000	-1.721092
872.485000	-1.910300
872.690000	-2.365804
872.895000	-2.555210
873.100000	-3.412473
873.306000	-3.517284
873.511000	-2.086883
873.716000	0.004557
873.921000	-1.995105
874.126000	-3.090735
874.332000	-2.523611
874.537000	-1.612199
874.742000	-1.238630
874.947000	-1.475089
875.153000	0.191367
875.358000	-1.164928
875.563000	-1.397552
875.768000	-4.407388
875.974000	-4.991058
876.179000	-1.600820
876.384000	-1.798404
876.589000	-3.490544
876.794000	-3.638324
877.000000	-3.545374
877.205000	-4.642914
877.410000	-2.499006
877.615000	-3.504229
877.821000	-5.087156
878.026000	-4.070756
878.231000	-3.633260
878.436000	-3.930897
878.642000	-3.468817
878.847000	-1.760335
879.052000	-0.582677
879.257000	-3.156033
879.463000	-3.358224
879.668000	-2.567670
879.873000	-0.839428
880.078000	-2.385036
880.283000	-4.793644
880.489000	-4.993479
880.694000	-4.462955
880.899000	-3.535589
881.104000	-2.280293
881.310000	1.223913
881.515000	-0.248559
881.720000	0.005085
881.925000	2.306196
882.131000	3.635939
882.336000	0.829663
882.541000	-3.734276
882.746000	-4.013663
882.952000	-4.165394
883.157000	-3.914351
883.362000	-4.862509
883.567000	-5.461028
883.772000	-4.822102
883.978000	-3.127973
884.183000	-1.112448
884.388000	-0.631923
884.593000	-3.554010
884.799000	-0.368197
885.004000	-1.076900
885.209000	-2.701527
885.414000	-1.397390
885.620000	-3.309521
885.825000	-0.541867
886.030000	-1.578721
886.235000	-2.028118
886.440000	-1.712485
886.646000	-5.165642
886.851000	-6.085766
887.056000	-1.508096
887.261000	-2.126491
887.467000	-4.444934
887.672000	-1.298892
887.877000	-2.502716
888.082000	-5.035054
888.288000	-5.416190
888.493000	-7.738745
888.698000	-6.112508
888.903000	-3.408416
889.109000	-4.845058
889.314000	-0.572030
889.519000	-2.066446
889.724000	-0.282455
889.929000	-1.610144
890.135000	-2.135274
890.340000	-1.743121
890.545000	-3.840111
890.750000	-4.374194
890.956000	-2.865289
891.161000	-1.222863
891.366000	-2.986588
891.571000	-2.464278
891.777000	-2.348841
891.982000	-1.177199
892.187000	-1.301063
892.392000	-0.171877
892.598000	-0.470890
892.803000	-0.535186
893.008000	-3.057748
893.213000	-3.828567
893.418000	-2.648806
893.624000	-4.238735
893.829000	-6.667219
894.034000	-3.702450
894.239000	-1.948919
894.445000	-4.870155
894.650000	-4.894703
894.855000	-4.839470
895.060000	-5.627440
895.266000	-5.293644
895.471000	-4.926797
895.676000	-1.045727
895.881000	-0.555449
896.087000	-2.178528
896.292000	-2.820981
896.497000	0.258860
896.702000	-0.999848
896.907000	-3.268691
897.113000	1.080946
897.318000	0.954037
897.523000	0.703161
897.728000	-2.600899
897.934000	-3.796865
898.139000	-2.345420
898.344000	0.455527
898.549000	-1.671178
898.755000	-3.547396
898.960000	-5.259682
899.165000	-5.522221
899.370000	-0.450698
899.575000	2.625958
899.781000	-2.685950
899.986000	-3.605534
900.191000	-1.976213
900.396000	-2.441703
900.602000	-2.389793
900.807000	-3.881530
901.012000	-2.422358
901.217000	-1.075518
901.423000	-2.959333
901.628000	-5.336515
901.833000	-0.808882
902.038000	0.280857
902.244000	-4.706811
902.449000	-4.871959
902.654000	-3.951145
902.859000	-2.279233
903.064000	-0.897965
903.270000	-1.529934
903.475000	-5.795835
903.680000	-8.443927
903.885000	-6.680863
904.091000	-6.786002
904.296000	-6.244637
904.501000	-5.128226
904.706000	-4.786958
904.912000	0.151885
905.117000	-1.663215
905.322000	-5.264451
905.527000	-4.584122
905.733000	-4.514206
905.938000	-4.689225
906.143000	-6.230887
906.348000	-7.127789
906.553000	-0.591381
906.759000	0.231916
906.964000	-2.849433
907.169000	-4.755644
907.374000	-6.480081
907.580000	-4.466931
907.785000	-3.849592
907.990000	24.253921
908.195000	16.651603
908.401000	-1.161865
908.606000	-9.244066
908.811000	-10.018160
909.016000	-2.104235
909.221000	-3.131034
909.427000	-4.174806
909.632000	-4.291073
909.837000	-3.118479
910.042000	-5.539475
910.248000	-8.071715
910.453000	-3.320548
910.658000	-4.327532
910.863000	-4.159579
911.069000	-5.733087
911.274000	-2.470359
911.479000	-1.737400
911.684000	-6.553083
911.890000	-3.254294
912.095000	-5.603616
912.300000	-9.017911
912.506000	-4.549310
912.711000	-3.922364
912.917000	-2.728434
913.123000	-2.816478
913.328000	-2.575472
913.534000	-1.469055
913.740000	6.223815
913.946000	2.032199
914.151000	-4.093471
914.357000	-5.177211
914.563000	-1.400016
914.768000	-4.694491
914.974000	-7.075905
915.180000	-6.420299
915.385000	-5.355018
915.591000	-7.237056
915.797000	-2.843568
916.002000	0.472433
916.208000	-4.417196
916.414000	-5.770925
916.620000	-7.091276
916.825000	-4.114389
917.031000	-5.712008
917.237000	-11.666758
917.442000	-6.653045
917.648000	-6.705259
917.854000	-8.426368
918.059000	-1.534705
918.265000	-0.279564
918.471000	-5.028573
918.676000	-8.607569
918.882000	-8.664376
919.088000	-7.593975
919.294000	-12.230055
919.499000	-8.106197
919.705000	-1.400366
919.911000	-2.105495
920.116000	-1.516071
920.322000	-7.857806
920.528000	-6.153458
920.733000	-6.031028
920.939000	-7.729378
921.145000	-8.338008
921.350000	-5.908276
921.556000	-3.079670
921.762000	-5.091553
921.968000	-4.253292
922.173000	-6.535366
922.379000	-10.600606
922.585000	-6.095415
922.790000	-5.450809
922.996000	-6.594117
923.202000	-9.347793
923.407000	-9.069966
923.613000	-6.051033
923.819000	-4.609729
924.024000	-5.589386
924.230000	-1.341350
924.436000	-5.433372
924.642000	4.030969
924.847000	-0.568567
925.053000	-9.493244
925.259000	-11.479370
925.464000	-5.011924
925.670000	-7.809468
925.876000	-7.661503
926.081000	-8.177320
926.287000	-3.675247
926.493000	-2.408656
926.698000	-4.716230
926.904000	-2.759366
927.110000	-4.472979
927.316000	-4.004926
927.521000	2.963600
927.727000	-1.984638
927.933000	-5.754090
928.138000	-7.290192
928.344000	-12.597055
928.550000	-6.365241
928.755000	-1.019296
928.961000	-6.940639
929.167000	-9.055812
929.372000	-2.458283
929.578000	-1.824589
929.784000	-6.994766
929.990000	-11.543325
930.195000	-8.510593
930.401000	-4.146081
930.607000	-3.752573
930.812000	-3.789250
931.018000	-6.668915
931.224000	-12.286482
931.429000	-9.287624
931.635000	-11.622511
931.841000	-12.435639
932.046000	-9.246606
932.252000	-5.064705
932.458000	2.434241
932.664000	-1.281205
932.869000	-7.767323
933.075000	-8.690745
933.281000	-8.961586
933.486000	-0.879656
933.692000	-2.231519
933.898000	-8.162513
934.103000	1.072359
934.309000	-4.610870
934.515000	-6.254120
934.720000	-0.141555
934.926000	1.601885
935.132000	-1.571429
935.338000	-4.957905
935.543000	-12.190114
935.749000	-15.097185
935.955000	-13.516307
936.160000	-12.671222
936.366000	-2.839577
936.572000	-1.353535
936.777000	-1.905760
936.983000	-1.209231
937.189000	-7.577218
937.394000	-12.691969
937.600000	-1.240919
937.806000	5.996173
938.012000	-5.686024
938.217000	7.063143
938.423000	2.259151
938.629000	-6.890475
938.834000	-13.146158
939.040000	-14.583557
939.246000	-6.688220
939.451000	-10.847701
939.657000	-8.799234
939.863000	-10.513603
940.068000	-3.190701
940.274000	-9.677964
940.480000	-7.759383
940.686000	-2.480827
940.891000	-7.007788
941.097000	18.515556
941.303000	6.981760
941.508000	-10.586945
941.714000	-5.951549
941.920000	-15.538496
942.125000	-9.752796
942.331000	-10.016428
942.537000	0.239863
942.742000	0.462574
942.948000	-7.468338
943.154000	-13.400215
943.360000	-25.819861
943.565000	-9.864157
943.771000	1.156852
943.977000	2.725933
944.182000	-14.146076
944.388000	-18.724965
944.594000	-5.241688
944.799000	7.884486
945.005000	-5.660896
945.211000	-0.205218
945.416000	-0.671459
945.622000	-12.975811
945.828000	-12.881181
946.034000	-4.507009
946.239000	-0.215818
946.445000	-9.656381
946.651000	-22.065363
946.856000	-17.881082
947.062000	-1.867755
947.268000	-1.166604
947.473000	-19.100073
947.679000	-19.456871
947.885000	-2.147142
948.090000	1.723409
948.296000	9.157743
948.502000	-3.624945
948.708000	-12.000505
948.913000	-15.122929
949.119000	-5.932766
949.325000	-15.126975
949.530000	-24.333355
949.736000	-23.258786
949.942000	-14.778980
950.147000	-16.626205
950.353000	-13.528094
950.559000	-4.413670
950.764000	15.703992
950.970000	12.052493
951.176000	-9.099902
951.382000	-20.692205
951.587000	-7.791927
951.793000	1.862488
951.999000	4.939120
952.204000	-10.418714
952.410000	-28.959030
952.616000	-14.610732
952.821000	-6.952187
953.027000	-13.954429
953.233000	-18.949091
953.438000	-17.758379
953.644000	0.291868
953.850000	-5.814712
954.056000	-10.437703
954.261000	-6.992713
954.467000	3.545142
954.673000	7.048445
954.878000	-6.476502
955.084000	-10.554275
955.290000	-29.120849
955.495000	-28.113133
955.701000	-22.588514
955.907000	-2.469484
956.112000	0.860246
956.318000	7.453340
956.524000	3.366213
956.730000	-16.643681
956.935000	-16.977461
957.141000	-16.017596
957.347000	-7.112663
957.552000	-10.814783
957.758000	-27.098359
957.964000	-35.161746
958.169000	-1.710090
958.375000	1.773536
958.581000	-10.196516
958.786000	-17.545811
958.992000	-30.377384
959.198000	-12.216283
959.404000	-5.922763
959.609000	-15.290490
959.815000	-16.794379
960.021000	11.244012
960.226000	3.699651
960.432000	-29.428488
960.638000	-23.979719
960.843000	-13.915588
961.049000	-15.153987
961.255000	-4.044947
961.460000	-16.706844
961.666000	-34.664612
961.872000	-20.555899
962.078000	-12.973064
962.283000	-28.226563
962.489000	-29.749611
962.695000	-14.363834
962.900000	-10.355345
963.106000	-12.436175
963.312000	-13.262554
963.517000	-18.709318
963.723000	-23.333625
963.929000	-8.055648
964.134000	5.079590
964.340000	-16.973965
964.546000	-20.521647
964.752000	-23.426217
964.957000	-29.543874
965.163000	-3.472436
965.369000	-14.534022
965.574000	-12.170993
965.780000	-11.462500
966.000000	-18.304595
966.220000	-16.605239
966.440000	-17.420474
966.661000	0.402472
966.881000	-19.047727
967.101000	-40.610864
967.321000	-36.358159
967.541000	-14.836150
967.761000	-28.548869
967.981000	-16.877037
968.202000	-13.812497
968.422000	-5.369490
968.642000	-9.204031
968.862000	-4.285384
969.082000	-10.653485
969.302000	-4.866317
969.522000	-8.400363
969.743000	2.387506
969.963000	-13.960853
970.183000	-24.441091
970.403000	-26.249222
970.623000	-29.689310
970.843000	2.520906
971.063000	4.658019
971.284000	-25.289224
971.504000	-36.762074
971.724000	-11.965594
971.944000	-29.346385
972.164000	-37.801614
972.384000	-29.304901
972.604000	-47.672599
972.825000	-51.086859
973.045000	-27.464844
973.265000	25.876077
973.485000	11.385768
973.705000	-5.884458
973.925000	-10.604080
974.145000	-51.843642
974.365000	-14.180443
974.586000	-8.062005
974.806000	-33.777205
975.026000	-7.136331
975.246000	-28.714480
975.466000	-41.106307
975.686000	-19.019773
975.906000	-30.013244
976.127000	-49.586294
976.347000	-40.742145
976.567000	-10.905668
976.787000	-12.937379
977.007000	-24.548018
977.227000	-20.515616
977.447000	-26.430349
977.668000	-36.436115
977.888000	-36.300858
978.108000	-36.297122
978.328000	-20.921398
978.548000	7.998936
978.768000	8.148039
978.988000	-15.727866
979.209000	-19.023428
979.429000	-19.132896
979.649000	-12.083055
979.869000	-27.781430
980.089000	-52.695352
980.309000	-47.532906
980.529000	-54.430552
980.750000	-36.485417
980.970000	-50.936630
981.190000	-37.484700
981.410000	-44.058263
981.630000	-47.259979
981.850000	-19.724700
982.070000	-11.367077
982.291000	-46.868488
982.511000	-47.996466
982.731000	-10.269063
982.951000	-27.852740
983.171000	-23.240850
983.391000	-8.341943
983.611000	11.204940
983.832000	-22.026886
984.052000	-54.909341
984.272000	-39.902345
984.492000	-27.796747
984.712000	-34.783788
984.932000	-49.977390
985.152000	-49.998230
985.373000	-34.153394
985.593000	-11.962768
985.813000	-27.093412
986.033000	-35.755642
986.253000	6.046115
986.473000	3.619896
986.693000	-32.814361
986.914000	-37.403557
987.134000	10.784417
987.354000	-32.603106
987.574000	191.314167
987.794000	128.385019
988.014000	-37.864873
988.234000	-32.640324
988.455000	-4.874887
988.675000	-17.355120
988.895000	-23.116600
989.115000	-45.149326
989.335000	-21.063429
989.555000	-0.759959
989.775000	-49.583502
989.995000	-57.128547
990.216000	-51.767107
990.436000	-24.995956
990.656000	18.386821
990.876000	-41.145489
991.096000	-36.424695
991.316000	20.891674
991.536000	-10.372744
991.757000	-32.508908
991.977000	-89.603784
992.197000	-28.892346
992.417000	-25.489048
992.637000	-87.342017
992.857000	-103.001632
993.077000	-96.422734
993.298000	-35.895052
993.518000	-24.907685
993.738000	-81.304052
993.958000	-43.023699
994.178000	-59.771084
994.398000	-63.527770
994.618000	-95.514011
994.839000	-127.043363
995.059000	-45.158875
995.279000	12.737705
995.499000	-47.259757
995.719000	-26.607761
995.939000	-30.011576
996.159000	-34.433893
996.380000	-24.134571
996.600000	-80.895617
996.820000	-50.020424
997.040000	-7.164620
997.260000	-62.308023
997.480000	-68.134057
997.700000	-109.547753
997.921000	-51.483309
998.141000	14.827504
998.361000	-7.301661
998.581000	-55.137877
998.801000	-76.884277
999.021000	-46.523353
999.241000	-32.609480
999.462000	-55.710276
999.682000	-105.174213
999.902000	-85.490144
1000.122000	-78.327371
1000.342000	-127.820594
1000.562000	-84.161040
1000.782000	-95.627957
1001.003000	-990.425043
