Wavelength	Irradiance
(nm)	(mW/cm2/nm)

294.396000	0.000000
294.577000	0.000000
294.757000	-0.000000
294.938000	-0.000000
295.118000	-0.000000
295.299000	0.000000
295.479000	-0.000000
295.660000	-0.000000
295.840000	-0.000000
296.021000	-0.000000
296.202000	-0.000000
296.382000	-0.000000
296.563000	-0.000000
296.743000	-0.000000
296.924000	-0.000000
297.104000	-0.000000
297.285000	-0.000000
297.465000	-0.000000
297.646000	-0.000000
297.826000	-0.000000
298.007000	0.000000
298.187000	-0.000000
298.368000	-0.000000
298.548000	0.000000
298.729000	0.000000
298.909000	-0.000000
299.090000	-0.000000
299.270000	-0.000000
299.451000	-0.000000
299.631000	-0.000000
299.812000	-0.000000
299.992000	-0.000000
300.173000	0.000000
300.353000	-0.000000
300.534000	0.000000
300.714000	0.000000
300.895000	0.000000
301.075000	-0.000000
301.256000	0.000000
301.436000	-0.000000
301.617000	-0.000000
301.797000	-0.000000
301.978000	-0.000000
302.159000	0.000000
302.339000	0.000000
302.520000	-0.000000
302.700000	-0.000000
302.881000	0.000000
303.061000	0.000000
303.242000	0.000000
303.422000	0.000000
303.603000	-0.000000
303.783000	-0.000000
303.964000	0.000000
304.144000	-0.000000
304.325000	-0.000000
304.505000	-0.000000
304.686000	-0.000000
304.866000	0.000000
305.047000	-0.000000
305.227000	-0.000000
305.408000	-0.000000
305.588000	-0.000000
305.769000	-0.000000
305.949000	-0.000000
306.130000	-0.000000
306.310000	-0.000000
306.491000	-0.000000
306.671000	-0.000000
306.852000	-0.000000
307.032000	-0.000000
307.213000	-0.000000
307.393000	-0.000000
307.574000	0.000000
307.755000	0.000000
307.935000	-0.000000
308.116000	-0.000000
308.296000	-0.000000
308.477000	0.000000
308.657000	0.000000
308.838000	0.000000
309.018000	0.000000
309.199000	-0.000000
309.379000	-0.000000
309.560000	-0.000000
309.740000	-0.000000
309.921000	-0.000000
310.101000	-0.000000
310.282000	-0.000000
310.462000	-0.000000
310.643000	-0.000000
310.823000	-0.000000
311.004000	-0.000000
311.184000	-0.000000
311.365000	0.000000
311.545000	0.000000
311.726000	-0.000000
311.906000	-0.000000
312.087000	0.000000
312.267000	-0.000000
312.448000	-0.000000
312.628000	-0.000000
312.809000	-0.000000
312.989000	-0.000000
313.170000	-0.000000
313.344000	-0.000000
313.518000	-0.000000
313.691000	-0.000000
313.865000	-0.000000
314.039000	-0.000000
314.213000	-0.000000
314.387000	-0.000000
314.560000	-0.000000
314.734000	-0.000000
314.908000	-0.000000
315.082000	-0.000000
315.255000	0.000000
315.429000	0.000000
315.603000	-0.000000
315.777000	-0.000000
315.951000	0.000000
316.124000	-0.000000
316.298000	-0.000000
316.472000	-0.000000
316.646000	-0.000000
316.820000	-0.000000
316.993000	-0.000000
317.167000	-0.000000
317.341000	-0.000000
317.515000	-0.000000
317.688000	-0.000000
317.862000	-0.000000
318.036000	-0.000000
318.210000	-0.000000
318.384000	-0.000000
318.557000	-0.000000
318.731000	-0.000000
318.905000	-0.000000
319.079000	-0.000000
319.253000	-0.000000
319.426000	0.000000
319.600000	0.000000
319.774000	-0.000000
319.948000	-0.000000
320.122000	0.000000
320.295000	0.000000
320.469000	-0.000000
320.643000	-0.000000
320.817000	-0.000000
320.990000	-0.000000
321.164000	-0.000000
321.338000	-0.000000
321.512000	-0.000000
321.686000	-0.000000
321.859000	-0.000000
322.033000	-0.000000
322.207000	-0.000000
322.381000	0.000000
322.555000	-0.000000
322.728000	-0.000000
322.902000	-0.000000
323.076000	-0.000000
323.250000	-0.000000
323.423000	-0.000000
323.597000	-0.000000
323.771000	-0.000000
323.945000	-0.000000
324.119000	-0.000000
324.292000	-0.000000
324.466000	-0.000000
324.640000	0.000000
324.814000	0.000000
324.988000	-0.000000
325.161000	-0.000000
325.335000	-0.000000
325.509000	-0.000000
325.683000	-0.000000
325.856000	-0.000000
326.030000	-0.000000
326.204000	-0.000000
326.378000	-0.000000
326.552000	-0.000000
326.725000	-0.000000
326.899000	-0.000000
327.073000	-0.000000
327.247000	-0.000000
327.421000	0.000000
327.594000	-0.000000
327.768000	-0.000000
327.942000	-0.000000
328.116000	0.000000
328.289000	-0.000000
328.463000	-0.000000
328.637000	0.000000
328.811000	-0.000000
328.985000	-0.000000
329.158000	-0.000000
329.332000	-0.000000
329.506000	-0.000000
329.680000	-0.000000
329.854000	0.000000
330.027000	0.000000
330.201000	-0.000000
330.375000	-0.000000
330.549000	0.000000
330.723000	-0.000000
330.896000	-0.000000
331.070000	-0.000000
331.244000	-0.000000
331.418000	-0.000000
331.591000	-0.000000
331.765000	-0.000000
331.939000	-0.000000
332.113000	-0.000000
332.287000	-0.000000
332.460000	0.000000
332.634000	0.000000
332.808000	-0.000000
332.982000	-0.000000
333.156000	-0.000000
333.329000	-0.000000
333.503000	-0.000000
333.677000	-0.000000
333.851000	-0.000000
334.024000	-0.000000
334.198000	-0.000000
334.372000	-0.000000
334.546000	-0.000000
334.720000	-0.000000
334.893000	-0.000000
335.067000	-0.000000
335.241000	-0.000000
335.415000	-0.000000
335.589000	-0.000000
335.762000	-0.000000
335.936000	-0.000000
336.110000	-0.000000
336.284000	-0.000000
336.458000	-0.000000
336.631000	-0.000000
336.805000	-0.000000
336.979000	-0.000000
337.153000	-0.000000
337.326000	-0.000000
337.500000	0.000000
337.674000	-0.000000
337.848000	-0.000000
338.022000	-0.000000
338.195000	-0.000000
338.369000	-0.000000
338.543000	-0.000000
338.717000	-0.000000
338.891000	0.000000
339.064000	0.000000
339.238000	-0.000000
339.412000	-0.000000
339.586000	-0.000000
339.759000	-0.000000
339.933000	-0.000000
340.107000	0.000000
340.281000	-0.000000
340.455000	-0.000000
340.628000	-0.000000
340.802000	-0.000000
340.976000	0.000000
341.150000	-0.000000
341.324000	-0.000000
341.497000	-0.000000
341.671000	-0.000000
341.845000	-0.000000
342.019000	-0.000000
342.192000	-0.000000
342.366000	-0.000000
342.540000	-0.000000
342.714000	-0.000000
342.888000	-0.000000
343.061000	-0.000000
343.235000	0.000000
343.409000	-0.000000
343.583000	-0.000000
343.757000	-0.000000
343.930000	-0.000000
344.104000	-0.000000
344.278000	0.000000
344.452000	0.000000
344.626000	-0.000000
344.799000	-0.000000
344.973000	-0.000000
345.147000	-0.000000
345.321000	-0.000000
345.494000	-0.000000
345.668000	0.000000
345.842000	0.000000
346.016000	-0.000000
346.190000	-0.000000
346.363000	-0.000000
346.537000	-0.000000
346.711000	-0.000000
346.885000	-0.000000
347.059000	-0.000000
347.232000	-0.000000
347.406000	0.000000
347.580000	-0.000000
347.754000	-0.000000
347.927000	-0.000000
348.101000	0.000000
348.275000	-0.000000
348.449000	-0.000000
348.623000	-0.000000
348.796000	-0.000000
348.970000	0.000000
349.144000	-0.000000
349.318000	-0.000000
349.492000	-0.000000
349.665000	-0.000000
349.839000	-0.000000
350.013000	-0.000000
350.187000	-0.000000
350.361000	-0.000000
350.534000	-0.000000
350.708000	-0.000000
350.882000	-0.000000
351.056000	0.000000
351.229000	-0.000000
351.403000	-0.000000
351.577000	-0.000000
351.751000	-0.000000
351.925000	-0.000000
352.098000	-0.000000
352.272000	-0.000000
352.446000	-0.000000
352.620000	-0.000000
352.794000	-0.000000
352.967000	-0.000000
353.141000	0.000000
353.315000	0.000000
353.489000	-0.000000
353.662000	-0.000000
353.836000	-0.000000
354.010000	-0.000000
354.184000	-0.000000
354.358000	-0.000000
354.531000	-0.000000
354.705000	-0.000000
354.879000	-0.000000
355.053000	-0.000000
355.227000	0.000000
355.400000	-0.000000
355.574000	-0.000000
355.748000	0.000000
355.922000	-0.000000
356.095000	-0.000000
356.269000	-0.000000
356.443000	-0.000000
356.617000	-0.000000
356.791000	-0.000000
356.964000	-0.000000
357.138000	-0.000000
357.312000	-0.000000
357.486000	-0.000000
357.660000	-0.000000
357.833000	-0.000000
358.007000	-0.000000
358.181000	-0.000000
358.355000	-0.000000
358.529000	-0.000000
358.702000	-0.000000
358.876000	-0.000000
359.050000	-0.000000
359.224000	-0.000000
359.397000	-0.000000
359.571000	-0.000000
359.745000	-0.000000
359.919000	-0.000000
360.093000	-0.178365
360.266000	-0.018183
360.440000	0.090280
360.614000	0.053321
360.788000	-0.179609
360.962000	-0.345349
361.135000	0.088405
361.309000	-0.152899
361.483000	-0.381137
361.657000	-0.371134
361.830000	-0.345854
362.004000	-0.172605
362.178000	-0.590804
362.352000	-0.463231
362.526000	-0.118782
362.699000	-0.026854
362.873000	-0.448373
363.047000	-0.392860
363.221000	-0.411112
363.395000	-0.220103
363.568000	-0.127881
363.742000	-0.236900
363.916000	-0.272001
364.090000	-0.363621
364.263000	-0.379196
364.437000	-0.462733
364.611000	-0.073591
364.785000	-0.120627
364.959000	-0.326671
365.132000	-0.286929
365.306000	-0.438458
365.480000	-0.216602
365.656000	-0.283778
365.831000	-0.232228
366.007000	-0.156918
366.183000	-0.154072
366.358000	-0.409390
366.534000	-0.293447
366.710000	-0.400600
366.886000	-0.366789
367.061000	-0.209036
367.237000	-0.013938
367.413000	-0.060495
367.588000	-0.228260
367.764000	-0.210677
367.940000	-0.272090
368.115000	-0.273423
368.291000	-0.376117
368.467000	-0.271026
368.643000	0.072299
368.818000	-0.316105
368.994000	-0.467089
369.170000	-0.374905
369.345000	-0.304931
369.521000	-0.323917
369.697000	-0.169915
369.872000	-0.264564
370.048000	-0.460225
370.224000	-0.465191
370.399000	-0.653939
370.575000	-0.525559
370.751000	-0.473669
370.927000	-0.431819
371.102000	-0.450510
371.278000	-0.374641
371.454000	-0.231779
371.629000	0.099130
371.805000	-0.055199
371.981000	-0.055855
372.156000	0.075039
372.332000	-0.006387
372.508000	0.009748
372.683000	-0.119515
372.859000	-0.339953
373.035000	-0.212080
373.211000	0.240850
373.386000	-0.154701
373.562000	-0.580448
373.738000	-0.603441
373.913000	-0.724311
374.089000	-0.505455
374.265000	-0.203663
374.440000	-0.014913
374.616000	-0.064484
374.792000	-0.328140
374.968000	0.106316
375.143000	-0.030810
375.319000	-0.376292
375.495000	-0.517059
375.670000	-0.256916
375.846000	-0.079851
376.022000	-0.195951
376.197000	-0.365813
376.373000	-0.568497
376.549000	-0.446515
376.724000	-0.604374
376.900000	-0.493609
377.076000	-0.310948
377.252000	-0.021997
377.427000	0.143886
377.603000	-0.150457
377.779000	-0.214561
377.954000	-0.487249
378.130000	-0.265856
378.306000	-0.181076
378.481000	-0.330609
378.657000	-0.265973
378.833000	-0.281237
379.009000	-0.301124
379.184000	-0.077716
379.360000	-0.100617
379.536000	-0.014267
379.711000	-0.232059
379.887000	-0.435067
380.063000	-0.336190
380.238000	-0.528400
380.414000	-0.289436
380.590000	-0.387537
380.765000	-0.362587
380.941000	-0.225456
381.117000	-0.115121
381.293000	-0.246776
381.468000	-0.466567
381.644000	-0.286608
381.820000	-0.084187
381.995000	0.017317
382.171000	0.143937
382.347000	0.048974
382.522000	-0.367601
382.698000	-0.060958
382.874000	-0.068671
383.050000	-0.454033
383.225000	0.072152
383.401000	0.253361
383.577000	-0.133128
383.752000	-0.371472
383.928000	-0.277591
384.104000	-0.149427
384.279000	-0.173410
384.455000	-0.122132
384.631000	-0.230687
384.806000	-0.437768
384.982000	-0.246457
385.158000	-0.436196
385.334000	-0.237085
385.509000	-0.207155
385.685000	-0.461658
385.861000	-0.116211
386.036000	-0.300464
386.212000	-0.636691
386.388000	-0.390075
386.563000	-0.343350
386.739000	-0.269530
386.915000	-0.549799
387.090000	-0.505103
387.266000	-0.130497
387.442000	-0.122614
387.618000	-0.190937
387.793000	-0.495423
387.969000	-0.689201
388.145000	-0.555662
388.320000	-0.562002
388.496000	-0.570791
388.672000	-0.756971
388.847000	-0.258976
389.023000	-0.214375
389.199000	-0.417035
389.375000	-0.304114
389.550000	-0.491386
389.726000	-0.287368
389.902000	-0.421718
390.077000	-0.299168
390.253000	-0.120817
390.429000	-0.144601
390.604000	-0.143600
390.780000	-0.173288
390.956000	-0.383113
391.131000	-0.502815
391.307000	-0.043688
391.483000	-0.186734
391.659000	-0.436636
391.834000	-0.374587
392.010000	-0.449196
392.186000	-0.389510
392.361000	-0.247172
392.537000	-0.401522
392.713000	0.038524
392.888000	0.283424
393.064000	-0.020849
393.240000	-0.355022
393.416000	-0.441418
393.591000	-0.548695
393.767000	-0.513145
393.943000	-0.366771
394.118000	-0.027831
394.294000	0.052698
394.470000	-0.086144
394.645000	0.074227
394.821000	0.250322
394.997000	-0.165841
395.172000	-0.251791
395.348000	-0.346531
395.524000	-0.600156
395.700000	-0.436455
395.875000	-0.135027
396.051000	-0.278308
396.227000	-0.316515
396.402000	-0.376313
396.578000	-0.244921
396.754000	-0.351695
396.929000	-0.357298
397.105000	-0.020059
397.281000	-0.141801
397.457000	-0.419880
397.632000	-0.330669
397.808000	-0.489207
397.984000	-0.569077
398.159000	-0.455776
398.335000	-0.319337
398.511000	0.093917
398.686000	-0.240232
398.862000	-0.577463
399.038000	-0.583017
399.213000	-0.243883
399.389000	-0.633928
399.565000	-0.357606
399.741000	-0.104068
399.916000	-0.112173
400.092000	0.213359
400.268000	-0.397982
400.443000	-0.431088
400.619000	0.022646
400.795000	-0.005682
400.970000	-0.335033
401.146000	-0.343381
401.322000	-0.154432
401.497000	0.185466
401.673000	0.079692
401.849000	-0.147508
402.025000	-0.055082
402.200000	-0.167612
402.376000	-0.315366
402.552000	0.072099
402.727000	-0.090054
402.903000	-0.426855
403.079000	-0.349863
403.254000	0.008438
403.430000	0.022350
403.606000	-0.145517
403.782000	-0.320016
403.957000	-0.489095
404.133000	-0.525485
404.309000	-0.342725
404.484000	-0.236532
404.660000	-0.188069
404.841000	-0.272446
405.023000	-0.068438
405.204000	-0.110664
405.385000	-0.533340
405.566000	-0.488915
405.748000	-0.203834
405.929000	-0.048368
406.110000	-0.223576
406.292000	-0.353593
406.473000	-0.228868
406.654000	-0.371350
406.835000	-0.068689
407.017000	-0.173169
407.198000	-0.136714
407.379000	-0.129451
407.560000	-0.323259
407.742000	-0.409297
407.923000	-0.222583
408.104000	-0.235458
408.286000	-0.082035
408.467000	-0.137311
408.648000	-0.450770
408.829000	-0.615549
409.011000	-0.477507
409.192000	-0.507239
409.373000	-0.409141
409.555000	-0.311781
409.736000	-0.171436
409.917000	-0.283088
410.098000	-0.384602
410.280000	-0.217595
410.461000	-0.278682
410.642000	-0.354471
410.823000	-0.025994
411.005000	-0.115068
411.186000	-0.279638
411.367000	-0.369056
411.549000	-0.368789
411.730000	-0.067158
411.911000	0.056099
412.092000	-0.175980
412.274000	-0.289736
412.455000	-0.039345
412.636000	-0.168386
412.818000	-0.472041
412.999000	-0.502433
413.180000	-0.383831
413.361000	-0.290302
413.543000	-0.308991
413.724000	-0.415867
413.905000	-0.436069
414.087000	-0.477442
414.268000	-0.572253
414.449000	-0.499820
414.630000	-0.562136
414.812000	-0.554301
414.993000	-0.111501
415.174000	-0.045153
415.355000	-0.346083
415.537000	-0.550751
415.718000	-0.251688
415.899000	-0.297408
416.081000	-0.587081
416.262000	-0.288979
416.443000	-0.321160
416.624000	-0.294154
416.806000	-0.228934
416.987000	-0.058169
417.168000	-0.116955
417.350000	-0.327135
417.531000	-0.481876
417.712000	-0.553656
417.893000	-0.377235
418.075000	-0.193763
418.256000	-0.396475
418.437000	-0.116541
418.618000	-0.018266
418.800000	-0.044291
418.981000	-0.283870
419.162000	-0.320679
419.344000	-0.199633
419.525000	-0.344077
419.706000	-0.364030
419.887000	-0.102870
420.069000	0.176906
420.250000	0.124842
420.431000	-0.102485
420.613000	-0.259381
420.794000	-0.436167
420.975000	-0.024555
421.156000	-0.173515
421.338000	-0.205719
421.519000	-0.309163
421.700000	-0.355489
421.882000	-0.290567
422.063000	-0.018116
422.244000	0.368212
422.425000	0.136991
422.607000	-0.338226
422.788000	-0.447144
422.969000	-0.482777
423.150000	-0.405796
423.332000	-0.469058
423.513000	-0.321890
423.694000	-0.187131
423.876000	-0.160652
424.057000	-0.115325
424.238000	-0.141771
424.419000	-0.135661
424.601000	-0.253029
424.782000	-0.200655
424.963000	0.065899
425.145000	-0.089401
425.326000	-0.089018
425.507000	0.007729
425.688000	-0.089338
425.870000	-0.278182
426.051000	-0.437657
426.232000	-0.579622
426.413000	-0.472658
426.595000	-0.399139
426.776000	-0.373133
426.957000	-0.322875
427.139000	-0.263405
427.320000	-0.180271
427.501000	-0.109365
427.682000	-0.180089
427.864000	-0.108769
428.045000	0.066231
428.226000	-0.011730
428.408000	-0.291660
428.589000	-0.193181
428.770000	-0.179807
428.951000	-0.373210
429.133000	-0.520163
429.314000	-0.339432
429.495000	-0.351119
429.677000	-0.185183
429.858000	-0.211132
430.039000	-0.301603
430.220000	-0.172743
430.402000	-0.082246
430.583000	-0.294975
430.764000	-0.325875
430.945000	-0.236527
431.127000	-0.171024
431.308000	-0.309988
431.489000	-0.107308
431.671000	0.026937
431.852000	-0.170734
432.033000	-0.196238
432.214000	-0.125906
432.396000	-0.157284
432.577000	-0.284753
432.758000	-0.502189
432.940000	-0.437992
433.121000	-0.272183
433.302000	-0.233251
433.483000	-0.080970
433.665000	0.051899
433.846000	-0.188573
434.027000	-0.250275
434.208000	-0.362988
434.390000	-0.358024
434.571000	0.083238
434.752000	0.439408
434.934000	0.175548
435.115000	0.194708
435.296000	0.300703
435.477000	0.013685
435.659000	-0.238810
435.840000	-0.109892
436.026000	-0.183432
436.211000	-0.281610
436.397000	-0.531686
436.582000	-0.409195
436.768000	-0.139551
436.953000	-0.243271
437.139000	-0.328127
437.325000	-0.065580
437.510000	-0.180927
437.696000	0.092040
437.881000	0.116078
438.067000	-0.269297
438.252000	-0.275514
438.438000	-0.191161
438.624000	-0.215216
438.809000	-0.166441
438.995000	-0.046645
439.180000	-0.100156
439.366000	-0.254892
439.551000	-0.254552
439.737000	-0.105651
439.923000	-0.016641
440.108000	-0.176874
440.294000	-0.123078
440.479000	0.077830
440.665000	0.065609
440.850000	-0.144470
441.036000	-0.173992
441.222000	-0.186456
441.407000	-0.343591
441.593000	-0.190838
441.778000	-0.103326
441.964000	0.018655
442.149000	-0.265979
442.335000	-0.258864
442.521000	-0.229719
442.706000	-0.062083
442.892000	-0.165198
443.077000	-0.229060
443.263000	-0.187988
443.448000	-0.175731
443.634000	-0.215822
443.820000	0.018154
444.005000	-0.027214
444.191000	-0.197711
444.376000	-0.208090
444.562000	0.029224
444.747000	-0.021468
444.933000	-0.094638
445.119000	-0.105651
445.304000	-0.240078
445.490000	-0.071828
445.675000	-0.049359
445.861000	-0.173215
446.046000	-0.200895
446.232000	-0.133372
446.418000	-0.043661
446.603000	-0.099627
446.789000	-0.183384
446.974000	-0.105428
447.160000	-0.350906
447.345000	-0.171198
447.531000	-0.254350
447.717000	-0.160920
447.902000	-0.088651
448.088000	0.023427
448.273000	-0.154269
448.459000	-0.264509
448.644000	-0.203748
448.830000	-0.298984
449.016000	-0.365367
449.201000	-0.364850
449.387000	-0.165607
449.572000	-0.109705
449.758000	-0.275745
449.943000	-0.298318
450.129000	-0.241900
450.315000	-0.208371
450.500000	-0.169931
450.686000	-0.109442
450.871000	-0.220200
451.057000	-0.192207
451.243000	-0.180952
451.428000	-0.225390
451.614000	-0.213834
451.799000	-0.136596
451.985000	0.072672
452.170000	0.056102
452.356000	-0.141804
452.542000	-0.119963
452.727000	-0.037302
452.913000	-0.185718
453.098000	0.045051
453.284000	0.237253
453.469000	-0.026393
453.655000	0.077943
453.841000	0.072340
454.026000	-0.026190
454.212000	0.093580
454.397000	0.050122
454.583000	-0.306650
454.768000	-0.359634
454.954000	-0.210786
455.140000	-0.139924
455.325000	-0.177481
455.511000	-0.254465
455.696000	-0.238176
455.882000	-0.139981
456.067000	0.049940
456.253000	-0.042343
456.439000	-0.178031
456.624000	-0.128756
456.810000	-0.160772
456.995000	-0.209610
457.181000	-0.349147
457.366000	-0.159747
457.552000	-0.169769
457.738000	-0.089589
457.923000	-0.127141
458.109000	0.204687
458.294000	0.172364
458.480000	0.049308
458.665000	-0.084429
458.851000	-0.270976
459.037000	-0.465225
459.222000	-0.332782
459.408000	-0.248003
459.593000	-0.141333
459.779000	-0.030489
459.964000	0.180097
460.150000	0.312300
460.336000	0.248743
460.521000	-0.009420
460.707000	-0.108604
460.892000	-0.280364
461.078000	-0.040743
461.263000	0.136242
461.449000	-0.160734
461.635000	-0.223118
461.820000	-0.108214
462.006000	-0.009325
462.191000	-0.019613
462.377000	-0.184235
462.562000	0.109448
462.748000	0.320303
462.934000	-0.184572
463.119000	-0.327414
463.305000	-0.050078
463.490000	-0.202392
463.676000	-0.095846
463.861000	-0.152590
464.047000	-0.162316
464.233000	-0.049693
464.418000	-0.100292
464.604000	-0.236535
464.789000	0.031359
464.975000	0.031259
465.160000	-0.195952
465.346000	-0.110034
465.532000	-0.221400
465.717000	-0.271507
465.903000	0.001008
466.088000	-0.034220
466.274000	-0.219292
466.459000	-0.229571
466.645000	0.041159
466.831000	0.030925
467.016000	0.170307
467.202000	0.006002
467.387000	-0.183557
467.573000	-0.257334
467.758000	0.114767
467.944000	0.089992
468.130000	-0.078528
468.315000	-0.128299
468.501000	-0.058470
468.686000	-0.097873
468.872000	-0.048459
469.057000	-0.043502
469.243000	-0.088117
469.429000	-0.018797
469.614000	-0.117449
469.800000	-0.334593
469.985000	-0.131846
470.171000	0.015684
470.356000	-0.072808
470.542000	0.010864
470.728000	-0.023622
470.913000	-0.028402
471.099000	0.059700
471.284000	0.000986
471.470000	-0.033561
471.655000	-0.082928
471.841000	-0.240124
472.027000	-0.229051
472.212000	-0.008817
472.398000	0.084530
472.583000	0.010823
472.769000	-0.028588
472.954000	0.020669
473.140000	-0.180328
473.326000	-0.209999
473.511000	0.069531
473.697000	0.079418
473.882000	-0.018706
474.068000	-0.063128
474.253000	-0.180716
474.439000	-0.023609
474.625000	0.035349
474.810000	0.059940
474.996000	0.050113
475.181000	-0.150764
475.367000	0.045080
475.552000	0.227669
475.738000	-0.097023
475.924000	-0.087419
476.109000	-0.048110
476.295000	-0.107078
476.480000	0.005900
476.666000	-0.033384
476.851000	-0.023553
477.037000	-0.003946
477.223000	-0.107105
477.408000	-0.195595
477.594000	-0.244509
477.779000	-0.117093
477.965000	-0.126977
478.151000	-0.097428
478.336000	0.010835
478.522000	-0.126765
478.707000	-0.166055
478.893000	-0.067938
479.078000	-0.112522
479.264000	-0.097742
479.450000	-0.087904
479.635000	0.050304
479.821000	0.000988
480.006000	-0.003949
480.192000	0.005918
480.377000	0.045473
480.563000	0.050366
480.749000	-0.132421
480.934000	-0.087857
481.120000	0.094419
481.305000	0.109022
481.491000	0.158775
481.676000	0.149248
481.862000	0.129779
482.048000	-0.058135
482.233000	0.099401
482.419000	0.089762
482.604000	0.015798
482.790000	-0.038510
482.975000	0.060289
483.161000	0.193135
483.347000	0.178069
483.532000	0.158424
483.718000	0.000987
483.903000	-0.073160
484.089000	-0.013808
484.274000	-0.107333
484.460000	0.074988
484.646000	0.139133
484.831000	0.015800
485.017000	0.094500
485.202000	0.069758
485.388000	0.192444
485.573000	0.329255
485.759000	0.074663
485.945000	0.310504
486.130000	0.197355
486.316000	0.207253
486.501000	0.255687
486.687000	0.098805
486.872000	0.089103
487.058000	0.221435
487.244000	0.167650
487.429000	0.030304
487.615000	0.338299
487.800000	0.436001
487.986000	0.278524
488.171000	0.415824
488.357000	0.307408
488.543000	0.267518
488.728000	0.267605
488.914000	0.214417
489.099000	0.136718
489.285000	0.160843
489.470000	0.382740
489.656000	0.412042
489.842000	0.439367
490.027000	0.562915
490.213000	0.424335
490.398000	0.184239
490.584000	0.366233
490.769000	0.270108
490.955000	0.389590
491.141000	0.465327
491.326000	0.444617
491.512000	0.658987
491.697000	0.529157
491.883000	0.438922
492.068000	0.405648
492.254000	0.411141
492.440000	0.544366
492.625000	0.423933
492.811000	0.309244
492.996000	0.550380
493.182000	0.543905
493.367000	0.450757
493.553000	0.412992
493.739000	0.506952
493.924000	0.540674
494.110000	0.449292
494.295000	0.452632
494.481000	0.589806
494.666000	0.656224
494.852000	0.866978
495.038000	0.738378
495.223000	0.584247
495.409000	0.643885
495.594000	0.597942
495.780000	0.680780
495.965000	0.615762
496.151000	0.905654
496.337000	1.045307
496.522000	0.733362
496.708000	0.881169
496.893000	1.016892
497.079000	0.804176
497.264000	0.802640
497.450000	0.928850
497.636000	1.111713
497.821000	0.955207
498.007000	1.104199
498.192000	1.225116
498.378000	1.055053
498.563000	0.985405
498.749000	1.117184
498.935000	1.148141
499.120000	1.210484
499.306000	1.053818
499.491000	1.009153
499.677000	1.199278
499.862000	1.362347
500.048000	1.430131
500.234000	1.296072
500.419000	1.256431
500.605000	1.449077
500.790000	1.382142
500.976000	1.295563
501.161000	1.243817
501.347000	1.454020
501.533000	1.670014
501.718000	1.598941
501.904000	1.583934
502.089000	1.689485
502.275000	1.685096
502.460000	1.591508
502.646000	1.728767
502.832000	1.743713
503.017000	1.826825
503.203000	1.665294
503.388000	1.706889
503.574000	2.002404
503.759000	1.983121
503.945000	1.948952
504.131000	2.009966
504.316000	2.008743
504.502000	1.939113
504.687000	2.019578
504.873000	1.903005
505.058000	1.846277
505.244000	1.963490
505.430000	2.165230
505.615000	2.229353
505.801000	2.209734
505.986000	2.133177
506.172000	2.195700
506.358000	2.186543
506.543000	2.175922
506.729000	2.488802
506.914000	2.475347
507.100000	2.645219
507.285000	2.587860
507.471000	2.428226
507.657000	2.613164
507.842000	2.547907
508.028000	2.511657
508.213000	2.522686
508.399000	2.537450
508.584000	2.707010
508.770000	2.702235
508.956000	2.637606
509.141000	2.735295
509.327000	2.860275
509.512000	2.692056
509.698000	2.805665
509.883000	2.918542
510.069000	2.916834
510.255000	2.980401
510.440000	2.888161
510.626000	2.814764
510.811000	2.857222
510.997000	3.064297
511.182000	3.257273
511.368000	3.155194
511.554000	2.849605
511.739000	2.972577
511.925000	3.277078
512.110000	3.163614
512.296000	3.392847
512.481000	3.398332
512.667000	3.195154
512.853000	2.979191
513.038000	3.166460
513.224000	3.200967
513.409000	3.099441
513.595000	3.244403
513.780000	3.098031
513.966000	3.085743
514.152000	3.148695
514.337000	3.072927
514.523000	3.058759
514.708000	3.090809
514.894000	3.118671
515.079000	3.067977
515.265000	3.252452
515.451000	3.321470
515.636000	3.198285
515.822000	3.313497
516.007000	3.168920
516.193000	3.296264
516.378000	3.287390
516.564000	3.185946
516.750000	3.129032
516.935000	3.106430
517.121000	3.217069
517.306000	3.292614
517.492000	3.239392
517.677000	3.012974
517.863000	3.008692
518.049000	3.227644
518.234000	3.079978
518.420000	3.171058
518.605000	3.295949
518.791000	3.299150
518.976000	3.098297
519.162000	2.966426
519.348000	3.049576
519.533000	2.991826
519.719000	3.184091
519.904000	3.056531
520.090000	3.006705
520.275000	3.134847
520.461000	3.058424
520.647000	2.766253
520.832000	2.588567
521.018000	2.785985
521.203000	2.873758
521.389000	2.634464
521.574000	2.719548
521.760000	2.815337
521.946000	2.736284
522.131000	2.621738
522.317000	2.729562
522.502000	2.563093
522.688000	2.661504
522.873000	2.561784
523.059000	2.480772
523.245000	2.420046
523.430000	2.247671
523.616000	2.232425
523.801000	2.274409
523.987000	2.346915
524.172000	2.439514
524.358000	2.450334
524.544000	2.377993
524.729000	2.469044
524.915000	2.455440
525.100000	2.313020
525.286000	2.306671
525.471000	2.185817
525.657000	2.330284
525.843000	2.092455
526.028000	2.108670
526.214000	2.044033
526.399000	2.035164
526.585000	1.848374
526.770000	1.828453
526.956000	1.971287
527.142000	1.817879
527.327000	2.047349
527.513000	1.851923
527.698000	1.779676
527.884000	1.825938
528.069000	1.727976
528.255000	1.839565
528.441000	1.767136
528.626000	1.842428
528.812000	2.165058
528.997000	1.944598
529.183000	1.714027
529.368000	1.757107
529.554000	1.726545
529.740000	1.706186
529.925000	1.646000
530.111000	1.592254
530.296000	1.655316
530.482000	1.831813
530.667000	1.690496
530.853000	1.609379
531.039000	1.536383
531.224000	1.667716
531.410000	1.749231
531.595000	1.689286
531.781000	1.669015
531.967000	1.394485
532.152000	1.517912
532.338000	1.500182
532.523000	1.305536
532.709000	1.310362
532.894000	1.343022
533.080000	1.297234
533.266000	1.177421
533.451000	1.271408
533.637000	1.254387
533.822000	1.423971
534.008000	1.295414
534.193000	1.316192
534.379000	1.395730
534.565000	1.256501
534.750000	1.169612
534.936000	1.330813
535.121000	1.177088
535.307000	1.195413
535.492000	1.257151
535.678000	1.056805
535.864000	1.089519
536.049000	1.416474
536.235000	1.207720
536.420000	1.085362
536.606000	1.055014
536.791000	0.892997
536.977000	0.883985
537.163000	1.344676
537.348000	1.261695
537.534000	1.218701
537.719000	0.958141
537.905000	0.910097
538.090000	1.000332
538.276000	1.079210
538.462000	0.995499
538.647000	0.952824
538.833000	0.817149
539.018000	1.033290
539.204000	1.010398
539.389000	0.779628
539.575000	1.053853
539.761000	0.951528
539.946000	0.673776
540.132000	0.863282
540.317000	0.672298
540.503000	0.776747
540.688000	0.934064
540.874000	1.083683
541.060000	1.230049
541.245000	1.088407
541.431000	0.876743
541.616000	0.984245
541.802000	0.861334
541.987000	0.950672
542.173000	0.997907
542.359000	0.811989
542.544000	0.916674
542.730000	0.757767
542.915000	0.709459
543.101000	0.904270
543.286000	0.667359
543.472000	0.583000
543.658000	0.760601
543.843000	0.603890
544.029000	0.758559
544.214000	0.632095
544.400000	0.352125
544.585000	0.563871
544.771000	0.681171
544.957000	0.791916
545.142000	0.914799
545.328000	1.026857
545.513000	0.970613
545.699000	0.890430
545.884000	0.650743
546.070000	0.670533
546.261000	0.679498
546.451000	0.570404
546.642000	0.348600
546.833000	0.467352
547.023000	0.329435
547.214000	0.278055
547.405000	0.409759
547.595000	0.746698
547.786000	0.696600
547.977000	0.512586
548.167000	0.220624
548.358000	0.301694
548.549000	0.624365
548.740000	0.476982
548.930000	0.068356
549.121000	0.142481
549.312000	0.122786
549.502000	0.096032
549.693000	0.190557
549.884000	0.319043
550.074000	0.442264
550.265000	0.327726
550.456000	0.403497
550.646000	0.452278
550.837000	0.404594
551.028000	0.268266
551.218000	0.336613
551.409000	0.159422
551.600000	0.242088
551.790000	0.498513
551.981000	0.201605
552.172000	0.125892
552.362000	0.409318
552.553000	0.508688
552.744000	0.459737
552.934000	0.501839
553.125000	0.259026
553.316000	0.224354
553.506000	0.525038
553.697000	0.337779
553.888000	0.309204
554.079000	0.540481
554.269000	0.400862
554.460000	0.148946
554.651000	0.022506
554.841000	-0.252064
555.032000	-0.012693
555.223000	0.255628
555.413000	0.261527
555.604000	0.128494
555.795000	0.242090
555.985000	0.363172
556.176000	0.199664
556.367000	-0.062293
556.557000	0.036932
556.748000	0.008539
556.939000	-0.005684
557.129000	0.029817
557.320000	0.264256
557.511000	0.185769
557.701000	0.072208
557.892000	0.115143
558.083000	0.384814
558.273000	0.242861
558.464000	-0.026986
558.655000	0.051088
558.845000	0.114609
559.036000	0.178408
559.227000	-0.048177
559.418000	0.100791
559.608000	0.178798
559.799000	-0.026928
559.990000	-0.097271
560.180000	0.036701
560.371000	-0.182370
560.562000	-0.273843
560.752000	0.100313
560.943000	-0.055127
561.134000	-0.308727
561.324000	-0.153473
561.515000	0.184106
561.706000	0.092860
561.896000	-0.124948
562.087000	-0.033656
562.278000	-0.180829
562.468000	-0.286247
562.659000	-0.208501
562.850000	0.085414
563.040000	0.099417
563.231000	-0.306891
563.422000	-0.166210
563.612000	-0.131437
563.803000	-0.019540
563.994000	-0.068062
564.185000	-0.206618
564.375000	-0.061085
564.566000	-0.019413
564.757000	-0.033371
564.947000	-0.137493
565.138000	-0.081663
565.329000	-0.185098
565.519000	-0.316161
565.710000	-0.157549
565.901000	0.056702
566.091000	0.146486
566.282000	-0.115817
566.473000	-0.094841
566.663000	-0.115324
566.854000	-0.347336
567.045000	-0.175945
567.235000	-0.005455
567.426000	-0.039532
567.617000	0.123601
567.807000	0.082889
567.998000	-0.032546
568.189000	-0.127440
568.379000	-0.120355
568.570000	0.055367
568.761000	-0.012128
568.951000	-0.119744
569.142000	-0.187267
569.333000	-0.173791
569.524000	-0.206695
569.714000	-0.260358
569.905000	-0.407285
570.096000	0.068314
570.286000	0.181927
570.477000	0.268147
570.668000	0.134614
570.858000	0.047979
571.049000	-0.237724
571.240000	-0.297636
571.430000	-0.078293
571.621000	-0.104461
571.812000	0.027655
572.002000	0.001319
572.193000	-0.104050
572.384000	-0.038179
572.574000	-0.057974
572.765000	-0.064444
572.956000	-0.031466
573.146000	0.040704
573.337000	-0.123180
573.528000	-0.057558
573.718000	0.157871
573.909000	0.138104
574.100000	-0.083086
574.290000	-0.218698
574.481000	-0.050356
574.672000	-0.069804
574.863000	0.014163
575.053000	-0.146497
575.244000	-0.005128
575.435000	-0.203644
575.625000	-0.126238
575.816000	-0.049668
576.007000	-0.094243
576.197000	0.001276
576.388000	0.001271
576.579000	0.166394
576.769000	0.013956
576.960000	-0.226926
577.155000	-0.333760
577.350000	-0.188140
577.545000	0.001260
577.740000	-0.111838
577.935000	0.295946
578.130000	0.139303
578.326000	-0.280259
578.521000	-0.005002
578.716000	0.063485
578.911000	-0.185273
579.106000	0.007433
579.301000	0.075334
579.496000	-0.152657
579.691000	-0.337034
579.886000	-0.170531
580.081000	0.007350
580.276000	-0.004888
580.471000	-0.163714
580.666000	-0.273197
580.861000	-0.260908
581.057000	-0.236678
581.252000	-0.181821
581.447000	-0.260554
581.642000	-0.187817
581.837000	-0.157115
582.032000	-0.108089
582.227000	0.025356
582.422000	0.031335
582.617000	-0.196752
582.812000	-0.291976
583.007000	-0.160260
583.202000	-0.261436
583.397000	0.072566
583.592000	0.197127
583.788000	-0.152701
583.983000	-0.170295
584.178000	0.060217
584.373000	-0.140085
584.568000	-0.274884
584.763000	-0.192841
584.958000	-0.233980
585.153000	-0.139928
585.348000	-0.257373
585.543000	-0.051763
585.738000	0.042332
585.933000	-0.216419
586.128000	-0.081128
586.324000	-0.075446
586.519000	0.030628
586.714000	0.207491
586.909000	0.154714
587.104000	0.119681
587.299000	0.072076
587.494000	0.042479
587.689000	0.048474
587.884000	0.101983
588.079000	0.001186
588.274000	-0.058217
588.469000	0.018972
588.664000	0.137726
588.859000	0.096309
589.055000	0.048805
589.250000	0.036919
589.445000	0.007154
589.640000	0.066827
589.835000	0.264360
590.030000	0.347991
590.225000	0.593249
590.420000	0.216788
590.615000	0.085115
590.810000	0.073045
591.005000	0.139474
591.200000	0.109460
591.395000	-0.070958
591.591000	0.163282
591.786000	0.343085
591.981000	0.253864
592.176000	0.266437
592.371000	0.296692
592.566000	0.296477
592.761000	0.501287
592.956000	0.520241
593.151000	0.574847
593.346000	0.540108
593.541000	0.618185
593.736000	0.498740
593.931000	0.480746
594.126000	0.657750
594.322000	0.834010
594.517000	0.791296
594.712000	0.554515
594.907000	0.568715
595.102000	0.777206
595.297000	1.100326
595.492000	1.145505
595.687000	0.976120
595.882000	0.872326
596.077000	1.064557
596.272000	1.469923
596.467000	1.574902
596.662000	1.348774
596.857000	1.385047
597.053000	1.356438
597.248000	1.454816
597.443000	1.716882
597.638000	1.683770
597.833000	1.585942
598.028000	1.919092
598.223000	2.053436
598.418000	1.957424
598.613000	1.944709
598.808000	2.189325
599.003000	2.179206
599.198000	2.213200
599.393000	2.343710
599.589000	2.469101
599.784000	2.351725
599.979000	2.631393
600.174000	3.028947
600.369000	2.805743
600.564000	2.916415
600.759000	3.386293
600.954000	3.607143
601.149000	3.555068
601.344000	3.337530
601.539000	3.632435
601.734000	3.615052
601.929000	3.415141
602.124000	3.703254
602.320000	4.211328
602.515000	4.427930
602.710000	4.557994
602.905000	4.226466
603.100000	4.283194
603.295000	4.571115
603.490000	4.705482
603.685000	4.878649
603.880000	4.961294
604.075000	5.018706
604.270000	5.369681
604.465000	5.564519
604.660000	5.344250
604.856000	5.635491
605.051000	5.974229
605.246000	6.039987
605.441000	6.050841
605.636000	5.981834
605.831000	6.424472
606.026000	6.479761
606.221000	6.656295
606.416000	7.026387
606.611000	7.382457
606.806000	7.550070
607.001000	7.863667
607.196000	7.741534
607.391000	7.668090
607.587000	8.131723
607.782000	8.331049
607.977000	8.181628
608.172000	8.786335
608.367000	9.137590
608.562000	9.162368
608.757000	9.244162
608.952000	9.304899
609.147000	10.017639
609.342000	10.209606
609.537000	10.228353
609.732000	10.657684
609.927000	10.525317
610.122000	10.707224
610.318000	11.373941
610.513000	11.721268
610.708000	11.839194
610.903000	12.273584
611.098000	12.570169
611.293000	12.850641
611.488000	12.839191
611.683000	13.132651
611.878000	13.467220
612.073000	13.755368
612.268000	14.002042
612.463000	14.232437
612.658000	14.710353
612.854000	15.080313
613.049000	15.180207
613.244000	15.801224
613.439000	16.260066
613.634000	16.213796
613.829000	16.806009
614.024000	17.006459
614.219000	17.231494
614.414000	18.039654
614.609000	18.153655
614.804000	18.124907
614.999000	18.430030
615.194000	18.881072
615.389000	19.360701
615.585000	19.679253
615.780000	20.424139
615.975000	20.816319
616.170000	21.142428
616.365000	21.834191
616.560000	22.356636
616.755000	22.839198
616.950000	23.488302
617.145000	24.115643
617.340000	24.288558
617.535000	24.451630
617.730000	25.214912
617.925000	25.611172
618.120000	25.899465
618.316000	26.750573
618.511000	27.186770
618.706000	27.551072
618.901000	28.176429
619.096000	28.974098
619.291000	29.541905
619.486000	29.939962
619.681000	30.108839
619.876000	30.891859
620.071000	31.660237
620.266000	32.188576
620.461000	32.872398
620.656000	33.602768
620.852000	34.166045
621.047000	34.863599
621.242000	35.391686
621.437000	36.141405
621.632000	36.745227
621.827000	37.199872
622.022000	37.432275
622.217000	38.259515
622.412000	39.147799
622.607000	39.842765
622.802000	40.146163
622.997000	41.158467
623.192000	41.509541
623.387000	42.241878
623.583000	42.602620
623.778000	43.910663
623.973000	44.524438
624.168000	45.423414
624.363000	46.002955
624.558000	46.539125
624.753000	47.269603
624.948000	48.716492
625.143000	49.377446
625.338000	49.791955
625.533000	50.693598
625.728000	51.339856
625.923000	51.907092
626.119000	52.772655
626.314000	53.214535
626.509000	53.675896
626.704000	55.063050
626.899000	55.752040
627.094000	56.530336
627.289000	57.245538
627.484000	58.238371
627.679000	59.369511
627.874000	60.225254
628.069000	61.432019
628.264000	62.133886
628.459000	62.832589
628.654000	63.863491
628.850000	64.450121
629.045000	65.374250
629.240000	66.129513
629.435000	67.062426
629.630000	67.978011
629.825000	68.623506
630.020000	69.790630
630.215000	70.110990
630.410000	70.711126
630.605000	71.519346
630.800000	71.943589
630.995000	72.796777
631.190000	73.653977
631.385000	73.804000
631.581000	73.824286
631.776000	74.468568
631.971000	74.671462
632.166000	75.017315
632.361000	74.890379
632.556000	75.154779
632.751000	75.084980
632.946000	74.941444
633.141000	74.748391
633.336000	74.413110
633.531000	74.042579
633.726000	73.513433
633.921000	72.742492
634.117000	71.714785
634.312000	70.990924
634.507000	69.945926
634.702000	69.071476
634.897000	68.572322
635.092000	67.586006
635.287000	66.786978
635.482000	65.523555
635.677000	64.027516
635.872000	62.712753
636.067000	61.517005
636.262000	59.584758
636.457000	57.775631
636.652000	56.299837
636.848000	54.818163
637.043000	53.726179
637.238000	52.259017
637.433000	50.412180
637.628000	49.031115
637.823000	47.229950
638.018000	45.690616
638.213000	44.541283
638.408000	43.178561
638.603000	41.466909
638.798000	39.798912
638.993000	38.424411
639.188000	37.683874
639.383000	36.014297
639.579000	34.869982
639.774000	33.600554
639.969000	32.432215
640.164000	31.103630
640.359000	30.015415
640.554000	29.003707
640.749000	28.200381
640.944000	27.449535
641.139000	26.210363
641.334000	24.909748
641.529000	23.608976
641.724000	22.742085
641.919000	22.079951
642.115000	21.928480
642.310000	21.096529
642.505000	20.239711
642.700000	19.793648
642.895000	19.000410
643.090000	18.305272
643.285000	17.831760
643.480000	17.255600
643.675000	16.471941
643.870000	16.165557
644.065000	15.544253
644.260000	14.639747
644.455000	14.360855
644.650000	13.832283
644.846000	13.533919
645.041000	12.657392
645.236000	11.973221
645.431000	11.682378
645.626000	11.159474
645.821000	10.972146
646.016000	10.829055
646.211000	11.083477
646.406000	10.585246
646.601000	10.231875
646.796000	9.577362
646.991000	8.809348
647.186000	8.786935
647.381000	8.691943
647.577000	8.683477
647.772000	8.398474
647.967000	7.935351
648.162000	7.773293
648.357000	7.522397
648.552000	7.384561
648.747000	6.925048
648.942000	6.684769
649.137000	6.366613
649.332000	5.951198
649.527000	5.974103
649.722000	6.107554
649.917000	5.998088
650.113000	5.278263
650.308000	5.141332
650.503000	5.062161
650.698000	5.161937
650.893000	4.944053
651.088000	4.836447
651.283000	4.753001
651.478000	4.325758
651.673000	4.218944
651.868000	3.851013
652.063000	4.107227
652.258000	4.230455
652.453000	4.347549
652.648000	3.848102
652.844000	3.499405
653.039000	3.462376
653.234000	3.016794
653.429000	2.893100
653.624000	3.045736
653.819000	3.078277
654.014000	2.897872
654.209000	2.637581
654.404000	2.798871
654.599000	2.728106
654.794000	2.533318
654.989000	2.696796
655.184000	2.509088
655.380000	2.021601
655.575000	2.073850
655.770000	2.155452
655.965000	2.234167
656.160000	2.174509
656.355000	2.095867
656.550000	2.111018
656.745000	2.077560
656.940000	1.843578
657.135000	1.712224
657.330000	1.765304
657.525000	1.670461
657.720000	1.813421
657.915000	1.776769
658.111000	1.628741
658.306000	1.866401
658.501000	1.633783
658.696000	1.334923
658.891000	1.546137
659.086000	1.440256
659.281000	1.425038
659.476000	0.951960
659.671000	0.573586
659.866000	1.101910
660.061000	1.472551
660.256000	1.305814
660.451000	1.351068
660.646000	1.087930
660.842000	1.053823
661.037000	0.612014
661.232000	0.772314
661.427000	0.913296
661.622000	0.799720
661.817000	0.639958
662.012000	0.703765
662.207000	0.784277
662.402000	0.750593
662.597000	0.822472
662.792000	0.474135
662.987000	0.491557
663.182000	0.787082
663.378000	0.698403
663.573000	0.467342
663.768000	0.519979
663.963000	0.592100
664.158000	0.537944
664.353000	1.051578
664.548000	0.988424
664.743000	0.765054
664.938000	0.531532
665.133000	0.262586
665.328000	0.623215
665.523000	0.696626
665.718000	0.579385
665.913000	0.634485
666.109000	0.608729
666.304000	0.853030
666.499000	0.562898
666.694000	0.582650
666.889000	0.872971
667.084000	0.493492
667.279000	0.465899
667.474000	0.575417
667.669000	0.438740
667.864000	0.457485
668.059000	0.549455
668.254000	0.522736
668.449000	0.175662
668.644000	0.267397
668.840000	0.440811
669.035000	0.102575
669.230000	-0.071679
669.425000	0.314497
669.620000	0.130571
669.815000	0.167957
670.010000	0.140142
670.205000	0.066438
670.400000	0.047898
670.595000	0.352935
670.790000	0.408919
670.985000	0.344519
671.180000	0.419072
671.376000	0.317370
671.571000	0.085563
671.766000	0.067118
671.961000	-0.119366
672.156000	-0.240897
672.351000	-0.026150
672.546000	0.039307
672.741000	0.076576
672.936000	0.263690
673.131000	0.892603
673.326000	0.453185
673.521000	-0.026349
673.716000	-0.129860
673.911000	-0.393623
674.107000	0.181143
674.302000	0.511706
674.497000	0.238187
674.692000	-0.168363
674.887000	-0.074029
675.082000	0.087448
675.277000	0.268422
675.472000	0.059092
675.667000	-0.169912
675.862000	-0.189100
676.057000	0.145265
676.252000	0.116840
676.447000	-0.036482
676.643000	-0.046045
676.838000	0.347914
677.033000	0.184789
677.228000	0.571193
677.423000	0.310871
677.618000	-0.152952
677.813000	-0.152863
678.008000	-0.027177
678.203000	-0.036922
678.398000	0.031149
678.593000	0.245379
678.788000	0.168024
678.983000	-0.134645
679.178000	-0.134713
679.374000	-0.310877
679.569000	-0.115606
679.764000	-0.155253
679.959000	-0.313220
680.154000	-0.362542
680.349000	-0.521971
680.544000	-0.392928
680.739000	-0.225213
680.934000	-0.373756
681.129000	-0.394633
681.324000	-0.424903
681.519000	-0.147393
681.714000	-0.237106
681.909000	-0.206967
682.105000	-0.317311
682.300000	0.152260
682.495000	0.182217
682.690000	-0.058201
682.885000	-0.208889
683.080000	-0.290034
683.275000	-0.118893
683.470000	0.264304
683.665000	0.497417
683.860000	0.954014
684.055000	0.356693
684.250000	-0.139977
684.445000	-0.048610
684.641000	0.327074
684.836000	0.052907
685.031000	0.012253
685.226000	-0.120655
685.421000	0.176365
685.616000	-0.182517
685.811000	-0.388522
686.006000	-0.110996
686.201000	-0.039106
686.396000	-0.421487
686.591000	-0.391280
686.786000	0.002074
686.981000	-0.091245
687.176000	0.137200
687.372000	-0.029136
687.567000	0.324802
687.762000	0.346574
687.957000	0.294369
688.152000	-0.186203
688.347000	-0.312296
688.542000	-0.460152
688.737000	-0.680472
688.932000	-0.692147
689.127000	-0.166431
689.322000	0.223949
689.517000	-0.198554
689.712000	-0.443028
689.908000	-0.369210
690.103000	-0.295516
690.298000	-0.072296
690.493000	-0.072486
690.688000	-0.350069
690.883000	-0.265597
691.078000	0.366389
691.273000	0.355716
691.468000	-0.223292
691.663000	-0.224141
691.858000	0.066823
692.053000	-0.094841
692.248000	-0.030208
692.443000	-0.084146
692.639000	0.002162
692.834000	0.251424
693.029000	0.576757
693.224000	0.525031
693.419000	-0.237683
693.614000	-0.369215
693.809000	-0.369485
694.004000	-0.424943
694.199000	-0.183948
694.394000	0.013184
694.589000	-0.382733
694.784000	-0.350094
694.979000	-0.030827
695.174000	-0.064018
695.370000	0.387863
695.565000	0.101620
695.760000	-0.141708
695.955000	0.102099
696.150000	0.102131
696.345000	-0.231801
696.540000	-0.064750
696.740000	-0.243200
696.940000	-0.008932
697.140000	0.125686
697.340000	-0.233822
697.539000	-0.188957
697.739000	-0.132773
697.939000	0.069810
698.139000	-0.572588
698.339000	-0.936775
698.539000	-0.687480
698.739000	-0.677989
698.939000	-0.396273
699.138000	-0.374117
699.338000	0.081843
699.538000	0.025103
699.738000	-0.306695
699.938000	-0.410035
700.138000	-0.456621
700.338000	-0.365891
700.538000	-0.262989
700.737000	-0.366680
700.937000	-0.825459
701.137000	-0.573413
701.337000	0.118056
701.537000	-0.078877
701.737000	-0.426327
701.937000	-0.276347
702.137000	-0.113796
702.337000	-0.276824
702.536000	-0.708625
702.736000	-0.627795
702.936000	-0.652094
703.136000	-0.103143
703.336000	-0.114838
703.536000	-0.279666
703.736000	-0.692815
703.936000	-0.679622
704.135000	-0.573511
704.335000	-0.009428
704.535000	-0.423061
704.735000	-0.648254
704.935000	-0.186509
705.135000	-0.187417
705.335000	-0.271354
705.535000	0.181021
705.735000	0.002381
705.934000	-0.164236
706.134000	-0.569066
706.334000	-0.570416
706.534000	-0.654890
706.734000	-0.487970
706.934000	-0.487943
707.134000	-0.583769
707.334000	-0.381216
707.533000	-0.129709
707.733000	-0.069608
707.933000	-0.213838
708.133000	-0.261574
708.333000	-0.009649
708.533000	-0.203004
708.733000	-0.057992
708.933000	-0.348261
709.132000	-0.554909
709.332000	-0.458756
709.532000	-0.654381
709.732000	-0.337644
709.932000	-0.837609
710.132000	-0.837084
710.332000	-0.897507
710.532000	-0.460124
710.732000	-0.229472
710.931000	-0.632737
711.131000	-0.622948
711.331000	-0.439344
711.531000	-0.550727
711.731000	-0.539790
711.931000	-0.392552
712.131000	-0.342763
712.331000	-0.170203
712.530000	-0.564190
712.730000	-0.540974
712.930000	-0.417324
713.130000	-0.294885
713.330000	-0.307655
713.530000	-0.146923
713.730000	0.326368
713.930000	-0.122038
714.129000	-0.644384
714.329000	-0.671412
714.529000	-0.446436
714.729000	0.027491
714.929000	-0.159953
715.129000	-0.435594
715.329000	-0.523698
715.529000	-0.462944
715.729000	0.178300
715.928000	-0.098186
716.128000	-0.387948
716.328000	-0.123804
716.528000	-0.338953
716.728000	-0.263131
716.928000	-0.566801
717.128000	-0.200345
717.328000	-0.618686
717.527000	-0.759064
717.727000	-0.391337
717.927000	-0.341610
718.127000	-0.405574
718.327000	-0.789620
718.527000	-0.699830
718.727000	-0.317004
718.927000	-0.420023
719.127000	-0.845997
719.326000	-0.740125
719.526000	-0.100062
719.726000	-0.228826
719.926000	-0.603880
720.126000	-0.462017
720.326000	-0.513562
720.526000	-0.642717
720.726000	-0.385760
720.925000	-0.152848
721.125000	-0.699465
721.325000	-0.386966
721.525000	-0.309802
721.725000	-0.674350
721.925000	-0.624030
722.125000	-0.611024
722.325000	-0.062662
722.524000	-0.377117
722.724000	-1.006894
722.924000	-1.137930
723.124000	-0.771814
723.324000	-0.536095
723.524000	-0.431369
723.724000	-0.747681
723.924000	-0.287991
724.124000	-0.076648
724.323000	0.121737
724.523000	-0.010577
724.723000	0.241135
724.923000	-0.010602
725.123000	-0.169819
725.323000	-0.050505
725.523000	-0.183763
725.723000	-0.622542
725.922000	-0.503389
726.122000	-0.623945
726.322000	-0.732573
726.522000	-0.760052
726.722000	-0.237911
726.922000	-0.317889
727.122000	-0.184964
727.322000	-0.104678
727.521000	-0.481625
727.721000	-0.617064
727.921000	-0.401515
728.121000	-0.536117
728.321000	-0.860987
728.521000	-0.741424
728.721000	-0.512290
728.921000	-0.403726
729.121000	0.450530
729.320000	0.111399
729.520000	-0.418463
729.720000	-0.759375
729.920000	-0.489518
730.120000	-0.447358
730.320000	-0.407437
730.520000	-0.407605
730.720000	-0.367725
730.919000	-0.587153
731.119000	-0.533254
731.319000	-1.057236
731.519000	-0.768043
731.719000	-0.382935
731.919000	-0.507178
732.119000	-1.046409
732.319000	-0.828123
732.519000	-0.371330
732.718000	-0.663166
732.918000	-0.635965
733.118000	-0.456587
733.318000	-0.108891
733.518000	-0.485860
733.718000	-1.255487
733.918000	-1.046384
734.118000	-0.864224
734.317000	-0.572880
734.517000	-0.628173
734.717000	-0.687557
734.917000	-0.152508
735.117000	-0.096126
735.317000	-0.223295
735.517000	0.314597
735.717000	0.429231
735.916000	-0.594191
736.116000	-0.820919
736.316000	-0.411563
736.516000	-0.225717
736.716000	-0.240125
736.916000	-0.800811
737.116000	-0.646076
737.316000	-0.011535
737.516000	-0.228271
737.715000	-0.344069
737.915000	-0.835977
738.115000	-0.751576
738.315000	-0.519813
738.515000	-0.563264
738.715000	-0.318332
738.915000	0.061412
739.115000	-0.553624
739.314000	-0.743353
739.514000	-0.246716
739.714000	-0.291506
739.914000	-0.292359
740.114000	-0.204147
740.314000	-0.293124
740.514000	-0.041515
740.714000	-0.681374
740.913000	-1.174029
741.113000	-0.966956
741.313000	-0.564059
741.513000	-0.580610
741.713000	-0.462135
741.913000	-0.419093
742.113000	-0.674346
742.313000	-1.143405
742.513000	-0.631120
742.712000	-0.163593
742.912000	-0.512119
743.112000	-0.483445
743.312000	-1.093366
743.512000	-0.668490
743.712000	-0.456276
743.912000	-1.024446
744.112000	-1.086484
744.311000	-0.950936
744.511000	-0.628938
744.711000	-0.460516
744.911000	-0.940922
745.111000	-0.725161
745.311000	-0.136618
745.511000	-0.665375
745.711000	-0.868293
745.911000	-0.308504
746.110000	-0.589244
746.310000	-0.843608
746.510000	-0.810493
746.710000	-0.405534
746.910000	-0.154177
747.110000	-0.879279
747.310000	-1.180736
747.510000	-0.836635
747.709000	-0.345709
747.909000	-0.489685
748.109000	-0.634913
748.309000	-0.588255
748.509000	-0.925394
748.709000	-1.073449
748.909000	-0.800019
749.109000	-0.787377
749.308000	0.035532
749.508000	-0.418229
749.708000	-0.467017
749.908000	-0.077853
750.108000	-0.224494
750.308000	-0.861931
750.508000	-0.340417
750.708000	-1.093628
750.908000	-1.292877
751.107000	-0.243573
751.307000	0.348489
751.507000	-0.359870
751.707000	-0.524281
751.907000	-0.509042
752.107000	-0.245432
752.307000	-0.961737
752.507000	-0.997621
752.706000	-0.880244
752.906000	0.053461
753.106000	-0.868409
753.306000	-1.409190
753.506000	-0.249556
753.706000	-0.773819
753.906000	-0.199399
754.106000	-0.064298
754.305000	-0.437118
754.505000	-0.489224
754.705000	-0.184461
754.905000	-0.099209
755.105000	0.037687
755.305000	-1.025825
755.505000	-0.667502
755.705000	-0.289383
755.905000	-0.704900
756.104000	-1.206974
756.304000	-1.539644
756.504000	-1.594941
756.704000	-0.101293
756.904000	-0.136144
757.104000	-0.414828
757.304000	-0.676921
757.504000	-0.347552
757.703000	-0.487886
757.903000	0.214624
758.103000	0.391346
758.303000	-0.243953
758.503000	-0.563636
758.703000	-0.564952
758.903000	-0.440788
759.103000	0.039210
759.303000	-0.121777
759.502000	-0.481461
759.702000	-0.265780
759.902000	-0.826681
760.102000	-0.647730
760.302000	-0.740681
760.502000	-0.322176
760.702000	-0.286387
760.902000	-0.686606
761.101000	-1.180424
761.301000	-1.273735
761.501000	-0.890806
761.701000	-0.947469
761.901000	-0.731768
762.101000	-0.585931
762.301000	-0.438532
762.501000	-1.010560
762.700000	-0.959636
762.900000	-1.404757
763.100000	-0.719877
763.300000	-0.424749
763.500000	-0.835420
763.703000	-0.888385
763.905000	-0.835794
764.108000	-0.239648
764.311000	-0.558005
764.513000	-0.577427
764.716000	-0.410353
764.919000	-0.486298
765.121000	-1.165304
765.324000	-1.263370
765.527000	-1.098988
765.729000	-0.889811
765.932000	0.137118
766.135000	-0.376963
766.337000	-0.510496
766.540000	-0.607728
766.743000	-0.265691
766.945000	-0.899255
767.148000	-1.748659
767.351000	-1.536602
767.553000	-0.015462
767.756000	-0.267006
767.958000	-1.040832
768.161000	-1.003009
768.364000	-1.278785
768.566000	-1.262106
768.769000	-1.031815
768.972000	-0.836278
769.174000	-0.976017
769.377000	-1.195015
769.580000	-1.374832
769.782000	-0.488054
769.985000	-0.844977
770.188000	-1.994772
770.390000	-1.030162
770.593000	0.719023
770.796000	0.043730
770.998000	-0.851246
771.201000	-1.031330
771.404000	-0.534337
771.606000	-0.736628
771.809000	-0.376198
772.012000	-0.417021
772.214000	-1.882086
772.417000	-1.761886
772.620000	-0.856214
772.822000	-1.346689
773.025000	-1.447753
773.228000	-1.349450
773.430000	-0.866059
773.633000	-0.563600
773.836000	-0.848585
774.038000	-0.607258
774.241000	-0.464488
774.444000	-0.690699
774.646000	0.024502
774.849000	-0.589377
775.052000	-0.589277
775.254000	-0.631450
775.457000	-1.122466
775.659000	-0.981431
775.862000	-1.166496
776.065000	-0.695290
776.267000	-0.325575
776.470000	-0.057955
776.673000	-0.513669
776.875000	0.024928
777.078000	-0.120293
777.281000	-0.932690
777.483000	0.025062
777.686000	0.046034
777.889000	-0.330961
778.091000	-0.058853
778.294000	-1.402070
778.497000	-1.424888
778.699000	-1.005370
778.902000	-0.839966
779.105000	-0.650068
779.307000	0.088772
779.510000	-0.821920
779.713000	-0.506129
779.915000	-1.126549
780.118000	-0.017086
780.321000	0.431942
780.523000	-0.424373
780.726000	-1.003480
780.929000	-1.024553
781.131000	-0.639726
781.334000	-1.353155
781.537000	-1.745873
781.739000	-0.947266
781.942000	-1.489145
782.145000	-2.193054
782.347000	-2.020276
782.550000	-1.171990
782.753000	-0.935428
782.955000	-1.069462
783.158000	-1.244049
783.361000	-0.895819
783.563000	-0.895966
783.766000	-1.250559
783.968000	0.643880
784.171000	1.156328
784.374000	0.115200
784.576000	-0.305633
784.779000	-0.482051
784.982000	0.160127
785.184000	-0.576901
785.387000	-0.174678
785.590000	0.496895
785.792000	0.184234
785.995000	-0.400534
786.198000	-0.491342
786.400000	-0.855555
786.603000	-0.517359
786.806000	-1.081290
787.008000	-1.149038
787.211000	-0.608373
787.414000	-1.179909
787.616000	-1.504469
787.819000	-1.164242
788.022000	-1.234661
788.224000	-0.662578
788.427000	-1.652778
788.630000	-0.988679
788.832000	-0.526108
789.035000	-1.377684
789.238000	-2.147593
789.440000	-1.554915
789.643000	-0.111499
789.846000	-0.717489
790.048000	-0.439010
790.251000	-0.252258
790.454000	-0.811203
790.656000	0.098265
790.859000	-0.440871
791.062000	-1.287356
791.264000	-1.333240
791.467000	-1.786745
791.669000	-1.930993
791.872000	-0.801878
792.075000	-1.251192
792.277000	-0.966987
792.480000	-0.662459
792.683000	-1.017116
792.885000	-1.731722
793.088000	-1.690323
793.291000	-2.149303
793.493000	-1.961397
793.696000	-0.858747
793.899000	-0.452206
794.101000	-0.260380
794.304000	-0.744244
794.507000	-0.938945
794.709000	-0.723150
794.912000	-0.945339
795.115000	-1.142448
795.317000	-1.557012
795.520000	-1.049083
795.723000	-1.028702
795.925000	-1.695650
796.128000	-2.136534
796.331000	-1.402696
796.533000	-1.331771
796.736000	-0.741378
796.939000	-1.042409
797.141000	-1.670254
797.344000	-0.645714
797.547000	-0.195300
797.749000	-0.195581
797.952000	-0.650206
798.155000	-1.000840
798.357000	-1.462233
798.560000	-1.826661
798.763000	-1.341900
798.965000	-1.264457
799.168000	-1.038963
799.371000	-0.734242
799.573000	-1.529657
799.776000	-2.095542
799.978000	-1.974283
800.181000	-1.076602
800.384000	0.495280
800.586000	0.005171
800.789000	-1.597241
800.992000	-1.647814
801.194000	-1.962072
801.397000	-1.785481
801.600000	-1.583266
801.802000	-0.229499
802.005000	-0.779640
802.208000	-1.910066
802.410000	-0.964700
802.613000	-1.153270
802.816000	-1.365504
803.018000	-1.474865
803.221000	-1.530579
803.424000	-0.260050
803.626000	-0.579376
803.829000	-1.061131
804.032000	-0.101582
804.234000	0.513097
804.437000	-1.068193
804.640000	-1.415911
804.842000	-1.257883
805.045000	-0.967014
805.248000	-0.968823
805.450000	-1.508592
805.653000	-1.191670
805.856000	-1.543675
806.058000	-0.076330
806.261000	-1.333465
806.464000	-1.745086
806.666000	-1.035560
806.869000	-1.428195
807.072000	-3.164848
807.274000	-2.918648
807.477000	-1.183924
807.679000	-0.797322
807.882000	-1.270878
808.085000	-0.553123
808.287000	-0.525707
808.490000	-1.955571
808.693000	-1.760694
808.895000	-0.948700
809.098000	-0.584098
809.301000	-1.008685
809.503000	-0.928167
809.706000	-0.022762
809.909000	0.091032
810.111000	0.262084
810.314000	-0.079947
810.517000	-0.819637
810.719000	-1.110456
810.922000	-1.115158
811.125000	-0.022944
811.327000	0.524950
811.530000	-0.631279
811.735000	-1.815802
811.940000	-2.051694
812.146000	-1.769320
812.351000	-0.867267
812.556000	-0.694874
812.761000	-1.663617
812.967000	-0.405932
813.172000	-0.141045
813.377000	-1.202598
813.582000	-0.438088
813.788000	-0.649746
813.993000	-2.075161
814.198000	-1.035621
814.403000	-1.481186
814.609000	-0.652471
814.814000	-0.745607
815.019000	0.276091
815.224000	0.185965
815.429000	-1.503646
815.635000	-1.114617
815.840000	-0.418435
816.045000	-0.846776
816.250000	-0.298985
816.456000	-1.430248
816.661000	-2.603447
816.866000	-2.270716
817.071000	-2.392283
817.277000	-2.748132
817.482000	-1.698850
817.687000	-1.295014
817.892000	-1.208876
818.097000	-0.525053
818.303000	0.131262
818.508000	0.692459
818.713000	7.737157
818.918000	3.608253
819.124000	0.006280
819.329000	-1.444328
819.534000	-1.606780
819.739000	-1.733442
819.945000	-1.264898
820.150000	-0.728733
820.355000	-0.634078
820.560000	-1.143378
820.766000	-1.018228
820.971000	-0.895283
821.176000	-2.802135
821.381000	-3.309083
821.586000	-1.774559
821.792000	-0.058492
821.997000	-0.578963
822.202000	-0.742323
822.407000	-1.952875
822.613000	-2.382405
822.818000	-1.240248
823.023000	-1.143208
823.228000	-1.348969
823.434000	-0.621090
823.639000	-0.158917
823.844000	-1.121986
824.049000	-0.524866
824.255000	-0.459911
824.460000	-1.500014
824.665000	-1.736805
824.870000	0.006729
825.075000	-0.532226
825.281000	-0.601403
825.486000	0.856474
825.691000	-1.865308
825.896000	-2.858006
826.102000	-1.289973
826.307000	-1.498371
826.512000	-1.916022
826.717000	-1.095294
826.923000	-0.614840
827.128000	-0.546953
827.333000	-1.595720
827.538000	-1.251981
827.744000	-0.098158
827.949000	-1.322624
828.154000	-1.082060
828.359000	0.323051
828.564000	-0.522298
828.770000	-1.410365
828.975000	-0.028413
829.180000	-0.385524
829.385000	-1.991118
829.591000	-1.354495
829.796000	-0.532981
830.001000	-1.147377
830.206000	-1.512949
830.412000	-1.836827
830.617000	-1.623792
830.822000	-0.284124
831.027000	-1.192119
831.232000	-1.528442
831.438000	-1.539237
831.643000	-1.539106
831.848000	-1.395235
832.053000	-1.363509
832.259000	-1.179709
832.464000	-3.415135
832.669000	-2.792759
832.874000	-0.961712
833.080000	-0.928524
833.285000	0.382513
833.490000	-0.367773
833.695000	-1.994521
833.901000	-1.510520
834.106000	-2.082984
834.311000	-2.246775
834.516000	-1.255225
834.721000	-1.685641
834.927000	-0.340067
835.132000	-0.805371
835.337000	1.675185
835.542000	0.553914
835.748000	-2.094561
835.953000	-0.500057
836.158000	-0.853749
836.363000	-0.935816
836.569000	-1.814816
836.774000	-2.492811
836.979000	-2.297129
837.184000	-3.338524
837.390000	-3.464353
837.595000	-2.593219
837.800000	-1.636517
838.005000	-0.597274
838.210000	-1.001272
838.416000	-1.613106
838.621000	-1.536168
838.826000	-2.550591
839.031000	-1.992164
839.237000	-2.377206
839.442000	-3.081303
839.647000	-2.912172
839.852000	-1.891987
840.058000	-1.318397
840.263000	-1.741500
840.468000	-2.869276
840.673000	-2.118807
840.878000	-1.244095
841.084000	-1.881464
841.289000	-0.202093
841.494000	1.407552
841.699000	0.986845
841.905000	0.136475
842.110000	0.608879
842.315000	-1.495358
842.520000	-1.536784
842.726000	-2.185899
842.931000	-2.012148
843.136000	-1.377118
843.341000	-2.827131
843.547000	-2.255333
843.752000	-1.560490
843.957000	-2.100623
844.162000	-2.507984
844.367000	-1.982440
844.573000	-1.413236
844.778000	-0.966263
844.983000	-0.391008
845.188000	0.142914
845.394000	-1.387971
845.599000	-1.879052
845.804000	-1.344181
846.009000	-1.580564
846.215000	-3.549935
846.420000	-2.552968
846.625000	-1.276052
846.830000	-0.859838
847.036000	-1.645284
847.241000	-2.067635
847.446000	0.009229
847.651000	-1.241944
847.856000	-2.936587
848.062000	-3.085996
848.267000	-0.835060
848.472000	-1.355795
848.677000	-2.020489
848.883000	-0.602988
849.088000	0.295030
849.293000	-1.471411
849.498000	-2.328355
849.704000	-1.760727
849.909000	-1.765291
850.114000	-2.101147
850.319000	-1.336588
850.524000	-1.682339
850.730000	-0.914006
850.935000	-0.868865
851.140000	-0.283860
851.345000	-1.849720
851.551000	-0.971816
851.756000	-1.026390
851.961000	-2.117614
852.166000	-2.316724
852.372000	-1.627897
852.577000	-1.689786
852.782000	-2.105584
852.987000	-0.693166
853.193000	-1.199770
853.398000	-1.754809
853.603000	-1.708191
853.808000	-2.214735
854.013000	-2.076164
854.219000	-1.519169
854.424000	1.443180
854.629000	0.523154
854.834000	-2.519641
855.040000	-1.444565
855.245000	-1.180791
855.450000	-3.913531
855.655000	-4.399094
855.861000	-3.957187
856.066000	-2.252546
856.271000	-2.098030
856.476000	-0.253900
856.682000	-1.316867
856.887000	-4.658032
857.092000	-3.604509
857.297000	-0.523103
857.502000	-1.968169
857.708000	-2.775812
857.913000	-0.687105
858.118000	-1.289363
858.323000	-1.999494
858.529000	-1.508152
858.734000	-1.838641
858.939000	-1.080249
859.144000	-1.959787
859.350000	-3.766825
859.555000	-3.503995
859.760000	0.121486
859.965000	0.121451
860.171000	-1.430446
860.376000	-0.935342
860.581000	-3.226634
860.786000	-5.650705
860.991000	-4.774498
861.197000	-4.152631
861.402000	-2.302346
861.607000	-2.699080
861.812000	-2.086895
862.018000	-3.404213
862.223000	-2.326981
862.428000	-1.021187
862.633000	-0.045917
862.839000	-0.681521
863.044000	-2.492623
863.249000	-3.415154
863.454000	-1.558112
863.659000	-2.029362
863.865000	-2.391081
864.070000	-3.748802
864.275000	-3.460789
864.480000	-2.944487
864.686000	-4.379638
864.891000	-3.611163
865.096000	-2.434404
865.301000	-2.438956
865.507000	-0.950054
865.712000	-1.070243
865.917000	-1.984812
866.122000	-0.412604
866.328000	-4.747447
866.533000	-4.927069
866.738000	-0.476239
866.943000	-0.599614
867.148000	0.012306
867.354000	-2.592099
867.559000	-4.205625
867.764000	-1.919857
867.969000	-0.613962
868.175000	-3.921088
868.380000	-4.561408
868.585000	-4.504611
868.790000	-2.190829
868.996000	-2.395422
869.201000	-3.037067
869.406000	-3.815899
869.611000	-3.182286
869.817000	-3.817052
870.022000	-0.243473
870.227000	-1.079052
870.432000	-2.181638
870.637000	-1.537940
870.843000	-2.846771
871.048000	-3.043224
871.253000	-0.312306
871.458000	-0.837044
871.664000	-3.079897
871.869000	-4.355867
872.074000	-3.306620
872.279000	-1.048583
872.485000	-0.721372
872.690000	-1.663666
872.895000	-2.142066
873.100000	-3.830602
873.306000	-4.795065
873.511000	-1.554932
873.716000	0.628804
873.921000	-2.099632
874.126000	-1.829861
874.332000	-2.399499
874.537000	-0.886940
874.742000	-0.884078
874.947000	-1.095912
875.153000	0.784137
875.358000	-0.336847
875.563000	-3.631767
875.768000	-5.547958
875.974000	-4.156859
876.179000	-2.606645
876.384000	-1.978719
876.589000	-3.864018
876.794000	-3.868416
877.000000	-3.583754
877.205000	-5.304134
877.410000	-2.946805
877.615000	-4.528098
877.821000	-7.259746
878.026000	-5.225512
878.231000	-4.860516
878.436000	-4.868676
878.642000	-4.902334
878.847000	-3.809972
879.052000	-0.940118
879.257000	-3.170850
879.463000	-5.104105
879.668000	-3.918293
879.873000	0.238417
880.078000	-2.972581
880.283000	-6.508159
880.489000	-7.032858
880.694000	-5.707963
880.899000	-2.336827
881.104000	-0.594197
881.310000	0.624653
881.515000	-0.669589
881.720000	-0.061018
881.925000	2.239721
882.131000	3.237060
882.336000	0.170055
882.541000	-4.113417
882.746000	-3.272518
882.952000	-4.598095
883.157000	-4.687814
883.362000	-4.302456
883.567000	-5.581917
883.772000	-5.792889
883.978000	-3.648417
884.183000	-1.101803
884.388000	-2.771965
884.593000	-5.562105
884.799000	-0.624334
885.004000	-0.551979
885.209000	-3.150879
885.414000	-3.706590
885.620000	-5.363706
885.825000	-2.939218
886.030000	-3.425114
886.235000	-2.869045
886.440000	-2.061632
886.646000	-3.820017
886.851000	-4.677490
887.056000	-2.001450
887.261000	-2.592187
887.467000	-7.165977
887.672000	-3.301115
887.877000	-3.146924
888.082000	-5.224083
888.288000	-5.975501
888.493000	-8.501720
888.698000	-6.995619
888.903000	-2.847098
889.109000	-4.487020
889.314000	-0.676036
889.519000	-0.846149
889.724000	0.881952
889.929000	-1.887158
890.135000	-2.673432
890.340000	-2.343594
890.545000	-3.915864
890.750000	-5.851725
890.956000	-3.586006
891.161000	-0.596804
891.366000	-4.471081
891.571000	-4.834455
891.777000	-3.072919
891.982000	-0.869589
892.187000	-1.140658
892.392000	-0.426729
892.598000	-1.680898
892.803000	-2.327156
893.008000	-5.568827
893.213000	-4.565521
893.418000	-3.692641
893.624000	-3.711167
893.829000	-6.169756
894.034000	-3.538302
894.239000	-1.814511
894.445000	-6.564652
894.650000	-6.138288
894.855000	-5.777923
895.060000	-5.860131
895.266000	-4.233683
895.471000	-4.698647
895.676000	-2.580284
895.881000	-2.508880
896.087000	-3.913860
896.292000	-6.012647
896.497000	-2.348681
896.702000	-4.791725
896.907000	-6.594065
897.113000	2.105000
897.318000	1.250989
897.523000	-0.931213
897.728000	-3.796422
897.934000	-4.925149
898.139000	-3.889965
898.344000	0.211724
898.549000	-2.884233
898.755000	-6.086789
898.960000	-5.344201
899.165000	-6.517392
899.370000	-1.548049
899.575000	1.001924
899.781000	-4.708622
899.986000	-6.088033
900.191000	-2.359559
900.396000	-4.049654
900.602000	-2.875740
900.807000	-3.298295
901.012000	-3.016139
901.217000	-0.689955
901.423000	-3.822190
901.628000	-6.269898
901.833000	-1.509007
902.038000	-2.342757
902.244000	-7.049969
902.449000	-5.854596
902.654000	-4.562219
902.859000	-3.304541
903.064000	-2.171822
903.270000	-1.446102
903.475000	-6.690729
903.680000	-9.198223
903.885000	-7.053978
904.091000	-5.710431
904.296000	-7.544715
904.501000	-6.718761
904.706000	-6.203726
904.912000	-1.280177
905.117000	-3.246537
905.322000	-5.908779
905.527000	-4.350907
905.733000	-4.244374
905.938000	-3.500407
906.143000	-4.433658
906.348000	-6.889948
906.553000	-3.233882
906.759000	-0.763078
906.964000	-0.428543
907.169000	-3.493017
907.374000	-6.879900
907.580000	-5.892709
907.785000	-4.952782
907.990000	26.051081
908.195000	16.860619
908.401000	-2.315931
908.606000	-9.149979
908.811000	-11.608220
909.016000	-3.496629
909.221000	-4.096240
909.427000	-7.670910
909.632000	-9.410109
909.837000	-6.228941
910.042000	-7.573564
910.248000	-9.792711
910.453000	-5.212205
910.658000	-7.460697
910.863000	-6.594854
911.069000	-8.464300
911.274000	-2.205973
911.479000	-0.598530
911.684000	-7.699250
911.890000	-4.492431
912.095000	-4.623611
912.300000	-9.338473
912.506000	-7.064513
912.711000	-8.306182
912.917000	-6.260857
913.123000	-2.927768
913.328000	-3.075062
913.534000	-2.581712
913.740000	6.328858
913.946000	1.346002
914.151000	-6.528149
914.357000	-8.691277
914.563000	-4.067971
914.768000	-5.830398
914.974000	-8.986130
915.180000	-8.937708
915.385000	-7.609762
915.591000	-8.778026
915.797000	-5.079772
916.002000	-0.389062
916.208000	-5.228706
916.414000	-8.782247
916.620000	-9.081317
916.825000	-4.329949
917.031000	-6.302906
917.237000	-10.706299
917.442000	-5.967753
917.648000	-7.741264
917.854000	-9.893073
918.059000	-2.721930
918.265000	-3.007726
918.471000	-4.621637
918.676000	-7.168078
918.882000	-11.207504
919.088000	-8.561738
919.294000	-14.747715
919.499000	-13.797569
919.705000	-7.827946
919.911000	-5.107587
920.116000	-4.242964
920.322000	-9.165737
920.528000	-7.827938
920.733000	-9.655895
920.939000	-9.538827
921.145000	-8.578026
921.350000	-12.492992
921.556000	-7.640566
921.762000	-2.359759
921.968000	-5.404559
922.173000	-7.533377
922.379000	-11.336909
922.585000	-7.000458
922.790000	-7.832124
922.996000	-9.214151
923.202000	-11.665243
923.407000	-9.215714
923.613000	-8.386125
923.819000	-4.699894
924.024000	-2.990713
924.230000	2.231826
924.436000	-3.028623
924.642000	3.135198
924.847000	-1.183547
925.053000	-6.919983
925.259000	-13.197213
925.464000	-9.428026
925.670000	-10.120790
925.876000	-7.755943
926.081000	-11.180022
926.287000	-6.565490
926.493000	-2.687043
926.698000	-5.055702
926.904000	-5.386187
927.110000	-8.873228
927.316000	-7.632489
927.521000	-1.807673
927.727000	-9.324056
927.933000	-12.185133
928.138000	-9.027750
928.344000	-11.425236
928.550000	-3.214510
928.755000	1.587005
928.961000	-5.949119
929.167000	-8.317355
929.372000	1.599835
929.578000	0.236278
929.784000	-9.282280
929.990000	-12.712269
930.195000	-9.549444
930.401000	-9.217987
930.607000	-5.205183
930.812000	-5.256056
931.018000	-11.005755
931.224000	-13.848206
931.429000	-13.077641
931.635000	-17.620779
931.841000	-16.534224
932.046000	-7.955729
932.252000	-1.015763
932.458000	5.380954
932.664000	-4.491416
932.869000	-13.790961
933.075000	-10.620409
933.281000	-9.226461
933.486000	-4.875383
933.692000	-9.839650
933.898000	-14.228643
934.103000	-3.806118
934.309000	-10.825520
934.515000	-7.241613
934.720000	-1.132441
934.926000	3.140330
935.132000	-0.190476
935.338000	-4.043340
935.543000	-14.110586
935.749000	-15.475026
935.955000	-16.288882
936.160000	-14.223823
936.366000	-4.990263
936.572000	-3.289605
936.777000	-0.472069
936.983000	-2.050436
937.189000	-10.279583
937.394000	-12.298142
937.600000	0.323718
937.806000	1.684725
938.012000	-13.745826
938.217000	1.724074
938.423000	3.136672
938.629000	-9.467401
938.834000	-18.280494
939.040000	-17.811537
939.246000	-6.266613
939.451000	-9.256446
939.657000	-7.878156
939.863000	-11.566951
940.068000	-5.658980
940.274000	-9.940622
940.480000	-10.072866
940.686000	-6.504352
940.891000	-9.240358
941.097000	19.293167
941.303000	2.910825
941.508000	-9.801941
941.714000	-4.415665
941.920000	-15.171105
942.125000	-4.822095
942.331000	-7.790555
942.537000	0.065417
942.742000	-0.264328
942.948000	-16.126323
943.154000	-21.387535
943.360000	-29.420064
943.565000	-8.695737
943.771000	-4.355207
943.977000	-2.635820
944.182000	-15.787830
944.388000	-17.550420
944.594000	0.412010
944.799000	3.190789
945.005000	-7.775206
945.211000	-1.641742
945.416000	-4.445524
945.622000	-16.643393
945.828000	-16.471019
946.034000	-0.286159
946.239000	-1.726541
946.445000	-13.386718
946.651000	-30.947906
946.856000	-23.252474
947.062000	0.070927
947.268000	-0.642822
947.473000	-16.422716
947.679000	-19.769527
947.885000	-11.145836
948.090000	-8.301490
948.296000	4.887421
948.502000	-3.576288
948.708000	-9.865445
948.913000	-17.059856
949.119000	-12.213058
949.325000	-17.809591
949.530000	-30.124644
949.736000	-38.194939
949.942000	-25.462283
950.147000	-16.700762
950.353000	-14.710878
950.559000	-18.049198
950.764000	7.540903
950.970000	3.082030
951.176000	-12.471175
951.382000	-14.886110
951.587000	-6.176210
951.793000	-8.184453
951.999000	-11.171203
952.204000	-20.289074
952.410000	-31.365813
952.616000	-19.181401
952.821000	-14.266198
953.027000	-23.222863
953.233000	-25.616852
953.438000	-24.208732
953.644000	-7.482441
953.850000	-19.037209
954.056000	-19.641127
954.261000	-20.168173
954.467000	-5.601866
954.673000	8.182678
954.878000	-2.357555
955.084000	-7.244194
955.290000	-28.930161
955.495000	-31.063782
955.701000	-27.711121
955.907000	-11.986711
956.112000	-11.155443
956.318000	4.207974
956.524000	5.091050
956.730000	-20.684507
956.935000	-21.597371
957.141000	-21.450629
957.347000	-6.341411
957.552000	-9.330960
957.758000	-24.328559
957.964000	-38.853873
958.169000	0.086954
958.375000	-3.401700
958.581000	-24.015863
958.786000	-36.104453
958.992000	-39.261055
959.198000	-15.143412
959.404000	-8.839501
959.609000	-11.843501
959.815000	-13.429494
960.021000	0.090922
960.226000	-9.998229
960.432000	-36.808387
960.638000	-33.188661
960.843000	-21.756665
961.049000	-25.530830
961.255000	-7.431415
961.460000	-21.223061
961.666000	-38.102425
961.872000	-13.414413
962.078000	-21.849371
962.283000	-44.218405
962.489000	-35.143589
962.695000	-21.005880
962.900000	-19.379751
963.106000	-26.480194
963.312000	-17.849603
963.517000	-24.499500
963.723000	-23.773883
963.929000	-10.010575
964.134000	-0.908271
964.340000	-22.348486
964.546000	-27.071851
964.752000	-38.192669
964.957000	-41.131754
965.163000	-9.891180
965.369000	-12.153143
965.574000	-10.663083
965.780000	-4.743103
966.000000	-14.456674
966.220000	-20.512354
966.440000	-21.711947
966.661000	-13.062047
966.881000	-36.223712
967.101000	-51.992252
967.321000	-42.901892
967.541000	-14.947700
967.761000	-27.533297
967.981000	-17.929502
968.202000	-14.889795
968.422000	-0.463553
968.642000	-10.859986
968.862000	-15.215080
969.082000	-33.148575
969.302000	-21.346366
969.522000	-12.540255
969.743000	0.117418
969.963000	-25.081532
970.183000	-34.764289
970.403000	-30.685711
970.623000	-31.215959
970.843000	-12.893813
971.063000	-21.905278
971.284000	-35.337363
971.504000	-36.242469
971.724000	-13.380880
971.944000	-35.011217
972.164000	-51.477283
972.384000	-30.944939
972.604000	-47.147281
972.825000	-63.454336
973.045000	-41.131769
973.265000	8.818353
973.485000	-5.987734
973.705000	-6.705545
973.925000	-7.501576
974.145000	-57.359917
974.365000	-20.488131
974.586000	-9.874763
974.806000	-47.776659
975.026000	-19.253725
975.246000	-23.254341
975.466000	-48.514157
975.686000	-27.743128
975.906000	-26.339127
976.127000	-57.518154
976.347000	-43.876156
976.567000	-20.765587
976.787000	-22.328217
977.007000	-24.708463
977.227000	-31.504191
977.447000	-28.443081
977.668000	-45.975184
977.888000	-33.034307
978.108000	-42.970584
978.328000	-33.721636
978.548000	4.131901
978.768000	-16.026276
978.988000	-19.279320
979.209000	-22.558755
979.429000	-28.614685
979.649000	-14.731396
979.869000	-28.226824
980.089000	-51.180151
980.309000	-60.765509
980.529000	-71.011657
980.750000	-33.420406
980.970000	-57.637258
981.190000	-39.420529
981.410000	-37.098424
981.630000	-48.080246
981.850000	-29.491300
982.070000	-24.575748
982.291000	-63.726324
982.511000	-62.286469
982.731000	-20.150614
982.951000	-35.838491
983.171000	-42.752509
983.391000	-28.905804
983.611000	11.991252
983.832000	-22.897249
984.052000	-51.719305
984.272000	-33.906655
984.492000	-42.612617
984.712000	-42.847613
984.932000	-43.139862
985.152000	-60.738053
985.373000	-59.679313
985.593000	-38.011873
985.813000	-40.529982
986.033000	-41.204832
986.253000	-7.613627
986.473000	-13.627844
986.693000	-48.015669
986.914000	-72.053477
987.134000	-26.157947
987.354000	-49.955117
987.574000	175.859167
987.794000	107.410087
988.014000	-51.935744
988.234000	-24.296181
988.455000	-14.624662
988.675000	-22.171373
988.895000	-29.389878
989.115000	-57.154349
989.335000	-39.081542
989.555000	-27.611835
989.775000	-71.581191
989.995000	-66.483460
990.216000	-53.297170
990.436000	-19.201046
990.656000	-13.447078
990.876000	-61.580776
991.096000	-42.175963
991.316000	-3.798486
991.536000	-31.118233
991.757000	-52.934859
991.977000	-74.943100
992.197000	-22.901291
992.417000	-48.040697
992.637000	-133.692517
992.857000	-127.587200
993.077000	-118.844287
993.298000	-72.201509
993.518000	-55.144962
993.738000	-112.645288
993.958000	-77.924043
994.178000	-78.662463
994.398000	-70.099609
994.618000	-93.645498
994.839000	-145.308014
995.059000	-57.382330
995.279000	2.065574
995.499000	-18.719024
995.719000	-1.335955
995.939000	-46.523522
996.159000	-63.982701
996.380000	-44.689373
996.600000	-115.961957
996.820000	-73.060859
997.040000	-14.207806
997.260000	-100.916063
997.480000	-88.738605
997.700000	-145.223258
997.921000	-71.511422
998.141000	24.263188
998.361000	-12.623210
998.581000	-53.050251
998.801000	-95.209027
999.021000	-79.310005
999.241000	-58.942659
999.462000	-111.277337
999.682000	-157.556168
999.902000	-114.625798
1000.122000	-105.323052
1000.342000	-172.536709
1000.562000	-105.304946
1000.782000	-77.861014
1001.003000	-1107.346581
