Wavelength	Irradiance
(nm)	(mW/cm2/nm)

294.396000	0.000000
294.577000	0.000000
294.757000	0.000000
294.938000	-0.000000
295.118000	-0.000000
295.299000	0.000000
295.479000	-0.000000
295.660000	-0.000000
295.840000	-0.000000
296.021000	-0.000000
296.202000	-0.000000
296.382000	-0.000000
296.563000	-0.000000
296.743000	-0.000000
296.924000	-0.000000
297.104000	-0.000000
297.285000	-0.000000
297.465000	-0.000000
297.646000	-0.000000
297.826000	-0.000000
298.007000	0.000000
298.187000	0.000000
298.368000	-0.000000
298.548000	0.000000
298.729000	0.000000
298.909000	-0.000000
299.090000	-0.000000
299.270000	-0.000000
299.451000	-0.000000
299.631000	-0.000000
299.812000	-0.000000
299.992000	0.000000
300.173000	0.000000
300.353000	-0.000000
300.534000	0.000000
300.714000	0.000000
300.895000	0.000000
301.075000	-0.000000
301.256000	0.000000
301.436000	-0.000000
301.617000	-0.000000
301.797000	-0.000000
301.978000	-0.000000
302.159000	0.000000
302.339000	0.000000
302.520000	-0.000000
302.700000	-0.000000
302.881000	0.000000
303.061000	0.000000
303.242000	0.000000
303.422000	0.000000
303.603000	-0.000000
303.783000	-0.000000
303.964000	-0.000000
304.144000	-0.000000
304.325000	-0.000000
304.505000	0.000000
304.686000	-0.000000
304.866000	-0.000000
305.047000	-0.000000
305.227000	-0.000000
305.408000	-0.000000
305.588000	-0.000000
305.769000	-0.000000
305.949000	-0.000000
306.130000	-0.000000
306.310000	-0.000000
306.491000	-0.000000
306.671000	0.000000
306.852000	-0.000000
307.032000	-0.000000
307.213000	-0.000000
307.393000	-0.000000
307.574000	0.000000
307.755000	0.000000
307.935000	-0.000000
308.116000	-0.000000
308.296000	-0.000000
308.477000	0.000000
308.657000	0.000000
308.838000	0.000000
309.018000	0.000000
309.199000	-0.000000
309.379000	-0.000000
309.560000	0.000000
309.740000	-0.000000
309.921000	0.000000
310.101000	-0.000000
310.282000	-0.000000
310.462000	-0.000000
310.643000	-0.000000
310.823000	-0.000000
311.004000	-0.000000
311.184000	-0.000000
311.365000	0.000000
311.545000	0.000000
311.726000	0.000000
311.906000	-0.000000
312.087000	0.000000
312.267000	-0.000000
312.448000	-0.000000
312.628000	-0.000000
312.809000	-0.000000
312.989000	-0.000000
313.170000	-0.000000
313.344000	-0.000000
313.518000	-0.000000
313.691000	-0.000000
313.865000	-0.000000
314.039000	-0.000000
314.213000	-0.000000
314.387000	-0.000000
314.560000	-0.000000
314.734000	-0.000000
314.908000	-0.000000
315.082000	-0.000000
315.255000	0.000000
315.429000	0.000000
315.603000	-0.000000
315.777000	-0.000000
315.951000	0.000000
316.124000	-0.000000
316.298000	-0.000000
316.472000	-0.000000
316.646000	-0.000000
316.820000	-0.000000
316.993000	-0.000000
317.167000	-0.000000
317.341000	-0.000000
317.515000	-0.000000
317.688000	-0.000000
317.862000	-0.000000
318.036000	-0.000000
318.210000	-0.000000
318.384000	-0.000000
318.557000	-0.000000
318.731000	-0.000000
318.905000	0.000000
319.079000	0.000000
319.253000	-0.000000
319.426000	0.000000
319.600000	0.000000
319.774000	-0.000000
319.948000	-0.000000
320.122000	0.000000
320.295000	0.000000
320.469000	-0.000000
320.643000	-0.000000
320.817000	-0.000000
320.990000	-0.000000
321.164000	-0.000000
321.338000	-0.000000
321.512000	-0.000000
321.686000	-0.000000
321.859000	-0.000000
322.033000	-0.000000
322.207000	-0.000000
322.381000	-0.000000
322.555000	0.000000
322.728000	-0.000000
322.902000	-0.000000
323.076000	-0.000000
323.250000	-0.000000
323.423000	-0.000000
323.597000	-0.000000
323.771000	-0.000000
323.945000	-0.000000
324.119000	-0.000000
324.292000	0.000000
324.466000	-0.000000
324.640000	0.000000
324.814000	0.000000
324.988000	-0.000000
325.161000	-0.000000
325.335000	-0.000000
325.509000	-0.000000
325.683000	-0.000000
325.856000	-0.000000
326.030000	-0.000000
326.204000	-0.000000
326.378000	-0.000000
326.552000	-0.000000
326.725000	-0.000000
326.899000	-0.000000
327.073000	-0.000000
327.247000	-0.000000
327.421000	0.000000
327.594000	0.000000
327.768000	-0.000000
327.942000	-0.000000
328.116000	0.000000
328.289000	-0.000000
328.463000	-0.000000
328.637000	0.000000
328.811000	-0.000000
328.985000	-0.000000
329.158000	-0.000000
329.332000	-0.000000
329.506000	0.000000
329.680000	-0.000000
329.854000	-0.000000
330.027000	0.000000
330.201000	0.000000
330.375000	0.000000
330.549000	0.000000
330.723000	-0.000000
330.896000	-0.000000
331.070000	-0.000000
331.244000	-0.000000
331.418000	-0.000000
331.591000	-0.000000
331.765000	-0.000000
331.939000	-0.000000
332.113000	-0.000000
332.287000	-0.000000
332.460000	0.000000
332.634000	0.000000
332.808000	-0.000000
332.982000	-0.000000
333.156000	-0.000000
333.329000	-0.000000
333.503000	-0.000000
333.677000	-0.000000
333.851000	-0.000000
334.024000	-0.000000
334.198000	-0.000000
334.372000	-0.000000
334.546000	-0.000000
334.720000	-0.000000
334.893000	-0.000000
335.067000	-0.000000
335.241000	0.000000
335.415000	0.000000
335.589000	-0.000000
335.762000	-0.000000
335.936000	-0.000000
336.110000	-0.000000
336.284000	-0.000000
336.458000	-0.000000
336.631000	-0.000000
336.805000	-0.000000
336.979000	-0.000000
337.153000	-0.000000
337.326000	-0.000000
337.500000	-0.000000
337.674000	-0.000000
337.848000	-0.000000
338.022000	-0.000000
338.195000	-0.000000
338.369000	-0.000000
338.543000	-0.000000
338.717000	-0.000000
338.891000	-0.000000
339.064000	0.000000
339.238000	-0.000000
339.412000	-0.000000
339.586000	-0.000000
339.759000	-0.000000
339.933000	-0.000000
340.107000	0.000000
340.281000	-0.000000
340.455000	-0.000000
340.628000	-0.000000
340.802000	-0.000000
340.976000	-0.000000
341.150000	-0.000000
341.324000	-0.000000
341.497000	-0.000000
341.671000	-0.000000
341.845000	-0.000000
342.019000	-0.000000
342.192000	-0.000000
342.366000	-0.000000
342.540000	-0.000000
342.714000	-0.000000
342.888000	-0.000000
343.061000	0.000000
343.235000	0.000000
343.409000	-0.000000
343.583000	-0.000000
343.757000	-0.000000
343.930000	-0.000000
344.104000	-0.000000
344.278000	0.000000
344.452000	0.000000
344.626000	-0.000000
344.799000	-0.000000
344.973000	-0.000000
345.147000	-0.000000
345.321000	-0.000000
345.494000	-0.000000
345.668000	0.000000
345.842000	0.000000
346.016000	-0.000000
346.190000	0.000000
346.363000	0.000000
346.537000	-0.000000
346.711000	-0.000000
346.885000	-0.000000
347.059000	-0.000000
347.232000	0.000000
347.406000	0.000000
347.580000	-0.000000
347.754000	-0.000000
347.927000	0.000000
348.101000	0.000000
348.275000	-0.000000
348.449000	-0.000000
348.623000	-0.000000
348.796000	0.000000
348.970000	0.000000
349.144000	-0.000000
349.318000	-0.000000
349.492000	-0.000000
349.665000	-0.000000
349.839000	-0.000000
350.013000	-0.000000
350.187000	-0.000000
350.361000	-0.000000
350.534000	-0.000000
350.708000	-0.000000
350.882000	-0.000000
351.056000	0.000000
351.229000	-0.000000
351.403000	-0.000000
351.577000	-0.000000
351.751000	-0.000000
351.925000	-0.000000
352.098000	-0.000000
352.272000	-0.000000
352.446000	-0.000000
352.620000	-0.000000
352.794000	-0.000000
352.967000	-0.000000
353.141000	0.000000
353.315000	0.000000
353.489000	-0.000000
353.662000	-0.000000
353.836000	-0.000000
354.010000	-0.000000
354.184000	-0.000000
354.358000	-0.000000
354.531000	-0.000000
354.705000	-0.000000
354.879000	-0.000000
355.053000	-0.000000
355.227000	0.000000
355.400000	-0.000000
355.574000	0.000000
355.748000	0.000000
355.922000	-0.000000
356.095000	-0.000000
356.269000	-0.000000
356.443000	-0.000000
356.617000	-0.000000
356.791000	-0.000000
356.964000	-0.000000
357.138000	-0.000000
357.312000	-0.000000
357.486000	-0.000000
357.660000	0.000000
357.833000	0.000000
358.007000	-0.000000
358.181000	-0.000000
358.355000	-0.000000
358.529000	-0.000000
358.702000	-0.000000
358.876000	-0.000000
359.050000	-0.000000
359.224000	-0.000000
359.397000	-0.000000
359.571000	-0.000000
359.745000	-0.000000
359.919000	-0.000000
360.093000	-0.090513
360.266000	0.018183
360.440000	0.106810
360.614000	0.119647
360.788000	0.018765
360.962000	-0.162674
361.135000	-0.053579
361.309000	-0.206548
361.483000	-0.366111
361.657000	-0.316954
361.830000	-0.242370
362.004000	-0.061247
362.178000	-0.355309
362.352000	-0.260741
362.526000	-0.096157
362.699000	-0.104589
362.873000	-0.424478
363.047000	-0.410066
363.221000	-0.350314
363.395000	-0.194377
363.568000	-0.238520
363.742000	-0.239789
363.916000	-0.103479
364.090000	-0.262284
364.263000	-0.295743
364.437000	-0.350419
364.611000	-0.048059
364.785000	-0.103831
364.959000	-0.274463
365.132000	-0.233685
365.306000	-0.263985
365.480000	-0.096267
365.656000	-0.180176
365.831000	-0.233786
366.007000	-0.269455
366.183000	-0.177416
366.358000	-0.262389
366.534000	-0.173895
366.710000	-0.358839
366.886000	-0.282145
367.061000	-0.102958
367.237000	-0.009292
367.413000	-0.192342
367.588000	-0.399456
367.764000	-0.308155
367.940000	-0.306492
368.115000	-0.248280
368.291000	-0.361954
368.467000	-0.264796
368.643000	0.135168
368.818000	-0.203324
368.994000	-0.287688
369.170000	-0.214689
369.345000	-0.210623
369.521000	-0.315779
369.697000	-0.179718
369.872000	-0.267790
370.048000	-0.343548
370.224000	-0.244668
370.399000	-0.406459
370.575000	-0.349274
370.751000	-0.455640
370.927000	-0.380134
371.102000	-0.345281
371.278000	-0.422084
371.454000	-0.315477
371.629000	0.026001
371.805000	-0.071435
371.981000	0.049283
372.156000	0.241430
372.332000	0.028742
372.508000	-0.003249
372.683000	-0.032301
372.859000	-0.136632
373.035000	-0.144675
373.211000	0.184761
373.386000	0.026332
373.562000	-0.337775
373.738000	-0.396916
373.913000	-0.584016
374.089000	-0.448203
374.265000	0.003285
374.440000	0.003314
374.616000	0.039682
374.792000	-0.173721
374.968000	0.115981
375.143000	-0.103781
375.319000	-0.285916
375.495000	-0.382526
375.670000	-0.290848
375.846000	-0.130369
376.022000	-0.293104
376.197000	-0.261295
376.373000	-0.391845
376.549000	-0.380898
376.724000	-0.459576
376.900000	-0.329073
377.076000	-0.195544
377.252000	0.006285
377.427000	0.196065
377.603000	-0.182470
377.779000	-0.204954
377.954000	-0.384754
378.130000	-0.302038
378.306000	-0.177899
378.481000	-0.107567
378.657000	-0.207742
378.833000	-0.292235
379.009000	-0.137019
379.184000	0.006344
379.360000	-0.106906
379.536000	-0.101452
379.711000	-0.148260
379.887000	-0.250878
380.063000	-0.285919
380.238000	-0.344884
380.414000	-0.116403
380.590000	-0.311300
380.765000	-0.313503
380.941000	-0.169092
381.117000	-0.155569
381.293000	-0.189350
381.468000	-0.316160
381.644000	-0.211841
381.820000	-0.146547
381.995000	-0.097606
382.171000	0.164499
382.347000	0.151662
382.522000	-0.263919
382.698000	0.028135
382.874000	0.056185
383.050000	-0.301641
383.225000	0.059604
383.401000	0.232903
383.577000	-0.129958
383.752000	-0.248684
383.928000	-0.179891
384.104000	-0.111275
384.279000	-0.203637
384.455000	-0.142230
384.631000	-0.136245
384.806000	-0.314453
384.982000	-0.080602
385.158000	-0.156343
385.334000	-0.092371
385.509000	-0.145317
385.685000	-0.417691
385.861000	-0.301521
386.036000	-0.384099
386.212000	-0.498280
386.388000	-0.316360
386.563000	-0.248316
386.739000	-0.322197
386.915000	-0.507264
387.090000	-0.230726
387.266000	-0.034178
387.442000	0.031042
387.618000	-0.092389
387.793000	-0.354095
387.969000	-0.456363
388.145000	-0.297179
388.320000	-0.371622
388.496000	-0.360179
388.672000	-0.505669
388.847000	-0.128722
389.023000	-0.104874
389.199000	-0.399981
389.375000	-0.226175
389.550000	-0.373089
389.726000	-0.234152
389.902000	-0.371837
390.077000	-0.192430
390.253000	-0.171285
390.429000	-0.255359
390.604000	-0.149711
390.780000	-0.121605
390.956000	-0.250381
391.131000	-0.349261
391.307000	0.027117
391.483000	-0.144568
391.659000	-0.377713
391.834000	-0.204594
392.010000	-0.288447
392.186000	-0.267694
392.361000	-0.256215
392.537000	-0.400030
392.713000	0.047414
392.888000	0.305682
393.064000	-0.026806
393.240000	-0.249556
393.416000	-0.324789
393.591000	-0.410406
393.767000	-0.477344
393.943000	-0.353515
394.118000	0.005859
394.294000	0.120034
394.470000	-0.032121
394.645000	0.002911
394.821000	0.228364
394.997000	-0.101832
395.172000	-0.185226
395.348000	-0.223288
395.524000	-0.443147
395.700000	-0.356171
395.875000	-0.068950
396.051000	-0.123374
396.227000	-0.205229
396.402000	-0.235377
396.578000	-0.130431
396.754000	-0.294040
396.929000	-0.275507
397.105000	-0.014328
397.281000	-0.097399
397.457000	-0.211368
397.632000	-0.203489
397.808000	-0.435167
397.984000	-0.561946
398.159000	-0.485780
398.335000	-0.313635
398.511000	0.136606
398.686000	-0.073918
398.862000	-0.341678
399.038000	-0.470357
399.213000	-0.193424
399.389000	-0.426383
399.565000	-0.146421
399.741000	0.073129
399.916000	0.014199
400.092000	0.211946
400.268000	-0.198991
400.443000	-0.280774
400.619000	0.113232
400.795000	0.005682
400.970000	-0.204665
401.146000	-0.298347
401.322000	0.036837
401.497000	0.467203
401.673000	0.133768
401.849000	-0.190059
402.025000	-0.033896
402.200000	-0.205641
402.376000	-0.267498
402.552000	0.172472
402.727000	-0.002814
402.903000	-0.292059
403.079000	-0.185470
403.254000	0.033751
403.430000	0.016763
403.606000	-0.058766
403.782000	-0.075462
403.957000	-0.308312
404.133000	-0.463663
404.309000	-0.280922
404.484000	-0.064381
404.660000	-0.014035
404.841000	-0.140436
405.023000	0.036314
405.204000	-0.022413
405.385000	-0.309590
405.566000	-0.274577
405.748000	-0.121734
405.929000	-0.011381
406.110000	-0.042184
406.292000	-0.133641
406.473000	-0.111643
406.654000	-0.312271
406.835000	-0.114949
407.017000	-0.150825
407.198000	-0.138095
407.379000	-0.137714
407.560000	-0.165774
407.742000	-0.180981
407.923000	-0.142789
408.104000	-0.267503
408.286000	-0.152946
408.467000	-0.130376
408.648000	-0.345034
408.829000	-0.352138
409.011000	-0.205439
409.192000	-0.348378
409.373000	-0.139164
409.555000	-0.055675
409.736000	-0.047007
409.917000	-0.191501
410.098000	-0.201261
410.280000	-0.073900
410.461000	-0.062840
410.642000	-0.054745
410.823000	0.145020
411.005000	0.106849
411.186000	-0.139819
411.367000	-0.227745
411.549000	-0.216612
411.730000	0.027412
411.911000	0.106725
412.092000	-0.068209
412.274000	-0.078527
412.455000	-0.013567
412.636000	-0.024443
412.818000	-0.189357
412.999000	-0.233752
413.180000	-0.181103
413.361000	-0.165499
413.543000	-0.218587
413.724000	-0.312237
413.905000	-0.312247
414.087000	-0.364151
414.268000	-0.306802
414.449000	-0.261938
414.630000	-0.319304
414.812000	-0.436479
414.993000	-0.132740
415.174000	0.074370
415.355000	-0.082846
415.537000	-0.343221
415.718000	-0.098545
415.899000	-0.156670
416.081000	-0.224783
416.262000	-0.044864
416.443000	-0.121093
416.624000	-0.097176
416.806000	0.013157
416.987000	0.155998
417.168000	0.047308
417.350000	-0.097221
417.531000	-0.117531
417.712000	-0.109687
417.893000	0.107035
418.075000	0.234076
418.256000	-0.015650
418.437000	0.073329
418.618000	0.153958
418.800000	0.182375
418.981000	-0.025924
419.162000	0.095302
419.344000	0.334450
419.525000	0.216352
419.706000	0.112210
419.887000	0.291682
420.069000	0.418852
420.250000	0.200267
420.431000	0.184213
420.613000	0.185086
420.794000	0.002612
420.975000	0.333437
421.156000	0.160566
421.338000	0.144909
421.519000	0.191448
421.700000	0.085629
421.882000	0.049293
422.063000	0.263975
422.244000	0.751873
422.425000	0.566058
422.607000	0.198496
422.788000	0.171579
422.969000	0.144575
423.150000	0.139573
423.332000	0.087626
423.513000	0.336110
423.694000	0.340474
423.876000	0.375718
424.057000	0.479439
424.238000	0.567083
424.419000	0.547862
424.601000	0.399108
424.782000	0.458640
424.963000	0.684835
425.145000	0.593418
425.326000	0.637314
425.507000	0.742008
425.688000	0.670684
425.870000	0.436772
426.051000	0.361487
426.232000	0.459566
426.413000	0.475255
426.595000	0.501184
426.776000	0.521611
426.957000	0.612036
427.139000	0.707579
427.320000	0.783334
427.501000	0.979078
427.682000	0.958746
427.864000	0.906409
428.045000	1.137615
428.226000	1.126046
428.408000	0.783836
428.589000	0.956831
428.770000	1.003816
428.951000	0.940127
429.133000	0.824021
429.314000	1.013152
429.495000	1.020040
429.677000	1.064804
429.858000	1.114878
430.039000	1.198677
430.220000	1.351004
430.402000	1.429024
430.583000	1.190205
430.764000	1.303500
430.945000	1.498860
431.127000	1.674503
431.308000	1.511826
431.489000	1.614734
431.671000	1.731664
431.852000	1.692051
432.033000	1.641266
432.214000	1.846622
432.396000	1.940684
432.577000	1.754283
432.758000	1.623831
432.940000	1.762152
433.121000	1.991767
433.302000	2.081515
433.483000	2.272225
433.665000	2.387374
433.846000	2.381836
434.027000	2.261278
434.208000	2.235706
434.390000	2.259082
434.571000	2.648482
434.752000	3.137198
434.934000	3.017930
435.115000	2.995514
435.296000	3.106847
435.477000	2.995716
435.659000	2.806633
435.840000	3.017713
436.026000	3.094958
436.211000	3.015321
436.397000	2.802987
436.582000	3.072641
436.768000	3.385937
436.953000	3.393568
437.139000	3.478883
437.325000	3.827937
437.510000	3.778819
437.696000	4.027972
437.881000	4.113509
438.067000	3.856719
438.252000	4.006385
438.438000	4.126184
438.624000	4.186489
438.809000	4.349017
438.995000	4.556830
439.180000	4.490310
439.366000	4.621415
439.551000	4.722295
439.737000	4.805318
439.923000	4.992270
440.108000	5.054553
440.294000	5.174002
440.479000	5.507066
440.665000	5.642343
440.850000	5.608682
441.036000	5.703214
441.222000	5.870422
441.407000	5.801306
441.593000	6.016036
441.778000	6.236683
441.964000	6.396238
442.149000	6.167469
442.335000	6.325995
442.521000	6.667632
442.706000	7.006212
442.892000	7.009462
443.077000	7.021431
443.263000	7.269644
443.448000	7.369294
443.634000	7.481846
443.820000	7.876735
444.005000	7.896560
444.191000	7.833441
444.376000	7.934568
444.562000	8.340117
444.747000	8.693258
444.933000	8.718007
445.119000	8.769043
445.304000	8.831274
445.490000	9.072736
445.675000	9.290635
445.861000	9.403108
446.046000	9.532965
446.232000	9.849345
446.418000	10.021990
446.603000	10.144013
446.789000	10.280670
446.974000	10.497899
447.160000	10.522718
447.345000	10.863260
447.531000	10.944835
447.717000	11.360486
447.902000	11.679443
448.088000	11.925617
448.273000	11.924254
448.459000	12.045653
448.644000	12.134078
448.830000	12.346144
449.016000	12.517987
449.201000	12.686579
449.387000	13.166349
449.572000	13.412827
449.758000	13.459433
449.943000	13.578472
450.129000	13.698855
450.315000	13.981792
450.500000	14.126362
450.686000	14.550244
450.871000	14.637244
451.057000	14.888346
451.243000	15.131556
451.428000	15.381731
451.614000	15.499623
451.799000	15.602747
451.985000	16.086996
452.170000	16.340085
452.356000	16.350354
452.542000	16.513003
452.727000	16.763865
452.913000	16.828887
453.098000	17.284298
453.284000	17.600631
453.469000	17.680830
453.655000	17.935621
453.841000	17.977588
454.026000	17.981838
454.212000	18.117476
454.397000	18.272660
454.583000	18.330831
454.768000	18.268097
454.954000	18.662173
455.140000	18.741114
455.325000	18.637705
455.511000	18.723873
455.696000	18.825704
455.882000	19.119930
456.067000	19.491681
456.253000	19.332283
456.439000	19.207831
456.624000	19.194408
456.810000	19.214987
456.995000	19.262538
457.181000	19.067290
457.366000	19.165392
457.552000	19.214859
457.738000	19.317137
457.923000	19.308407
458.109000	19.549201
458.294000	19.433244
458.480000	19.345734
458.665000	19.112931
458.851000	18.774147
459.037000	18.490302
459.222000	18.618826
459.408000	18.581127
459.593000	18.335337
459.779000	18.266119
459.964000	18.329877
460.150000	18.311748
460.336000	18.038059
460.521000	17.595153
460.707000	17.282719
460.892000	17.013622
461.078000	17.028383
461.263000	16.833647
461.449000	16.616117
461.635000	16.504467
461.820000	16.290390
462.006000	16.113264
462.191000	15.822818
462.377000	15.329595
462.562000	15.469407
462.748000	15.448693
462.934000	14.846226
463.119000	14.414427
463.305000	14.369332
463.490000	14.020996
463.676000	13.869073
463.861000	13.739250
464.047000	13.440578
464.233000	13.228540
464.418000	12.885999
464.604000	12.568688
464.789000	12.573890
464.975000	12.348412
465.160000	12.080322
465.346000	12.008871
465.532000	11.646235
465.717000	11.302345
465.903000	11.403234
466.088000	11.139544
466.274000	10.758345
466.459000	10.588341
466.645000	10.789718
466.831000	10.550422
467.016000	10.373767
467.202000	10.082141
467.387000	9.724535
467.573000	9.317691
467.758000	9.503932
467.944000	9.359174
468.130000	9.137139
468.315000	9.048581
468.501000	9.016340
468.686000	8.772972
468.872000	8.588065
469.057000	8.510638
469.243000	8.267134
469.429000	8.235251
469.614000	8.024057
469.800000	7.826900
469.985000	7.802532
470.171000	7.736150
470.356000	7.581876
470.542000	7.585276
470.728000	7.433144
470.913000	7.157187
471.099000	7.228651
471.284000	7.092821
471.470000	6.951114
471.655000	6.977838
471.841000	6.756925
472.027000	6.525027
472.212000	6.642265
472.398000	6.622791
472.583000	6.442910
472.769000	6.421426
472.954000	6.318911
473.140000	6.001781
473.326000	5.921175
473.511000	6.101108
473.697000	5.988670
473.882000	5.836145
474.068000	5.651962
474.253000	5.397912
474.439000	5.463546
474.625000	5.479090
474.810000	5.384739
474.996000	5.315947
475.181000	5.039810
475.367000	5.121454
475.552000	5.306360
475.738000	4.894286
475.924000	4.771706
476.109000	4.893498
476.295000	4.760532
476.480000	4.672998
476.666000	4.571643
476.851000	4.526032
477.037000	4.504332
477.223000	4.299937
477.408000	4.194971
477.594000	4.065323
477.779000	4.114987
477.965000	4.073119
478.151000	3.855774
478.336000	3.922371
478.522000	3.816705
478.707000	3.690542
478.893000	3.774974
479.078000	3.592823
479.264000	3.477245
479.450000	3.472715
479.635000	3.542970
479.821000	3.424689
480.006000	3.354950
480.192000	3.330071
480.377000	3.333364
480.563000	3.284668
480.749000	3.035791
480.934000	3.016748
481.120000	3.086337
481.305000	3.076183
481.491000	2.980231
481.676000	2.982990
481.862000	3.015638
482.048000	2.747117
482.233000	2.747798
482.419000	2.744148
482.604000	2.622547
482.790000	2.600883
482.975000	2.613174
483.161000	2.745282
483.347000	2.670047
483.532000	2.540694
483.718000	2.339793
483.903000	2.364832
484.089000	2.412385
484.274000	2.262848
484.460000	2.358165
484.646000	2.342573
484.831000	2.237614
485.017000	2.234534
485.202000	2.251907
485.388000	2.438937
485.573000	2.408655
485.759000	2.265426
485.945000	2.405427
486.130000	2.183666
486.316000	2.168793
486.501000	2.229673
486.687000	1.995658
486.872000	1.954384
487.058000	2.124210
487.244000	2.174546
487.429000	1.990321
487.615000	2.090414
487.800000	2.140899
487.986000	2.043157
488.171000	2.116210
488.357000	2.011773
488.543000	2.043218
488.728000	2.084604
488.914000	1.967591
489.099000	1.906289
489.285000	1.895238
489.470000	2.045144
489.656000	2.095032
489.842000	2.096629
490.027000	2.132547
490.213000	2.012943
490.398000	1.765226
490.584000	2.018607
490.769000	2.026291
490.955000	2.065019
491.141000	2.066206
491.326000	2.032262
491.512000	2.166741
491.697000	2.091881
491.883000	1.944206
492.068000	1.936828
492.254000	2.016593
492.440000	2.043995
492.625000	1.982789
492.811000	1.940836
492.996000	2.051847
493.182000	2.130294
493.367000	1.982953
493.553000	1.903931
493.739000	2.016460
493.924000	2.132394
494.110000	2.129418
494.295000	2.070249
494.481000	2.199053
494.666000	2.227013
494.852000	2.347712
495.038000	2.201983
495.223000	2.084849
495.409000	2.194464
495.594000	2.250745
495.780000	2.289897
495.965000	2.234013
496.151000	2.469454
496.337000	2.517730
496.522000	2.304584
496.708000	2.464652
496.893000	2.603095
497.079000	2.448953
497.264000	2.462921
497.450000	2.553404
497.636000	2.675204
497.821000	2.556528
498.007000	2.817289
498.192000	2.846455
498.378000	2.710862
498.563000	2.659474
498.749000	2.716365
498.935000	2.781282
499.120000	2.867573
499.306000	2.758004
499.491000	2.744971
499.677000	2.929917
499.862000	3.064115
500.048000	3.144233
500.234000	3.097156
500.419000	3.110273
500.605000	3.301766
500.790000	3.262639
500.976000	3.140759
501.161000	3.149260
501.347000	3.356581
501.533000	3.467196
501.718000	3.420295
501.904000	3.461987
502.089000	3.598481
502.275000	3.665855
502.460000	3.604681
502.646000	3.732120
502.832000	3.799538
503.017000	3.855902
503.203000	3.707529
503.388000	3.738988
503.574000	3.969185
503.759000	4.082455
503.945000	4.175790
504.131000	4.111934
504.316000	4.124443
504.502000	4.187958
504.687000	4.234902
504.873000	4.224088
505.058000	4.253686
505.244000	4.290310
505.430000	4.419106
505.615000	4.570126
505.801000	4.693792
505.986000	4.545003
506.172000	4.685290
506.358000	4.754503
506.543000	4.770800
506.729000	4.998375
506.914000	5.047210
507.100000	5.193593
507.285000	5.036864
507.471000	4.993254
507.657000	5.325117
507.842000	5.253279
508.028000	5.150510
508.213000	5.262337
508.399000	5.349528
508.584000	5.566742
508.770000	5.514998
508.956000	5.406805
509.141000	5.537282
509.327000	5.726278
509.512000	5.680800
509.698000	5.723709
509.883000	5.844725
510.069000	5.795364
510.255000	5.909068
510.440000	5.977756
510.626000	5.991919
510.811000	6.004391
510.997000	6.113229
511.182000	6.403285
511.368000	6.319990
511.554000	6.008573
511.739000	6.127580
511.925000	6.348557
512.110000	6.365621
512.296000	6.516267
512.481000	6.566007
512.667000	6.476897
512.853000	6.341366
513.038000	6.489027
513.224000	6.438560
513.409000	6.343446
513.595000	6.523556
513.780000	6.375519
513.966000	6.504507
514.152000	6.518791
514.337000	6.475199
514.523000	6.489268
514.708000	6.555677
514.894000	6.598899
515.079000	6.501878
515.265000	6.574475
515.451000	6.554007
515.636000	6.412025
515.822000	6.628928
516.007000	6.542911
516.193000	6.739416
516.378000	6.801296
516.564000	6.571013
516.750000	6.567487
516.935000	6.681098
517.121000	6.679820
517.306000	6.718831
517.492000	6.657188
517.677000	6.374605
517.863000	6.344794
518.049000	6.525054
518.234000	6.369097
518.420000	6.458450
518.605000	6.586084
518.791000	6.555681
518.976000	6.400812
519.162000	6.198821
519.348000	6.250611
519.533000	6.270619
519.719000	6.408941
519.904000	6.245195
520.090000	6.153032
520.275000	6.275515
520.461000	6.225731
520.647000	6.045710
520.832000	5.769697
521.018000	5.826655
521.203000	5.834717
521.389000	5.638779
521.574000	5.640688
521.760000	5.813124
521.946000	5.778222
522.131000	5.635130
522.317000	5.579745
522.502000	5.487898
522.688000	5.513671
522.873000	5.514992
523.059000	5.392221
523.245000	5.299569
523.430000	5.181536
523.616000	5.156698
523.801000	5.054243
523.987000	5.110235
524.172000	5.226972
524.358000	5.223338
524.544000	5.181604
524.729000	5.177593
524.915000	5.135344
525.100000	4.953824
525.286000	4.896669
525.471000	4.863468
525.657000	4.817489
525.843000	4.577675
526.028000	4.712572
526.214000	4.679372
526.399000	4.545134
526.585000	4.386440
526.770000	4.309080
526.956000	4.319845
527.142000	4.234147
527.327000	4.409067
527.513000	4.307625
527.698000	4.197499
527.884000	4.252567
528.069000	4.136819
528.255000	4.162127
528.441000	4.021827
528.626000	3.964313
528.812000	4.166566
528.997000	3.965142
529.183000	3.803621
529.368000	3.879484
529.554000	3.849511
529.740000	3.846234
529.925000	3.705772
530.111000	3.673500
530.296000	3.747732
530.482000	3.811712
530.667000	3.650903
530.853000	3.711445
531.039000	3.601217
531.224000	3.595949
531.410000	3.596895
531.595000	3.444255
531.781000	3.479680
531.967000	3.362866
532.152000	3.396147
532.338000	3.228607
532.523000	3.055953
532.709000	3.012997
532.894000	3.099120
533.080000	3.100348
533.266000	2.987141
533.451000	2.911799
533.637000	2.950877
533.822000	3.158009
534.008000	2.911232
534.193000	2.885825
534.379000	2.949628
534.565000	2.843492
534.750000	2.847564
534.936000	3.046491
535.121000	2.813739
535.307000	2.825127
535.492000	2.740503
535.678000	2.533706
535.864000	2.629797
536.049000	2.874966
536.235000	2.616912
536.420000	2.591079
536.606000	2.585119
536.791000	2.488276
536.977000	2.373039
537.163000	2.544837
537.348000	2.498405
537.534000	2.570019
537.719000	2.397644
537.905000	2.236699
538.090000	2.402645
538.276000	2.473722
538.462000	2.423621
538.647000	2.361042
538.833000	2.244813
539.018000	2.290696
539.204000	2.190770
539.389000	2.053654
539.575000	2.312292
539.761000	2.216248
539.946000	1.979291
540.132000	2.078628
540.317000	1.898395
540.503000	1.980039
540.688000	1.987630
540.874000	2.111102
541.060000	2.242455
541.245000	2.137504
541.431000	1.940918
541.616000	1.938815
541.802000	1.881074
541.987000	1.985738
542.173000	1.926047
542.359000	1.766170
542.544000	1.885658
542.730000	1.740614
542.915000	1.734789
543.101000	1.821081
543.286000	1.663998
543.472000	1.552980
543.658000	1.614852
543.843000	1.575696
544.029000	1.797123
544.214000	1.715322
544.400000	1.316642
544.585000	1.403925
544.771000	1.488056
544.957000	1.666110
545.142000	1.711228
545.328000	1.762170
545.513000	1.830078
545.699000	1.754901
545.884000	1.537884
546.070000	1.411239
546.261000	1.468551
546.451000	1.303032
546.642000	1.053663
546.833000	1.157877
547.023000	1.105115
547.214000	1.159661
547.405000	1.296473
547.595000	1.498672
547.786000	1.414389
547.977000	1.195150
548.167000	1.057933
548.358000	1.046583
548.549000	1.371995
548.740000	1.160299
548.930000	0.812225
549.121000	0.914028
549.312000	0.868950
549.502000	0.792600
549.693000	0.929810
549.884000	0.984166
550.074000	1.052751
550.265000	0.851273
550.456000	0.965122
550.646000	0.994737
550.837000	0.995083
551.028000	0.892395
551.218000	0.960580
551.409000	0.810852
551.600000	0.814295
551.790000	0.974932
551.981000	0.795373
552.172000	0.760887
552.362000	0.992873
552.553000	1.050733
552.744000	0.841695
552.934000	0.756233
553.125000	0.676811
553.316000	0.666093
553.506000	1.041698
553.697000	0.773668
553.888000	0.730336
554.079000	0.957743
554.269000	0.930672
554.460000	0.564872
554.651000	0.514816
554.841000	0.363310
555.032000	0.468231
555.223000	0.595996
555.413000	0.739588
555.604000	0.649532
555.795000	0.588945
555.985000	0.729182
556.176000	0.634394
556.367000	0.305802
556.557000	0.414778
556.748000	0.509520
556.939000	0.463262
557.129000	0.369161
557.320000	0.551244
557.511000	0.519018
557.701000	0.484217
557.892000	0.537336
558.083000	0.746908
558.273000	0.582299
558.464000	0.406213
558.655000	0.505200
558.845000	0.563142
559.036000	0.538056
559.227000	0.493109
559.418000	0.647332
559.608000	0.698162
559.799000	0.306128
559.990000	0.245293
560.180000	0.378301
560.371000	0.209231
560.562000	0.231496
560.752000	0.418205
560.943000	0.234642
561.134000	0.036652
561.324000	0.298497
561.515000	0.525617
561.706000	0.351741
561.896000	0.134775
562.087000	0.227177
562.278000	0.243909
562.468000	0.109447
562.659000	0.137135
562.850000	0.473279
563.040000	0.546091
563.231000	0.078475
563.422000	0.189955
563.612000	0.072710
563.803000	0.226107
563.994000	0.219466
564.185000	0.085975
564.375000	0.224905
564.566000	0.244045
564.757000	0.255848
564.947000	0.105551
565.138000	0.293433
565.329000	0.234826
565.519000	0.011045
565.710000	0.107797
565.901000	0.340210
566.091000	0.420112
566.282000	0.250937
566.473000	0.285897
566.663000	0.241632
566.854000	-0.002735
567.045000	0.095474
567.235000	0.174549
567.426000	0.199022
567.617000	0.252636
567.807000	0.206544
567.998000	0.206123
568.189000	0.070499
568.379000	0.173095
568.570000	0.288990
568.761000	0.191356
568.951000	0.145307
569.142000	0.088918
569.333000	0.102389
569.524000	0.008053
569.714000	-0.099312
569.905000	-0.209001
570.096000	0.192887
570.286000	0.331749
570.477000	0.365533
570.668000	0.181263
570.858000	0.221236
571.049000	0.098277
571.240000	-0.042519
571.430000	0.151278
571.621000	0.105783
571.812000	0.134324
572.002000	0.142478
572.193000	0.002634
572.384000	0.047395
572.574000	0.168650
572.765000	0.147301
572.956000	0.094397
573.146000	0.262608
573.337000	0.115317
573.528000	0.102035
573.718000	0.182661
573.909000	0.226698
574.100000	0.171364
574.290000	0.054351
574.481000	0.051647
574.672000	0.064633
574.863000	0.154500
575.053000	0.028271
575.244000	0.110253
575.435000	-0.028177
575.625000	-0.058656
575.816000	-0.073866
576.007000	0.005094
576.197000	0.043369
576.388000	0.104189
576.579000	0.256577
576.769000	0.223293
576.960000	-0.058316
577.155000	-0.209864
577.350000	0.027779
577.545000	0.181489
577.740000	0.005026
577.935000	0.338582
578.130000	0.261036
578.326000	-0.047544
578.521000	0.177581
578.716000	0.174274
578.911000	-0.119370
579.106000	-0.007433
579.301000	0.140788
579.496000	-0.004924
579.691000	-0.275532
579.886000	-0.132499
580.081000	0.056348
580.276000	0.095313
580.471000	-0.046426
580.666000	-0.200019
580.861000	-0.219455
581.057000	-0.182998
581.252000	-0.031727
581.447000	-0.133930
581.642000	-0.107324
581.837000	-0.038974
582.032000	0.046150
582.227000	0.166625
582.422000	0.142211
582.617000	-0.091178
582.812000	-0.165134
583.007000	-0.126773
583.202000	-0.198166
583.397000	0.092789
583.592000	0.315879
583.788000	0.037879
583.983000	0.009461
584.178000	0.073205
584.373000	-0.131844
584.568000	-0.173858
584.763000	-0.209303
584.958000	-0.197531
585.153000	-0.141103
585.348000	-0.188035
585.543000	0.011764
585.738000	-0.004704
585.933000	-0.223476
586.128000	0.004703
586.324000	-0.002358
586.519000	0.011780
586.714000	0.096672
586.909000	0.153533
587.104000	0.154044
587.299000	0.004726
587.494000	-0.051918
587.689000	-0.089854
587.884000	-0.035575
588.079000	-0.109105
588.274000	-0.097425
588.469000	-0.054544
588.664000	0.021371
588.859000	0.023780
589.055000	0.045234
589.250000	-0.038110
589.445000	-0.164549
589.640000	-0.093081
589.835000	0.136367
590.030000	0.184160
590.225000	0.222468
590.420000	0.004791
590.615000	-0.134265
590.810000	-0.117351
591.005000	-0.091379
591.200000	-0.168400
591.395000	-0.197238
591.591000	-0.103252
591.786000	-0.011996
591.981000	-0.129940
592.176000	-0.079569
592.371000	-0.031358
592.566000	-0.115698
592.761000	0.069891
592.956000	0.060353
593.151000	0.099028
593.346000	-0.002422
593.541000	0.031454
593.736000	0.016989
593.931000	-0.128685
594.126000	-0.021884
594.322000	-0.017021
594.517000	-0.165309
594.712000	-0.238344
594.907000	-0.295341
595.102000	-0.134422
595.297000	0.046407
595.492000	0.070982
595.687000	-0.112818
595.882000	-0.169312
596.077000	-0.068840
596.272000	0.054077
596.467000	0.110649
596.662000	-0.007384
596.857000	-0.019769
597.053000	-0.076733
597.248000	-0.034638
597.443000	0.007432
597.638000	-0.054636
597.833000	-0.218751
598.028000	0.012413
598.223000	0.059700
598.418000	-0.102170
598.613000	-0.166938
598.808000	-0.052364
599.003000	-0.074887
599.198000	-0.262435
599.393000	-0.149918
599.589000	-0.022549
599.784000	-0.172995
599.979000	-0.110478
600.174000	0.035176
600.369000	-0.135823
600.564000	-0.050370
600.759000	0.171458
600.954000	0.259271
601.149000	0.189368
601.344000	-0.181978
601.539000	-0.070852
601.734000	-0.108666
601.929000	-0.306552
602.124000	-0.253561
602.320000	-0.076200
602.515000	0.200692
602.710000	0.155285
602.905000	-0.190897
603.100000	-0.284614
603.295000	-0.190940
603.490000	-0.079148
603.685000	-0.091930
603.880000	-0.081815
604.075000	-0.240939
604.270000	-0.208057
604.465000	-0.133466
604.660000	-0.310817
604.856000	-0.148877
605.051000	0.059151
605.246000	0.017988
605.441000	-0.236582
605.636000	-0.293240
605.831000	-0.131427
606.026000	-0.242138
606.221000	-0.327591
606.416000	-0.126555
606.611000	0.043951
606.806000	0.105902
607.001000	0.217250
607.196000	-0.007766
607.391000	-0.217755
607.587000	-0.036366
607.782000	-0.080631
607.977000	-0.290626
608.172000	0.075486
608.367000	0.130147
608.562000	-0.065203
608.757000	-0.099077
608.952000	-0.182936
609.147000	0.182708
609.342000	0.159464
609.537000	-0.102139
609.732000	-0.102301
609.927000	-0.167546
610.122000	-0.107518
610.318000	0.173247
610.513000	0.273137
610.708000	0.055213
610.903000	0.042114
611.098000	0.089683
611.293000	0.052769
611.488000	0.058054
611.683000	0.042295
611.878000	0.002644
612.073000	0.113735
612.268000	0.127099
612.463000	0.167191
612.658000	0.167193
612.854000	0.037232
613.049000	-0.050552
613.244000	0.087851
613.439000	0.141149
613.634000	-0.128151
613.829000	0.024035
614.024000	-0.101723
614.219000	-0.152562
614.414000	0.144628
614.609000	-0.056328
614.804000	-0.185126
614.999000	-0.187638
615.194000	-0.145125
615.389000	-0.099555
615.585000	-0.256082
615.780000	-0.105216
615.975000	-0.127052
616.170000	-0.140670
616.365000	-0.002708
616.560000	0.130107
616.755000	0.106033
616.950000	0.013600
617.145000	0.089842
617.340000	-0.062677
617.535000	-0.340628
617.730000	-0.106421
617.925000	-0.292449
618.120000	-0.330818
618.316000	0.073980
618.511000	-0.027425
618.706000	-0.280726
618.901000	-0.143042
619.096000	0.002761
619.291000	-0.074489
619.486000	-0.052585
619.681000	-0.337913
619.876000	-0.412519
620.071000	-0.182887
620.266000	0.061111
620.461000	0.083482
620.656000	-0.016728
620.852000	-0.011138
621.047000	-0.133978
621.242000	-0.285079
621.437000	0.050428
621.632000	0.174068
621.827000	-0.033721
622.022000	-0.281224
622.217000	-0.129712
622.412000	0.016937
622.607000	-0.016954
622.802000	-0.234649
622.997000	-0.190076
623.192000	-0.102121
623.387000	-0.099306
623.583000	-0.332622
623.778000	0.122584
623.973000	0.077022
624.168000	0.005719
624.363000	0.025695
624.558000	0.102956
624.753000	-0.218050
624.948000	-0.071862
625.143000	-0.011506
625.338000	-0.083560
625.533000	-0.126820
625.728000	-0.046166
625.923000	0.132814
626.119000	-0.011576
626.314000	-0.254913
626.509000	-0.255696
626.704000	-0.218498
626.899000	-0.201192
627.094000	-0.227751
627.289000	-0.199008
627.484000	-0.170142
627.679000	-0.132125
627.874000	-0.146995
628.069000	0.147210
628.264000	0.052947
628.459000	-0.050123
628.654000	-0.097387
628.850000	-0.254685
629.045000	-0.166026
629.240000	-0.201804
629.435000	-0.222868
629.630000	-0.104201
629.825000	-0.157786
630.020000	-0.107598
630.215000	-0.253912
630.410000	-0.152951
630.605000	-0.225111
630.800000	-0.105036
630.995000	0.018047
631.190000	0.226067
631.385000	0.012064
631.581000	-0.087615
631.776000	-0.030231
631.971000	-0.188040
632.166000	-0.103198
632.361000	-0.285580
632.556000	-0.118651
632.751000	0.064096
632.946000	-0.109914
633.141000	-0.244996
633.336000	-0.202439
633.531000	-0.070764
633.726000	-0.003073
633.921000	-0.203363
634.117000	-0.404540
634.312000	-0.510048
634.507000	-0.436330
634.702000	-0.310009
634.897000	-0.208002
635.092000	-0.115170
635.287000	-0.053023
635.482000	-0.131341
635.677000	-0.118871
635.872000	-0.015643
636.067000	0.116022
636.262000	-0.034628
636.457000	-0.369955
636.652000	-0.361088
636.848000	-0.327263
637.043000	-0.297022
637.238000	-0.285127
637.433000	-0.348753
637.628000	-0.272650
637.823000	-0.050800
638.018000	0.000000
638.213000	-0.159412
638.408000	-0.210619
638.603000	-0.329166
638.798000	-0.374450
638.993000	-0.266146
639.188000	-0.221330
639.383000	-0.298567
639.579000	0.076969
639.774000	-0.128639
639.969000	-0.357123
640.164000	-0.403085
640.359000	-0.397063
640.554000	-0.174546
640.749000	-0.116685
640.944000	-0.038979
641.139000	-0.081041
641.334000	-0.178611
641.529000	-0.556424
641.724000	-0.420275
641.919000	-0.267715
642.115000	-0.016363
642.310000	-0.013072
642.505000	-0.163342
642.700000	-0.157092
642.895000	-0.298728
643.090000	-0.187056
643.285000	0.042668
643.480000	-0.039475
643.675000	-0.029632
643.870000	0.224315
644.065000	0.085935
644.260000	-0.270953
644.455000	-0.168834
644.650000	-0.209077
644.846000	-0.122794
645.041000	-0.364910
645.236000	-0.555347
645.431000	-0.522843
645.626000	-0.602405
645.821000	-0.392575
646.016000	-0.303634
646.211000	0.120345
646.406000	0.023445
646.601000	-0.010038
646.796000	-0.247546
646.991000	-0.491825
647.186000	-0.355434
647.381000	-0.164410
647.577000	-0.151134
647.772000	-0.070533
647.967000	-0.117785
648.162000	-0.097671
648.357000	-0.134901
648.552000	0.003371
648.747000	-0.013493
648.942000	0.016876
649.137000	-0.060941
649.332000	-0.335613
649.527000	-0.193150
649.722000	0.091461
649.917000	0.166472
650.113000	-0.159485
650.308000	-0.271848
650.503000	-0.251325
650.698000	-0.115807
650.893000	-0.221554
651.088000	-0.092090
651.283000	0.010255
651.478000	-0.235857
651.673000	-0.112687
651.868000	-0.266885
652.063000	-0.054854
652.258000	0.048034
652.453000	0.188206
652.648000	-0.065106
652.844000	-0.078869
653.039000	-0.065263
653.234000	-0.498218
653.429000	-0.612697
653.624000	-0.333638
653.819000	-0.103414
654.014000	-0.193077
654.209000	-0.335315
654.404000	-0.141584
654.599000	-0.304662
654.794000	-0.328329
654.989000	0.058927
655.184000	0.052056
655.380000	-0.284342
655.575000	-0.367605
655.770000	-0.385584
655.965000	-0.132035
656.160000	-0.264209
656.355000	-0.132078
656.550000	-0.160375
656.745000	-0.097685
656.940000	-0.164106
657.135000	-0.171048
657.330000	-0.164133
657.525000	-0.345974
657.720000	-0.133031
657.915000	-0.041971
658.111000	-0.129460
658.306000	0.122559
658.501000	-0.129860
658.696000	-0.421001
658.891000	-0.108809
659.086000	-0.185953
659.281000	-0.147600
659.476000	-0.355445
659.671000	-0.731938
659.866000	-0.489346
660.061000	-0.169097
660.256000	-0.063440
660.451000	-0.091717
660.646000	-0.204870
660.842000	-0.116698
661.037000	-0.382067
661.232000	-0.439298
661.427000	-0.254873
661.622000	-0.404293
661.817000	-0.436094
662.012000	-0.177718
662.207000	-0.327227
662.402000	-0.431457
662.597000	-0.281889
662.792000	-0.581083
662.987000	-0.559235
663.182000	-0.314119
663.378000	-0.242923
663.573000	-0.569405
663.768000	-0.550356
663.963000	-0.279056
664.158000	-0.285950
664.353000	0.147149
664.548000	0.279844
664.743000	-0.111346
664.938000	-0.395058
665.133000	-0.395677
665.328000	-0.046831
665.523000	-0.050532
665.718000	-0.267131
665.913000	-0.332608
666.109000	-0.239144
666.304000	0.025355
666.499000	-0.133937
666.694000	-0.021781
666.889000	0.185121
667.084000	-0.134754
667.279000	-0.229310
667.474000	-0.152959
667.669000	-0.131076
667.864000	-0.164039
668.059000	-0.153336
668.254000	-0.204708
668.449000	-0.391580
668.644000	-0.289375
668.840000	-0.014633
669.035000	-0.212477
669.230000	-0.529321
669.425000	-0.139776
669.620000	-0.268498
669.815000	-0.387594
670.010000	-0.442555
670.205000	-0.254681
670.400000	-0.198960
670.595000	-0.151522
670.790000	-0.292349
670.985000	-0.240793
671.180000	-0.048212
671.376000	-0.348921
671.571000	-0.431537
671.766000	-0.466096
671.961000	-0.529686
672.156000	-0.552755
672.351000	-0.328741
672.546000	-0.284511
672.741000	-0.209182
672.936000	-0.216936
673.131000	0.348790
673.326000	-0.026326
673.521000	-0.500629
673.716000	-0.609775
673.911000	-0.636578
674.107000	-0.109441
674.302000	0.139728
674.497000	-0.034027
674.692000	-0.325375
674.887000	-0.413801
675.082000	-0.319374
675.277000	-0.019037
675.472000	-0.179183
675.667000	-0.316915
675.862000	-0.370559
676.057000	-0.294352
676.252000	-0.222188
676.447000	-0.337940
676.643000	-0.188017
676.838000	0.069198
677.033000	-0.123193
677.228000	0.092626
677.423000	-0.015447
677.618000	-0.333010
677.813000	-0.421824
678.008000	-0.271767
678.203000	-0.151574
678.398000	-0.288125
678.593000	-0.155796
678.788000	-0.101596
678.983000	-0.405888
679.178000	-0.269426
679.374000	-0.359757
679.569000	-0.199861
679.764000	-0.416628
679.959000	-0.539763
680.154000	-0.425593
680.349000	-0.605012
680.544000	-0.548915
680.739000	-0.422769
680.934000	-0.545803
681.129000	-0.527500
681.324000	-0.615514
681.519000	-0.334621
681.714000	-0.338723
681.909000	-0.437815
682.105000	-0.614666
682.300000	-0.212362
682.495000	-0.028033
682.690000	-0.020069
682.885000	-0.120513
683.080000	-0.358514
683.275000	-0.366755
683.470000	-0.072633
683.665000	0.194114
683.860000	0.445611
684.055000	0.141867
684.250000	-0.401672
684.445000	-0.392931
684.641000	0.069071
684.836000	-0.293024
685.031000	-0.306336
685.226000	-0.351740
685.421000	-0.077929
685.616000	-0.270699
685.811000	-0.296017
686.006000	-0.090441
686.201000	-0.168775
686.396000	-0.508264
686.591000	-0.542409
686.786000	-0.078795
686.981000	-0.190785
687.176000	-0.212036
687.372000	-0.237249
687.567000	0.062462
687.762000	-0.012527
687.957000	-0.133614
688.152000	-0.230139
688.347000	-0.234746
688.542000	-0.512681
688.737000	-0.865292
688.932000	-0.929875
689.127000	-0.514040
689.322000	-0.114087
689.517000	-0.329515
689.712000	-0.538416
689.908000	-0.441354
690.103000	-0.471975
690.298000	-0.323208
690.493000	-0.302734
690.688000	-0.563525
690.883000	-0.394111
691.078000	0.042853
691.273000	-0.004286
691.468000	-0.364996
691.663000	-0.362074
691.858000	-0.103468
692.053000	-0.155195
692.248000	-0.043154
692.443000	-0.051782
692.639000	-0.172967
692.834000	-0.052019
693.029000	0.442325
693.224000	0.365997
693.419000	-0.209335
693.614000	-0.367030
693.809000	-0.520340
694.004000	-0.692175
694.199000	-0.543085
694.394000	-0.210940
694.589000	-0.470718
694.784000	-0.449177
694.979000	-0.281846
695.174000	-0.339955
695.370000	0.180709
695.565000	-0.075111
695.760000	-0.358698
695.955000	0.035513
696.150000	0.097691
696.345000	-0.338786
696.540000	-0.178621
696.740000	-0.294518
696.940000	-0.125042
697.140000	-0.013466
697.340000	-0.323754
697.539000	-0.143967
697.739000	-0.234040
697.939000	-0.247714
698.139000	-0.509468
698.339000	-0.805536
698.539000	-0.597022
698.739000	-0.612231
698.939000	-0.564803
699.138000	-0.634173
699.338000	0.045468
699.538000	0.168874
699.738000	-0.315850
699.938000	-0.320698
700.138000	-0.513985
700.338000	-0.589108
700.538000	-0.336811
700.737000	-0.295189
700.937000	-0.634615
701.137000	-0.635590
701.337000	-0.055556
701.537000	-0.106716
701.737000	-0.361451
701.937000	-0.306536
702.137000	-0.311196
702.337000	-0.414073
702.536000	-0.624709
702.736000	-0.611458
702.936000	-0.785317
703.136000	-0.234416
703.336000	-0.135931
703.536000	-0.296117
703.736000	-0.659824
703.936000	-0.630237
704.135000	-0.592314
704.335000	-0.226275
704.535000	-0.415971
704.735000	-0.634059
704.935000	-0.193591
705.135000	-0.166065
705.335000	-0.466538
705.535000	-0.242950
705.735000	-0.171464
705.934000	-0.152335
706.134000	-0.390489
706.334000	-0.496429
706.534000	-0.525824
706.734000	-0.502322
706.934000	-0.641023
707.134000	-0.669899
707.334000	-0.364433
707.533000	-0.345890
707.733000	-0.388845
707.933000	-0.499757
708.133000	-0.302370
708.333000	-0.197804
708.533000	-0.420508
708.733000	-0.062825
708.933000	-0.203152
709.132000	-0.407095
709.332000	-0.441765
709.532000	-0.530316
709.732000	-0.374080
709.932000	-0.798650
710.132000	-0.764082
710.332000	-0.943720
710.532000	-0.399261
710.732000	-0.219707
710.931000	-0.469056
711.131000	-0.461080
711.331000	-0.373074
711.531000	-0.550727
711.731000	-0.419015
711.931000	-0.380208
712.131000	-0.458662
712.331000	-0.187470
712.530000	-0.330138
712.730000	-0.553325
712.930000	-0.390161
713.130000	-0.297363
713.330000	-0.466445
713.530000	-0.363572
713.730000	0.189343
713.930000	-0.214189
714.129000	-0.641896
714.329000	-0.713843
714.529000	-0.339192
714.729000	-0.014995
714.929000	-0.219936
715.129000	-0.440601
715.329000	-0.360826
715.529000	-0.377400
715.729000	0.246105
715.928000	-0.010070
716.128000	-0.347641
716.328000	-0.252662
716.528000	-0.384484
716.728000	-0.298553
716.928000	-0.414979
717.128000	-0.253601
717.328000	-0.278916
717.527000	-0.436652
717.727000	-0.386255
717.927000	-0.407892
718.127000	-0.423430
718.327000	-0.873948
718.527000	-0.791778
718.727000	-0.357908
718.927000	-0.414901
719.127000	-0.642855
719.326000	-0.466099
719.526000	-0.087233
719.726000	-0.174833
719.926000	-0.717430
720.126000	-0.722708
720.326000	-0.392269
720.526000	-0.485265
720.726000	-0.352103
720.925000	-0.227977
721.125000	-0.681263
721.325000	-0.420728
721.525000	-0.411334
721.725000	-0.551978
721.925000	-0.412538
722.125000	-0.496131
722.325000	-0.010444
722.524000	-0.309026
722.724000	-0.786636
722.924000	-0.854759
723.124000	-0.582798
723.324000	-0.204978
723.524000	-0.184121
723.724000	-0.726619
723.924000	-0.502003
724.124000	-0.269589
724.323000	-0.052929
724.523000	-0.084613
724.723000	0.323281
724.923000	0.159037
725.123000	-0.015920
725.323000	-0.053163
725.523000	-0.276976
725.723000	-0.473557
725.922000	-0.500726
726.122000	-0.314639
726.322000	-0.481252
726.522000	-0.465666
726.722000	0.229892
726.922000	-0.219049
727.122000	-0.386011
727.322000	0.021472
727.521000	-0.215251
727.721000	-0.431137
727.921000	-0.414989
728.121000	-0.393332
728.321000	-0.798909
728.521000	-0.654834
728.721000	-0.417421
728.921000	-0.010838
729.121000	0.640513
729.320000	0.043473
729.520000	-0.461939
729.720000	-0.675000
729.920000	-0.503191
730.120000	-0.305513
730.320000	-0.273448
730.520000	-0.623717
730.720000	-0.444563
730.919000	-0.351194
731.119000	-0.076964
731.319000	-0.523111
731.519000	-0.671693
731.719000	-0.380180
731.919000	-0.622947
732.119000	-1.054692
732.319000	-0.985992
732.519000	-0.349161
732.718000	-0.632644
732.918000	-0.616525
733.118000	-0.400906
733.318000	-0.055842
733.518000	-0.357415
733.718000	-0.989849
733.918000	-0.979236
734.118000	-0.766335
734.317000	-0.494249
734.517000	-0.695477
734.717000	-0.541028
734.917000	0.022594
735.117000	-0.084817
735.317000	-0.327876
735.517000	0.124705
735.717000	0.517352
735.916000	-0.454883
736.116000	-0.670370
736.316000	-0.371550
736.516000	-0.297147
736.716000	-0.423077
736.916000	-0.861087
737.116000	-0.588390
737.316000	0.184563
737.516000	0.086685
737.715000	-0.150350
737.915000	-0.717378
738.115000	-0.795104
738.315000	-0.383326
738.515000	-0.667787
738.715000	-0.502322
738.915000	0.111127
739.115000	-0.351507
739.314000	-0.567758
739.514000	-0.193848
739.714000	-0.064779
739.914000	-0.076781
740.114000	-0.331369
740.314000	-0.230946
740.514000	0.183854
740.714000	-0.446315
740.913000	-0.899890
741.113000	-0.811765
741.313000	-0.387977
741.513000	-0.442940
741.713000	-0.390114
741.913000	-0.313566
742.113000	-0.325131
742.313000	-0.802495
742.513000	-0.507312
742.712000	-0.357480
742.912000	-0.842421
743.112000	-0.662837
743.312000	-1.005044
743.512000	-0.726486
743.712000	-0.520584
743.912000	-0.956967
744.112000	-0.982133
744.311000	-0.978633
744.511000	-0.598107
744.711000	-0.265801
744.911000	-0.736643
745.111000	-0.793339
745.311000	-0.248396
745.511000	-0.565880
745.711000	-0.740695
745.911000	-0.486128
746.110000	-0.860483
746.310000	-0.984732
746.510000	-0.744778
746.710000	-0.308080
746.910000	-0.138445
747.110000	-0.497943
747.310000	-1.003941
747.510000	-0.779592
747.709000	-0.456716
747.909000	-0.470607
748.109000	-0.280766
748.309000	-0.447585
748.509000	-0.787705
748.709000	-0.887042
748.909000	-0.732547
749.109000	-0.632483
749.308000	0.058144
749.508000	-0.421471
749.708000	-0.726471
749.908000	-0.259512
750.108000	-0.143156
750.308000	-0.874990
750.508000	-0.189848
750.708000	-0.726902
750.908000	-1.089429
751.107000	-0.546394
751.307000	0.019726
751.507000	-0.244315
751.707000	-0.197842
751.907000	-0.337157
752.107000	-0.444431
752.307000	-0.918476
752.507000	-0.707343
752.706000	-0.686857
752.906000	0.193798
753.106000	-0.590116
753.306000	-1.123316
753.506000	-0.134895
753.706000	-0.533901
753.906000	-0.331205
754.106000	-0.094755
754.305000	-0.338851
754.505000	-0.366918
754.705000	-0.382586
754.905000	-0.376311
755.105000	-0.082226
755.305000	-0.802820
755.505000	-0.688147
755.705000	-0.282493
755.905000	-0.414647
756.104000	-0.906095
756.304000	-1.338520
756.504000	-1.598416
756.704000	-0.391201
756.904000	-0.237380
757.104000	-0.515921
757.304000	-0.579221
757.504000	-0.112340
757.703000	-0.484376
757.903000	-0.063332
758.103000	0.155128
758.303000	-0.353555
758.503000	-0.560091
758.703000	-0.561399
758.903000	-0.774934
759.103000	-0.477653
759.303000	-0.329515
759.502000	-0.423973
759.702000	-0.093382
759.902000	-0.498174
760.102000	-0.484893
760.302000	-0.442956
760.502000	-0.195477
760.702000	-0.166757
760.902000	-0.501331
761.101000	-0.888961
761.301000	-1.080302
761.501000	-0.591437
761.701000	-0.914545
761.901000	-0.764864
762.101000	-0.287438
762.301000	-0.383255
762.501000	-0.730259
762.700000	-0.822545
762.900000	-0.867317
763.100000	-0.571449
763.300000	-0.365135
763.500000	-0.596729
763.703000	-0.594735
763.905000	-0.888031
764.108000	-0.209692
764.311000	-0.404460
764.513000	-0.652417
764.716000	-0.594824
764.919000	-0.580541
765.121000	-1.108736
765.324000	-1.180154
765.527000	-0.958287
765.729000	-0.859390
765.932000	0.106647
766.135000	-0.015231
766.337000	-0.373348
766.540000	-0.596261
766.743000	-0.331151
766.945000	-0.953057
767.148000	-1.317272
767.351000	-1.132233
767.553000	-0.262857
767.756000	-0.588188
767.958000	-0.975054
768.161000	-0.557657
768.364000	-0.855114
768.566000	-1.168617
768.769000	-0.656609
768.972000	-0.437678
769.174000	-0.736913
769.377000	-1.132119
769.580000	-1.252713
769.782000	-0.606132
769.985000	-1.034505
770.188000	-1.781047
770.390000	-0.970500
770.593000	0.540260
770.796000	0.174920
770.998000	-0.365956
771.201000	-0.836213
771.404000	-0.558262
771.606000	-0.696594
771.809000	-0.440232
772.012000	-0.425041
772.214000	-1.348360
772.417000	-1.476934
772.620000	-0.272068
772.822000	-0.645121
773.025000	-1.016250
773.228000	-1.042390
773.430000	-0.971281
773.633000	-0.470343
773.836000	-0.349178
774.038000	-0.236382
774.241000	-0.440042
774.444000	-0.735656
774.646000	0.130678
774.849000	-0.237388
775.052000	-0.597461
775.254000	-0.451036
775.457000	-0.761966
775.659000	-0.722727
775.862000	-0.854335
776.065000	-0.625350
776.267000	-0.098909
776.470000	0.182144
776.673000	-0.646228
776.875000	-0.074783
777.078000	-0.107849
777.281000	-0.891052
777.483000	-0.392643
777.686000	-0.301311
777.889000	-0.276499
778.091000	-0.058853
778.294000	-1.133410
778.497000	-1.151679
778.699000	-0.874966
778.902000	-0.886397
779.105000	-0.548759
779.307000	0.177545
779.510000	-0.821920
779.713000	-0.595446
779.915000	-0.913187
780.118000	0.205028
780.321000	0.410559
780.523000	-0.471525
780.726000	-0.891982
780.929000	-1.037414
781.131000	-1.142062
781.334000	-1.534150
781.537000	-1.460656
781.739000	-0.467145
781.942000	-0.986992
782.145000	-1.514251
782.347000	-1.297505
782.550000	-0.914936
782.753000	-1.031593
782.955000	-0.894140
783.158000	-0.753438
783.361000	-0.623560
783.563000	-0.702718
783.766000	-0.590052
783.968000	1.190738
784.171000	0.806328
784.374000	-0.478523
784.576000	-0.434087
784.779000	-0.097295
784.982000	-0.008896
785.184000	-0.679759
785.387000	-0.071663
785.590000	0.492418
785.792000	0.224675
785.995000	0.045004
786.198000	-0.207355
786.400000	-0.579423
786.603000	-0.599047
786.806000	-0.778167
787.008000	-0.307616
787.211000	-0.227005
787.414000	-1.138908
787.616000	-0.868842
787.819000	-0.724213
788.022000	-1.321867
788.224000	-0.717793
788.427000	-1.298283
788.630000	-0.896279
788.832000	-0.526108
789.035000	-0.958389
789.238000	-1.407044
789.440000	-1.089372
789.643000	-0.185832
789.846000	-0.913168
790.048000	-0.392306
790.251000	-0.196200
790.454000	-0.596747
790.656000	0.168454
790.859000	-0.581575
791.062000	-1.052437
791.264000	-0.413117
791.467000	-1.216307
791.669000	-1.746864
791.872000	-0.654788
792.075000	-0.957351
792.277000	-0.796342
792.480000	-0.543312
792.683000	-1.074150
792.885000	-1.560452
793.088000	-1.270130
793.291000	-1.330749
793.493000	-1.275628
793.696000	-0.700431
793.899000	-0.461827
794.101000	-0.713635
794.304000	-0.782906
794.507000	-0.483992
794.709000	-0.388268
794.912000	-0.974577
795.115000	-1.415855
795.317000	-0.819994
795.520000	-0.490226
795.723000	-0.817056
795.925000	-1.173153
796.128000	-1.417792
796.331000	-1.116230
796.533000	-1.287214
796.736000	-0.567229
796.939000	-0.528686
797.141000	-0.830126
797.344000	-0.340376
797.547000	-0.230354
797.749000	-0.401192
797.952000	-0.947586
798.155000	-1.357923
798.357000	-1.568486
798.560000	-1.282225
798.763000	-0.406636
798.965000	-0.721096
799.168000	-0.743571
799.371000	-0.438505
799.573000	-0.736691
799.776000	-1.434601
799.978000	-1.542409
800.181000	-0.690262
800.384000	0.691329
800.586000	-0.020685
800.789000	-1.457676
800.992000	-1.415364
801.194000	-1.563445
801.397000	-1.557106
801.600000	-1.260363
801.802000	0.125181
802.005000	-0.219764
802.208000	-1.721158
802.410000	-0.660610
802.613000	-0.400222
802.816000	-0.632666
803.018000	-1.268701
803.221000	-1.133370
803.424000	0.191057
803.626000	-0.159461
803.829000	-0.682537
804.032000	0.128314
804.234000	0.801714
804.437000	-0.547516
804.640000	-0.868855
804.842000	-0.989105
805.045000	-1.231727
805.248000	-0.995885
805.450000	-0.854328
805.653000	-1.022986
805.856000	-1.043611
806.058000	0.065426
806.261000	-1.114864
806.464000	-1.126921
806.666000	-0.668457
806.869000	-0.970511
807.072000	-1.940813
807.274000	-2.206917
807.477000	-1.117536
807.679000	-0.852692
807.882000	-1.442918
808.085000	-1.206814
808.287000	-0.380299
808.490000	-1.288772
808.693000	-1.099032
808.895000	-0.718542
809.098000	-0.842449
809.301000	-0.710024
809.503000	-1.041358
809.706000	-0.307284
809.909000	0.182064
810.111000	0.125345
810.314000	-0.513944
810.517000	-1.013162
810.719000	-1.121904
810.922000	-0.942711
811.125000	0.057359
811.327000	0.126911
811.530000	-0.359076
811.735000	-0.902118
811.940000	-1.205515
812.146000	-1.175667
812.351000	-0.419082
812.556000	-0.467142
812.761000	-1.124699
812.967000	-0.105895
813.172000	-0.317352
813.377000	-0.754571
813.582000	-0.165763
813.788000	-0.500722
813.993000	-1.403261
814.198000	-0.630896
814.403000	-1.499032
814.609000	-0.838036
814.814000	-0.541167
815.019000	0.324106
815.224000	-0.059989
815.429000	-1.147360
815.635000	-0.763271
815.840000	-0.776227
816.045000	-0.645743
816.250000	-0.268476
816.456000	-1.540267
816.661000	-2.431521
816.866000	-1.969185
817.071000	-1.931046
817.277000	-2.661480
817.482000	-1.748452
817.687000	-0.855081
817.892000	-0.722833
818.097000	-0.212521
818.303000	0.225020
818.508000	0.586406
818.713000	1.740234
818.918000	0.563790
819.124000	0.376826
819.329000	-1.110051
819.534000	-1.201922
819.739000	-1.100799
819.945000	-1.271255
820.150000	-1.112277
820.355000	-0.730150
820.560000	-0.536557
820.766000	-0.730050
820.971000	-1.017660
821.176000	-2.388917
821.381000	-2.832678
821.586000	-1.774559
821.792000	-0.272964
821.997000	-0.702562
822.202000	-0.911625
822.407000	-1.619776
822.613000	-1.937340
822.818000	-1.207437
823.023000	-0.670156
823.228000	-0.806736
823.434000	-0.079288
823.639000	0.238375
823.844000	-0.956012
824.049000	-0.252467
824.255000	0.093315
824.460000	-0.736614
824.665000	-1.139988
824.870000	-0.013457
825.075000	-0.202111
825.281000	-0.513558
825.486000	0.706931
825.691000	-1.320692
825.896000	-2.523776
826.102000	-0.655225
826.307000	-0.793658
826.512000	-1.194938
826.717000	-0.867969
826.923000	-0.856631
827.128000	-0.456948
827.333000	-1.505133
827.538000	-1.007180
827.744000	-0.238384
827.949000	-1.007714
828.154000	-0.590214
828.359000	-0.070228
828.564000	-0.818737
828.770000	-0.978042
828.975000	0.127860
829.180000	-0.571147
829.385000	-1.983982
829.591000	-1.476328
829.796000	-0.763460
830.001000	-0.649459
830.206000	-1.274062
830.412000	-1.576490
830.617000	-1.580298
830.822000	-0.174846
831.027000	-0.930434
831.232000	-1.535755
831.438000	-1.384577
831.643000	-0.898425
831.848000	-0.944921
832.053000	-0.889245
832.259000	-0.979381
832.464000	-2.544610
832.669000	-2.389527
832.874000	-1.908515
833.080000	-1.692309
833.285000	-0.060002
833.490000	-0.315234
833.695000	-1.752761
833.901000	-1.457386
834.106000	-1.809307
834.311000	-1.207451
834.516000	-0.627612
834.721000	-1.293094
834.927000	-0.370982
835.132000	-0.635004
835.337000	1.116790
835.542000	0.015603
835.748000	-2.071201
835.953000	-0.203148
836.158000	-0.391628
836.363000	-0.660576
836.569000	-0.348698
836.774000	-1.381367
836.979000	-1.526120
837.184000	-2.199123
837.390000	-2.314890
837.595000	-1.504707
837.800000	-0.754081
838.005000	-0.500419
838.210000	-0.759029
838.416000	-1.475303
838.621000	-1.365482
838.826000	-1.787038
839.031000	-1.110386
839.237000	-1.661576
839.442000	-2.685842
839.647000	-2.648925
839.852000	-1.916773
840.058000	-1.824197
840.263000	-1.833158
840.468000	-2.202003
840.673000	-1.384732
840.878000	-0.885061
841.084000	-1.629482
841.289000	-1.077827
841.494000	1.322760
841.699000	1.122962
841.905000	0.426483
842.110000	0.771818
842.315000	-1.615674
842.520000	-1.116100
842.726000	-1.256462
842.931000	-2.218522
843.136000	-1.004690
843.341000	-2.286137
843.547000	-1.497750
843.752000	-1.011267
843.957000	-1.775422
844.162000	-1.836833
844.367000	-1.168224
844.573000	-0.675509
844.778000	-0.673725
844.983000	-0.817563
845.188000	-0.821755
845.394000	-2.163072
845.599000	-2.211707
845.804000	-1.786226
846.009000	-0.944705
846.215000	-1.806908
846.420000	-1.573873
846.625000	-0.514093
846.830000	0.201239
847.036000	-1.378730
847.241000	-2.049174
847.446000	-0.387635
847.651000	-0.611704
847.856000	-2.020072
848.062000	-2.251183
848.267000	-0.694320
848.472000	-1.468778
848.677000	-2.719163
848.883000	-1.036385
849.088000	0.609094
849.293000	-1.051008
849.498000	-1.679469
849.704000	-0.727257
849.909000	-1.208841
850.114000	-1.957232
850.319000	-0.961574
850.524000	-1.005536
850.730000	-0.797324
850.935000	-0.820052
851.140000	-0.215342
851.345000	-0.274033
851.551000	-0.412286
851.756000	-0.473719
851.961000	-1.108284
852.166000	-1.524682
852.372000	-1.091882
852.577000	-0.559929
852.782000	-1.410439
852.987000	-0.562570
853.193000	-0.443612
853.398000	-0.685788
853.603000	-2.284327
853.808000	-2.366429
854.013000	-1.099145
854.219000	0.203915
854.424000	1.514828
854.629000	1.128371
854.834000	-1.177209
855.040000	-0.852189
855.245000	-0.414313
855.450000	-2.932567
855.655000	-3.652078
855.861000	-3.362043
856.066000	-2.568324
856.271000	-2.698973
856.476000	-0.317375
856.682000	-1.316867
856.887000	-3.798577
857.092000	-2.020226
857.297000	0.469725
857.502000	-0.748760
857.708000	-1.779092
857.913000	-0.386496
858.118000	-0.780119
858.323000	-1.195350
858.529000	-0.694401
858.734000	-1.501376
858.939000	-1.440332
859.144000	-1.817456
859.350000	-2.847019
859.555000	-2.746078
859.760000	-0.375503
859.965000	0.198738
860.171000	-1.796375
860.376000	-0.913072
860.581000	-2.322283
860.786000	-4.641651
860.991000	-4.098862
861.197000	-2.948480
861.402000	-0.835165
861.607000	-1.535878
861.812000	-2.948873
862.018000	-2.869102
862.223000	-2.007591
862.428000	-0.757285
862.633000	-0.137751
862.839000	-1.247530
863.044000	-1.910234
863.249000	-2.392931
863.454000	-0.860450
863.659000	-1.959384
863.865000	-2.648942
864.070000	-2.632388
864.275000	-2.730963
864.480000	-2.104895
864.686000	-3.821798
864.891000	-3.421102
865.096000	-1.646802
865.301000	-0.884720
865.507000	-1.082341
865.712000	-0.673411
865.917000	-0.919791
866.122000	-0.703854
866.328000	-4.198256
866.533000	-3.634324
866.738000	-0.586141
866.943000	-0.832117
867.148000	0.172281
867.354000	-2.009186
867.559000	-3.647356
867.764000	-2.144256
867.969000	-0.601432
868.175000	-2.197807
868.380000	-2.656644
868.585000	-3.563536
868.790000	-1.208733
868.996000	-0.963239
869.201000	-2.617723
869.406000	-3.879710
869.611000	-3.246187
869.817000	-2.297891
870.022000	2.050303
870.227000	-0.436759
870.432000	-2.581820
870.637000	-1.705950
870.843000	-2.079833
871.048000	-1.638659
871.253000	0.078077
871.458000	-1.124777
871.664000	-3.659023
871.869000	-3.654162
872.074000	-2.894953
872.279000	-1.619331
872.485000	-2.377856
872.690000	-3.085831
872.895000	-3.044697
873.100000	-3.264105
873.306000	-3.061256
873.511000	-1.991405
873.716000	-0.437429
873.921000	-2.072364
874.126000	-2.731135
874.332000	-1.930632
874.537000	-0.332603
874.742000	-0.690686
874.947000	-1.498209
875.153000	0.168029
875.358000	-0.842117
875.563000	-1.542449
875.768000	-4.308820
875.974000	-5.203143
876.179000	-1.473321
876.384000	-1.024948
876.589000	-2.470673
876.794000	-2.559770
877.000000	-2.590666
877.205000	-3.852325
877.410000	-1.300061
877.615000	-2.999504
877.821000	-5.004714
878.026000	-3.202264
878.231000	-3.841845
878.436000	-3.789987
878.642000	-2.641976
878.847000	-1.235667
879.052000	-0.323166
879.257000	-2.637436
879.463000	-4.718330
879.668000	-3.651137
879.873000	-1.221890
880.078000	-3.136895
880.283000	-4.708668
880.489000	-4.828530
880.694000	-3.765147
880.899000	-2.154736
881.104000	-0.670376
881.310000	0.914126
881.515000	-1.095690
881.720000	-0.335600
881.925000	1.656780
882.131000	3.804696
882.336000	1.144007
882.541000	-3.677146
882.746000	-3.382124
882.952000	-3.565869
883.157000	-3.950934
883.362000	-3.894194
883.567000	-4.099713
883.772000	-3.914974
883.978000	-2.963343
884.183000	-2.011988
884.388000	-1.847977
884.593000	-3.824943
884.799000	0.448240
885.004000	0.227285
885.209000	-1.039465
885.414000	-0.712183
885.620000	-4.369220
885.825000	-2.265989
886.030000	-1.901020
886.235000	-3.264775
886.440000	-2.527162
886.646000	-5.004390
886.851000	-5.029559
887.056000	-0.605481
887.261000	-1.380255
887.467000	-4.664645
887.672000	-1.327252
887.877000	-1.539256
888.082000	-4.914762
888.288000	-5.102290
888.493000	-7.124923
888.698000	-6.095193
888.903000	-3.437350
889.109000	-4.885481
889.314000	-1.664088
889.519000	-2.659325
889.724000	-0.207518
889.929000	-1.211937
890.135000	-2.534553
890.340000	-2.658405
890.545000	-3.461344
890.750000	-4.520195
890.956000	-3.304751
891.161000	-1.158502
891.366000	-4.013411
891.571000	-2.364296
891.777000	-2.260538
891.982000	-0.993816
892.187000	-0.855494
892.392000	0.142243
892.598000	0.035764
892.803000	-0.938078
893.008000	-3.460242
893.213000	-3.738694
893.418000	-3.765046
893.624000	-4.075007
893.829000	-5.933157
894.034000	-2.516936
894.239000	-0.916419
894.445000	-3.803475
894.650000	-3.712378
894.855000	-4.085028
895.060000	-4.519098
895.266000	-4.547974
895.471000	-5.512586
895.676000	-1.930572
895.881000	-0.898703
896.087000	-2.659178
896.292000	-3.505807
896.497000	0.000000
896.702000	-1.924236
896.907000	-3.778834
897.113000	0.455135
897.318000	-0.189544
897.523000	0.076017
897.728000	-2.480075
897.934000	-3.118627
898.139000	-2.440762
898.344000	-0.538934
898.549000	-2.245443
898.755000	-3.760628
898.960000	-4.212946
899.165000	-5.034392
899.370000	-1.293307
899.575000	1.925266
899.781000	-3.388632
899.986000	-4.255712
900.191000	-1.744884
900.396000	-2.660067
900.602000	-2.636095
900.807000	-3.660303
901.012000	-3.238807
901.217000	-1.501667
901.423000	-3.114377
901.628000	-5.072733
901.833000	-1.223520
902.038000	-0.986424
902.244000	-3.934867
902.449000	-3.545741
902.654000	-2.916487
902.859000	-1.621096
903.064000	-0.710019
903.270000	-0.251496
903.475000	-4.362607
903.680000	-6.746760
903.885000	-6.166951
904.091000	-5.222179
904.296000	-6.393827
904.501000	-5.606100
904.706000	-4.379101
904.912000	-0.043396
905.117000	-1.525219
905.322000	-4.832459
905.527000	-4.416499
905.733000	-3.194220
905.938000	-2.597786
906.143000	-4.144022
906.348000	-6.466294
906.553000	-1.796601
906.759000	-0.942626
906.964000	-1.804390
907.169000	-3.447653
907.374000	-6.427275
907.580000	-4.004312
907.785000	-3.054987
907.990000	24.494059
908.195000	16.581931
908.401000	-0.842157
908.606000	-8.608978
908.811000	-9.540359
909.016000	-2.393665
909.221000	-3.201659
909.427000	-3.267239
909.632000	-4.490103
909.837000	-4.665693
910.042000	-6.994693
910.248000	-8.289869
910.453000	-4.286673
910.658000	-5.693690
910.863000	-5.148399
911.069000	-5.806904
911.274000	-1.437600
911.479000	-0.399020
911.684000	-6.627833
911.890000	-4.768502
912.095000	-4.824638
912.300000	-8.149019
912.506000	-6.634059
912.711000	-5.691273
912.917000	-2.668562
913.123000	-2.208667
913.328000	-3.204267
913.534000	-3.337971
913.740000	5.462251
913.946000	1.847454
914.151000	-5.243923
914.357000	-5.955134
914.563000	-1.479262
914.768000	-4.951845
914.974000	-7.264237
915.180000	-5.976583
915.385000	-3.873069
915.591000	-7.704850
915.797000	-3.865044
916.002000	0.055580
916.208000	-3.043162
916.414000	-5.481912
916.620000	-5.717866
916.825000	-3.598919
917.031000	-4.445800
917.237000	-10.452060
917.442000	-6.396060
917.648000	-7.482263
917.854000	-9.432930
918.059000	-1.563662
918.265000	0.000000
918.471000	-3.894964
918.676000	-8.284418
918.882000	-9.876798
919.088000	-6.517586
919.294000	-11.702640
919.499000	-8.537058
919.705000	-2.901478
919.911000	-3.626689
920.116000	-1.282047
920.322000	-7.418423
920.528000	-5.239171
920.733000	-7.374729
920.939000	-10.354647
921.145000	-8.452799
921.350000	-6.468453
921.556000	-5.818339
921.762000	-5.038405
921.968000	-5.308620
922.173000	-6.631947
922.379000	-9.290419
922.585000	-4.710589
922.790000	-5.767589
922.996000	-8.058254
923.202000	-9.693182
923.407000	-9.417518
923.613000	-6.870561
923.819000	-4.260336
924.024000	-4.637286
924.230000	-2.231826
924.436000	-4.559949
924.642000	4.616666
924.847000	2.018992
925.053000	-5.355163
925.259000	-10.585627
925.464000	-4.275908
925.670000	-5.953406
925.876000	-9.703783
926.081000	-9.399764
926.287000	-3.568201
926.493000	-2.323929
926.698000	-4.291891
926.904000	-4.120975
927.110000	-5.382122
927.316000	-5.623939
927.521000	0.000000
927.727000	-4.867981
927.933000	-6.468651
928.138000	-5.892590
928.344000	-11.463448
928.550000	-6.811701
928.755000	-1.935372
928.961000	-7.417084
929.167000	-9.094678
929.372000	-0.936489
929.578000	-2.047740
929.784000	-7.060879
929.990000	-9.564090
930.195000	-6.472845
930.401000	-5.796463
930.607000	-3.873624
930.812000	-3.504037
931.018000	-7.364446
931.224000	-14.014052
931.429000	-10.078946
931.635000	-12.883117
931.841000	-13.344881
932.046000	-9.597387
932.252000	-4.486285
932.458000	1.964475
932.664000	-1.727468
932.869000	-6.830633
933.075000	-9.053464
933.281000	-9.358898
933.486000	-3.220437
933.692000	-4.133551
933.898000	-9.991273
934.103000	-3.171765
934.309000	-7.124487
934.515000	-4.232111
934.720000	-1.698661
934.926000	0.190323
935.132000	-1.523810
935.338000	-4.139610
935.543000	-11.132227
935.749000	-14.193654
935.955000	-15.546228
936.160000	-12.220467
936.366000	-3.528469
936.572000	-3.906405
936.777000	-1.049042
936.983000	2.733914
937.189000	-2.331452
937.394000	-9.881476
937.600000	-3.129274
937.806000	3.369451
938.012000	-5.520412
938.217000	4.894146
938.423000	1.120240
938.629000	-8.515059
938.834000	-15.797958
939.040000	-16.831615
939.246000	-9.658633
939.451000	-10.828295
939.657000	-7.290234
939.863000	-9.897494
940.068000	-4.454941
940.274000	-10.789212
940.480000	-6.510511
940.686000	-3.752511
940.891000	-5.457393
941.097000	20.680257
941.303000	6.074764
941.508000	-8.910856
941.714000	-6.271524
941.920000	-18.412794
942.125000	-7.558960
942.331000	-4.320812
942.537000	0.130835
942.742000	-1.057311
942.948000	-12.689566
943.154000	-13.202182
943.360000	-22.396355
943.565000	-8.628329
943.771000	1.224902
943.977000	2.433064
944.182000	-16.732401
944.388000	-17.211608
944.594000	-2.609399
944.799000	4.439359
945.005000	-1.500478
945.211000	2.462613
945.416000	-2.222762
945.622000	-14.623901
945.828000	-13.937016
946.034000	-2.861593
946.239000	-3.309203
946.445000	-9.066137
946.651000	-18.047070
946.856000	-14.417948
947.062000	0.141855
947.268000	-0.142849
947.473000	-16.781291
947.679000	-21.356862
947.885000	-6.513800
948.090000	-2.767163
948.296000	12.292604
948.502000	1.167768
948.708000	-11.337900
948.913000	-14.750444
949.119000	-2.531975
949.325000	-5.365232
949.530000	-17.299301
949.736000	-22.144148
949.942000	-16.432055
950.147000	-16.402534
950.353000	-12.271386
950.559000	-8.876655
950.764000	8.063540
950.970000	3.006859
951.176000	-10.341950
951.382000	-15.346506
951.587000	-5.472591
951.793000	0.000000
951.999000	2.792801
952.204000	-10.967067
952.410000	-23.912550
952.616000	-13.249803
952.821000	-9.304042
953.027000	-15.689024
953.233000	-18.026674
953.438000	-17.838013
953.644000	-0.955205
953.850000	-7.328131
954.056000	-12.718435
954.261000	-10.529568
954.467000	-1.623729
954.673000	3.240664
954.878000	-6.178420
955.084000	-5.046517
955.290000	-21.575035
955.495000	-25.572296
955.701000	-19.455005
955.907000	1.997785
956.112000	-0.832496
956.318000	5.445614
956.524000	6.009108
956.730000	-10.172708
956.935000	-14.624991
957.141000	-17.228065
957.347000	-3.770568
957.552000	-8.902935
957.758000	-28.611756
957.964000	-33.575285
958.169000	1.912982
958.375000	4.186708
958.581000	-10.868493
958.786000	-23.771744
958.992000	-30.586061
959.198000	-12.186414
959.404000	-3.571516
959.609000	-13.787957
959.815000	-17.665644
960.021000	-0.181844
960.226000	-3.302167
960.432000	-29.701818
960.638000	-22.064989
960.843000	-13.016808
961.049000	-14.995803
961.255000	-3.198331
961.460000	-12.316955
961.666000	-33.041200
961.872000	-20.073367
962.078000	-16.972279
962.283000	-26.588845
962.489000	-25.414573
962.695000	-13.742164
962.900000	-14.997396
963.106000	-13.387756
963.312000	-15.954953
963.517000	-18.675848
963.723000	-27.431403
963.929000	-6.471483
964.134000	6.862493
964.340000	-18.776811
964.546000	-20.486806
964.752000	-19.872608
964.957000	-30.483432
965.163000	-6.523970
965.369000	-8.315309
965.574000	-10.555375
965.780000	-15.738479
966.000000	-26.108323
966.220000	-21.489133
966.440000	-15.711158
966.661000	-4.171074
966.881000	-18.717420
967.101000	-38.356758
967.321000	-39.703551
967.541000	-15.393900
967.761000	-21.439862
967.981000	-15.110398
968.202000	-12.235025
968.422000	-3.013095
968.642000	-4.621271
968.862000	-8.492138
969.082000	-15.920821
969.302000	-6.379374
969.522000	-10.128668
969.743000	-2.348367
969.963000	-21.601319
970.183000	-29.867910
970.403000	-25.633043
970.623000	-20.007140
970.843000	1.487748
971.063000	0.755354
971.284000	-23.304928
971.504000	-36.891975
971.724000	-16.726099
971.944000	-28.622308
972.164000	-34.576220
972.384000	-26.413254
972.604000	-40.974796
972.825000	-42.739904
973.045000	-32.486238
973.265000	17.102261
973.485000	7.892923
973.705000	-3.831740
973.925000	-10.835610
974.145000	-48.805015
974.365000	-12.805082
974.586000	-9.159201
974.806000	-33.542315
975.026000	-10.632654
975.246000	-20.183013
975.466000	-30.502913
975.686000	-16.302663
975.906000	-20.899525
976.127000	-44.671460
976.347000	-44.771587
976.567000	-17.329555
976.787000	-14.685673
977.007000	-26.633798
977.227000	-30.205050
977.447000	-33.051178
977.668000	-53.794093
977.888000	-37.934133
978.108000	-37.762029
978.328000	-18.070925
978.548000	9.852995
978.768000	6.475263
978.988000	-3.382337
979.209000	-15.488100
979.429000	-20.318119
979.649000	-12.910661
979.869000	-33.738570
980.089000	-45.119343
980.309000	-47.358792
980.529000	-56.949943
980.750000	-36.426474
980.970000	-43.405836
981.190000	-36.956746
981.410000	-42.504727
981.630000	-47.701662
981.850000	-28.342288
982.070000	-20.194026
982.291000	-49.276750
982.511000	-49.214000
982.731000	-13.562913
982.951000	-24.931124
983.171000	-29.567156
983.391000	-30.651792
983.611000	1.179467
983.832000	-30.529665
984.052000	-54.569975
984.272000	-30.185193
984.492000	-32.622099
984.712000	-47.152875
984.932000	-62.595095
985.152000	-61.826549
985.373000	-38.074974
985.593000	-22.509824
985.813000	-41.411069
986.033000	-44.787860
986.253000	-0.895721
986.473000	4.684571
986.693000	-20.170966
986.914000	-36.715148
987.134000	6.424759
987.354000	-30.346566
987.574000	175.156667
987.794000	101.878237
988.014000	-48.378502
988.234000	-36.321564
988.455000	-26.770568
988.675000	-26.904588
988.895000	-30.421101
989.115000	-41.756602
989.335000	-33.498465
989.555000	-3.039835
989.775000	-36.721949
989.995000	-37.601301
990.216000	-24.991017
990.436000	-30.098937
990.656000	-8.232905
990.876000	-46.185582
991.096000	-24.648290
991.316000	10.310177
991.536000	-7.993674
991.757000	-21.289020
991.977000	-70.024055
992.197000	-14.494488
992.417000	-39.228498
992.637000	-85.179621
992.857000	-95.169939
993.077000	-89.887303
993.298000	-38.260629
993.518000	-33.282758
993.738000	-92.192079
993.958000	-60.774736
994.178000	-53.267495
994.398000	-44.438145
994.618000	-88.369695
994.839000	-127.621358
995.059000	-25.805072
995.279000	31.672131
995.499000	-25.651995
995.719000	-22.711227
995.939000	-32.800756
996.159000	-26.450949
996.380000	-22.864330
996.600000	-81.937191
996.820000	-42.976976
997.040000	-9.471871
997.260000	-71.864469
997.480000	-51.574574
997.700000	-113.455670
997.921000	-66.350804
998.141000	36.027158
998.361000	-4.455251
998.581000	-54.523869
998.801000	-94.013935
999.021000	-73.867162
999.241000	-50.756179
999.462000	-73.898463
999.682000	-123.911361
999.902000	-78.206230
1000.122000	-84.577602
1000.342000	-139.210548
1000.562000	-70.479688
1000.782000	-83.609143
1001.003000	-1006.678710
