Wavelength	Irradiance
(nm)	(mW/cm2/nm)

294.396000	0.000000
294.577000	0.000000
294.757000	-0.000000
294.938000	-0.000000
295.118000	0.000000
295.299000	0.000000
295.479000	-0.000000
295.660000	-0.000000
295.840000	-0.000000
296.021000	-0.000000
296.202000	-0.000000
296.382000	-0.000000
296.563000	-0.000000
296.743000	-0.000000
296.924000	0.000000
297.104000	-0.000000
297.285000	-0.000000
297.465000	-0.000000
297.646000	-0.000000
297.826000	-0.000000
298.007000	0.000000
298.187000	0.000000
298.368000	-0.000000
298.548000	0.000000
298.729000	0.000000
298.909000	-0.000000
299.090000	-0.000000
299.270000	-0.000000
299.451000	-0.000000
299.631000	-0.000000
299.812000	-0.000000
299.992000	0.000000
300.173000	0.000000
300.353000	-0.000000
300.534000	0.000000
300.714000	0.000000
300.895000	0.000000
301.075000	-0.000000
301.256000	0.000000
301.436000	-0.000000
301.617000	-0.000000
301.797000	-0.000000
301.978000	-0.000000
302.159000	0.000000
302.339000	0.000000
302.520000	-0.000000
302.700000	-0.000000
302.881000	0.000000
303.061000	0.000000
303.242000	0.000000
303.422000	0.000000
303.603000	-0.000000
303.783000	-0.000000
303.964000	-0.000000
304.144000	-0.000000
304.325000	-0.000000
304.505000	0.000000
304.686000	-0.000000
304.866000	0.000000
305.047000	-0.000000
305.227000	-0.000000
305.408000	-0.000000
305.588000	-0.000000
305.769000	-0.000000
305.949000	-0.000000
306.130000	-0.000000
306.310000	-0.000000
306.491000	-0.000000
306.671000	0.000000
306.852000	-0.000000
307.032000	-0.000000
307.213000	-0.000000
307.393000	-0.000000
307.574000	0.000000
307.755000	0.000000
307.935000	0.000000
308.116000	-0.000000
308.296000	-0.000000
308.477000	0.000000
308.657000	0.000000
308.838000	0.000000
309.018000	0.000000
309.199000	-0.000000
309.379000	-0.000000
309.560000	0.000000
309.740000	-0.000000
309.921000	0.000000
310.101000	-0.000000
310.282000	-0.000000
310.462000	-0.000000
310.643000	-0.000000
310.823000	-0.000000
311.004000	-0.000000
311.184000	-0.000000
311.365000	0.000000
311.545000	0.000000
311.726000	0.000000
311.906000	-0.000000
312.087000	0.000000
312.267000	-0.000000
312.448000	-0.000000
312.628000	-0.000000
312.809000	-0.000000
312.989000	-0.000000
313.170000	-0.000000
313.344000	-0.000000
313.518000	-0.000000
313.691000	-0.000000
313.865000	-0.000000
314.039000	-0.000000
314.213000	-0.000000
314.387000	-0.000000
314.560000	-0.000000
314.734000	-0.000000
314.908000	-0.000000
315.082000	-0.000000
315.255000	0.000000
315.429000	0.000000
315.603000	0.000000
315.777000	-0.000000
315.951000	0.000000
316.124000	-0.000000
316.298000	-0.000000
316.472000	-0.000000
316.646000	-0.000000
316.820000	-0.000000
316.993000	0.000000
317.167000	-0.000000
317.341000	-0.000000
317.515000	-0.000000
317.688000	-0.000000
317.862000	-0.000000
318.036000	-0.000000
318.210000	-0.000000
318.384000	-0.000000
318.557000	-0.000000
318.731000	-0.000000
318.905000	0.000000
319.079000	0.000000
319.253000	-0.000000
319.426000	0.000000
319.600000	0.000000
319.774000	-0.000000
319.948000	-0.000000
320.122000	0.000000
320.295000	0.000000
320.469000	-0.000000
320.643000	-0.000000
320.817000	-0.000000
320.990000	-0.000000
321.164000	-0.000000
321.338000	-0.000000
321.512000	-0.000000
321.686000	-0.000000
321.859000	-0.000000
322.033000	0.000000
322.207000	-0.000000
322.381000	-0.000000
322.555000	0.000000
322.728000	-0.000000
322.902000	-0.000000
323.076000	-0.000000
323.250000	-0.000000
323.423000	-0.000000
323.597000	-0.000000
323.771000	-0.000000
323.945000	-0.000000
324.119000	-0.000000
324.292000	0.000000
324.466000	-0.000000
324.640000	0.000000
324.814000	0.000000
324.988000	-0.000000
325.161000	-0.000000
325.335000	-0.000000
325.509000	-0.000000
325.683000	-0.000000
325.856000	-0.000000
326.030000	-0.000000
326.204000	-0.000000
326.378000	-0.000000
326.552000	-0.000000
326.725000	-0.000000
326.899000	-0.000000
327.073000	-0.000000
327.247000	-0.000000
327.421000	0.000000
327.594000	-0.000000
327.768000	-0.000000
327.942000	-0.000000
328.116000	0.000000
328.289000	0.000000
328.463000	0.000000
328.637000	0.000000
328.811000	-0.000000
328.985000	-0.000000
329.158000	-0.000000
329.332000	-0.000000
329.506000	0.000000
329.680000	-0.000000
329.854000	-0.000000
330.027000	-0.000000
330.201000	0.000000
330.375000	0.000000
330.549000	0.000000
330.723000	-0.000000
330.896000	-0.000000
331.070000	-0.000000
331.244000	-0.000000
331.418000	-0.000000
331.591000	-0.000000
331.765000	-0.000000
331.939000	-0.000000
332.113000	-0.000000
332.287000	-0.000000
332.460000	0.000000
332.634000	0.000000
332.808000	-0.000000
332.982000	-0.000000
333.156000	-0.000000
333.329000	-0.000000
333.503000	-0.000000
333.677000	-0.000000
333.851000	-0.000000
334.024000	-0.000000
334.198000	-0.000000
334.372000	-0.000000
334.546000	-0.000000
334.720000	-0.000000
334.893000	-0.000000
335.067000	-0.000000
335.241000	-0.000000
335.415000	-0.000000
335.589000	-0.000000
335.762000	-0.000000
335.936000	-0.000000
336.110000	-0.000000
336.284000	-0.000000
336.458000	-0.000000
336.631000	-0.000000
336.805000	-0.000000
336.979000	-0.000000
337.153000	-0.000000
337.326000	-0.000000
337.500000	-0.000000
337.674000	-0.000000
337.848000	-0.000000
338.022000	-0.000000
338.195000	-0.000000
338.369000	-0.000000
338.543000	-0.000000
338.717000	-0.000000
338.891000	0.000000
339.064000	0.000000
339.238000	-0.000000
339.412000	-0.000000
339.586000	-0.000000
339.759000	-0.000000
339.933000	-0.000000
340.107000	0.000000
340.281000	-0.000000
340.455000	-0.000000
340.628000	-0.000000
340.802000	-0.000000
340.976000	-0.000000
341.150000	-0.000000
341.324000	-0.000000
341.497000	-0.000000
341.671000	-0.000000
341.845000	-0.000000
342.019000	-0.000000
342.192000	-0.000000
342.366000	-0.000000
342.540000	-0.000000
342.714000	-0.000000
342.888000	-0.000000
343.061000	0.000000
343.235000	0.000000
343.409000	-0.000000
343.583000	-0.000000
343.757000	-0.000000
343.930000	-0.000000
344.104000	-0.000000
344.278000	0.000000
344.452000	0.000000
344.626000	-0.000000
344.799000	-0.000000
344.973000	-0.000000
345.147000	-0.000000
345.321000	-0.000000
345.494000	-0.000000
345.668000	0.000000
345.842000	0.000000
346.016000	-0.000000
346.190000	0.000000
346.363000	0.000000
346.537000	-0.000000
346.711000	-0.000000
346.885000	-0.000000
347.059000	-0.000000
347.232000	0.000000
347.406000	0.000000
347.580000	-0.000000
347.754000	-0.000000
347.927000	-0.000000
348.101000	0.000000
348.275000	-0.000000
348.449000	-0.000000
348.623000	-0.000000
348.796000	0.000000
348.970000	0.000000
349.144000	-0.000000
349.318000	-0.000000
349.492000	-0.000000
349.665000	-0.000000
349.839000	-0.000000
350.013000	-0.000000
350.187000	-0.000000
350.361000	-0.000000
350.534000	-0.000000
350.708000	-0.000000
350.882000	-0.000000
351.056000	0.000000
351.229000	-0.000000
351.403000	-0.000000
351.577000	-0.000000
351.751000	-0.000000
351.925000	-0.000000
352.098000	-0.000000
352.272000	-0.000000
352.446000	-0.000000
352.620000	-0.000000
352.794000	-0.000000
352.967000	-0.000000
353.141000	0.000000
353.315000	0.000000
353.489000	-0.000000
353.662000	-0.000000
353.836000	-0.000000
354.010000	-0.000000
354.184000	-0.000000
354.358000	-0.000000
354.531000	-0.000000
354.705000	-0.000000
354.879000	-0.000000
355.053000	-0.000000
355.227000	0.000000
355.400000	-0.000000
355.574000	0.000000
355.748000	0.000000
355.922000	-0.000000
356.095000	-0.000000
356.269000	-0.000000
356.443000	-0.000000
356.617000	-0.000000
356.791000	-0.000000
356.964000	-0.000000
357.138000	-0.000000
357.312000	-0.000000
357.486000	-0.000000
357.660000	-0.000000
357.833000	-0.000000
358.007000	-0.000000
358.181000	-0.000000
358.355000	-0.000000
358.529000	-0.000000
358.702000	-0.000000
358.876000	-0.000000
359.050000	-0.000000
359.224000	-0.000000
359.397000	-0.000000
359.571000	-0.000000
359.745000	-0.000000
359.919000	-0.000000
360.093000	-0.055573
360.266000	0.038313
360.440000	0.120161
360.614000	0.150534
360.788000	0.032839
360.962000	-0.189009
361.135000	-0.054248
361.309000	-0.188442
361.483000	-0.331958
361.657000	-0.251260
361.830000	-0.232158
362.004000	-0.030275
362.178000	-0.362194
362.352000	-0.233002
362.526000	-0.076713
362.699000	-0.055475
362.873000	-0.387231
363.047000	-0.375296
363.221000	-0.283001
363.395000	-0.165077
363.568000	-0.203676
363.742000	-0.226427
363.916000	-0.194762
364.090000	-0.276441
364.263000	-0.282567
364.437000	-0.382616
364.611000	-0.085230
364.785000	-0.069475
364.959000	-0.226358
365.132000	-0.229987
365.306000	-0.273846
365.480000	-0.139889
365.656000	-0.214710
365.831000	-0.166378
366.007000	-0.177127
366.183000	-0.166133
366.358000	-0.269502
366.534000	-0.175447
366.710000	-0.352652
366.886000	-0.267254
367.061000	-0.137278
367.237000	0.010841
367.413000	-0.148134
367.588000	-0.339617
367.764000	-0.305404
367.940000	-0.301801
368.115000	-0.256137
368.291000	-0.299792
368.467000	-0.160435
368.643000	0.138704
368.818000	-0.239065
368.994000	-0.378601
369.170000	-0.281179
369.345000	-0.228698
369.521000	-0.232765
369.697000	-0.104971
369.872000	-0.242786
370.048000	-0.365425
370.224000	-0.298591
370.399000	-0.486357
370.575000	-0.390050
370.751000	-0.486371
370.927000	-0.465581
371.102000	-0.434479
371.278000	-0.350510
371.454000	-0.250289
371.629000	0.039815
371.805000	-0.059664
371.981000	0.085425
372.156000	0.231643
372.332000	0.031137
372.508000	-0.035338
372.683000	-0.051279
372.859000	-0.124839
373.035000	-0.148785
373.211000	0.205382
373.386000	0.019749
373.562000	-0.345153
373.738000	-0.468715
373.913000	-0.671700
374.089000	-0.460880
374.265000	-0.037776
374.440000	-0.009114
374.616000	0.030175
374.792000	-0.209913
374.968000	0.160280
375.143000	-0.089998
375.319000	-0.304813
375.495000	-0.383742
375.670000	-0.243181
375.846000	-0.110813
376.022000	-0.291045
376.197000	-0.235573
376.373000	-0.400276
376.549000	-0.396902
376.724000	-0.494595
376.900000	-0.358226
377.076000	-0.207165
377.252000	0.067956
377.427000	0.179067
377.603000	-0.186871
377.779000	-0.204954
377.954000	-0.369379
378.130000	-0.222989
378.306000	-0.185444
378.481000	-0.194569
378.657000	-0.258497
378.833000	-0.305197
379.009000	-0.164105
379.184000	-0.040444
379.360000	-0.101010
379.536000	-0.117700
379.711000	-0.208289
379.887000	-0.280650
380.063000	-0.293381
380.238000	-0.317198
380.414000	-0.083370
380.590000	-0.326389
380.765000	-0.325379
380.941000	-0.100594
381.117000	-0.090230
381.293000	-0.179262
381.468000	-0.317311
381.644000	-0.220797
381.820000	-0.131347
381.995000	-0.004723
382.171000	0.187039
382.347000	0.167065
382.522000	-0.259991
382.698000	0.069555
382.874000	0.096763
383.050000	-0.305176
383.225000	0.065878
383.401000	0.262803
383.577000	-0.097865
383.752000	-0.241690
383.928000	-0.200439
384.104000	-0.122005
384.279000	-0.219547
384.455000	-0.120586
384.631000	-0.165274
384.806000	-0.415031
384.982000	-0.194531
385.158000	-0.248976
385.334000	-0.089292
385.509000	-0.157298
385.685000	-0.426720
385.861000	-0.208866
386.036000	-0.341507
386.212000	-0.531345
386.388000	-0.357825
386.563000	-0.328405
386.739000	-0.376413
386.915000	-0.583669
387.090000	-0.304777
387.266000	-0.068744
387.442000	0.043846
387.618000	-0.089309
387.793000	-0.385156
387.969000	-0.516901
388.145000	-0.405138
388.320000	-0.351061
388.496000	-0.353692
388.672000	-0.575390
388.847000	-0.104203
389.023000	-0.104874
389.199000	-0.430988
389.375000	-0.237637
389.550000	-0.330624
389.726000	-0.169912
389.902000	-0.406981
390.077000	-0.201826
390.253000	-0.138405
390.429000	-0.256513
390.604000	-0.138253
390.780000	-0.145166
390.956000	-0.294876
391.131000	-0.360175
391.307000	-0.002636
391.483000	-0.156992
391.659000	-0.336920
391.834000	-0.122982
392.010000	-0.254269
392.186000	-0.310931
392.361000	-0.247549
392.537000	-0.422419
392.713000	0.045562
392.888000	0.270069
393.064000	-0.030529
393.240000	-0.212419
393.416000	-0.325528
393.591000	-0.400369
393.767000	-0.468767
393.943000	-0.350569
394.118000	-0.055662
394.294000	0.140162
394.470000	-0.020806
394.645000	0.046574
394.821000	0.255445
394.997000	-0.104378
395.172000	-0.167137
395.348000	-0.265336
395.524000	-0.499641
395.700000	-0.362009
395.875000	-0.138977
396.051000	-0.174660
396.227000	-0.235580
396.402000	-0.247727
396.578000	-0.143837
396.754000	-0.321426
396.929000	-0.269767
397.105000	-0.009671
397.281000	-0.134997
397.457000	-0.275635
397.632000	-0.230338
397.808000	-0.461121
397.984000	-0.590828
398.159000	-0.498997
398.335000	-0.289399
398.511000	0.186055
398.686000	-0.077116
398.862000	-0.318381
399.038000	-0.451345
399.213000	-0.186416
399.389000	-0.450738
399.565000	-0.215408
399.741000	0.050276
399.916000	0.009939
400.092000	0.232434
400.268000	-0.116312
400.443000	-0.293182
400.619000	0.066524
400.795000	-0.027347
400.970000	-0.244266
401.146000	-0.306791
401.322000	0.031170
401.497000	0.459417
401.673000	0.097124
401.849000	-0.225872
402.025000	-0.058966
402.200000	-0.199655
402.376000	-0.266442
402.552000	0.133595
402.727000	-0.042916
402.903000	-0.386837
403.079000	-0.309819
403.254000	-0.007735
403.430000	0.009778
403.606000	-0.089899
403.782000	-0.210316
403.957000	-0.387843
404.133000	-0.485441
404.309000	-0.300938
404.484000	-0.089924
404.660000	-0.107719
404.841000	-0.197313
405.023000	0.023744
405.204000	-0.072492
405.385000	-0.433427
405.566000	-0.399957
405.748000	-0.211265
405.929000	0.015293
406.110000	-0.025310
406.292000	-0.188629
406.473000	-0.154207
406.654000	-0.318953
406.835000	-0.123360
407.017000	-0.175264
407.198000	-0.154321
407.379000	-0.171110
407.560000	-0.182006
407.742000	-0.225183
407.923000	-0.158188
408.104000	-0.288053
408.286000	-0.162332
408.467000	-0.113386
408.648000	-0.338077
408.829000	-0.395809
409.011000	-0.262698
409.192000	-0.439654
409.373000	-0.202483
409.555000	-0.072030
409.736000	-0.081916
409.917000	-0.186297
410.098000	-0.212634
410.280000	-0.099902
410.461000	-0.087771
410.642000	-0.077669
410.823000	0.172040
411.005000	0.096917
411.186000	-0.148043
411.367000	-0.228773
411.549000	-0.235463
411.730000	0.001028
411.911000	0.100226
412.092000	-0.092765
412.274000	-0.142837
412.455000	-0.085473
412.636000	-0.063484
412.818000	-0.245826
412.999000	-0.344919
413.180000	-0.255775
413.361000	-0.217726
413.543000	-0.272222
413.724000	-0.338817
413.905000	-0.305181
414.087000	-0.346280
414.268000	-0.342485
414.449000	-0.328091
414.630000	-0.399801
414.812000	-0.519490
414.993000	-0.140040
415.174000	0.002656
415.355000	-0.162686
415.537000	-0.366502
415.718000	-0.095548
415.899000	-0.211439
416.081000	-0.311391
416.262000	-0.102924
416.443000	-0.240870
416.624000	-0.158239
416.806000	-0.031906
416.987000	0.047262
417.168000	-0.017083
417.350000	-0.212506
417.531000	-0.258568
417.712000	-0.222638
417.893000	-0.036549
418.075000	0.044865
418.256000	-0.166937
418.437000	-0.035028
418.618000	0.066215
418.800000	0.129617
418.981000	-0.083282
419.162000	-0.053769
419.344000	0.143567
419.525000	0.036819
419.706000	-0.075677
419.887000	0.119798
420.069000	0.254628
420.250000	0.127768
420.431000	0.064215
420.613000	0.028675
420.794000	-0.194904
420.975000	0.141517
421.156000	-0.033020
421.338000	-0.063721
421.519000	-0.045922
421.700000	-0.104441
421.882000	-0.088208
422.063000	0.120665
422.244000	0.599632
422.425000	0.333754
422.607000	-0.034933
422.788000	-0.044519
422.969000	-0.070028
423.150000	-0.113726
423.332000	-0.189105
423.513000	0.065606
423.694000	0.103312
423.876000	0.156441
424.057000	0.209917
424.238000	0.285492
424.419000	0.310781
424.601000	0.159121
424.782000	0.198049
424.963000	0.370845
425.145000	0.289259
425.326000	0.317044
425.507000	0.358444
425.688000	0.272870
425.870000	0.137466
426.051000	0.030016
426.232000	0.134901
426.413000	0.143810
426.595000	0.110764
426.776000	0.107485
426.957000	0.174404
427.139000	0.288261
427.320000	0.356002
427.501000	0.468057
427.682000	0.436618
427.864000	0.470362
428.045000	0.671401
428.226000	0.590718
428.408000	0.267898
428.589000	0.456375
428.770000	0.486062
428.951000	0.375470
429.133000	0.227893
429.314000	0.426861
429.495000	0.489516
429.677000	0.526615
429.858000	0.461207
430.039000	0.529416
430.220000	0.692261
430.402000	0.813786
430.583000	0.554849
430.764000	0.586318
430.945000	0.785102
431.127000	0.865649
431.308000	0.686992
431.489000	0.896790
431.671000	0.966204
431.852000	0.873738
432.033000	0.840385
432.214000	0.962736
432.396000	1.048984
432.577000	0.906697
432.758000	0.795983
432.940000	0.857203
433.121000	1.010510
433.302000	1.064209
433.483000	1.234479
433.665000	1.390209
433.846000	1.299758
434.027000	1.167425
434.208000	1.142346
434.390000	1.151287
434.571000	1.604223
434.752000	2.099394
434.934000	1.876246
435.115000	1.854410
435.296000	2.020698
435.477000	1.885696
435.659000	1.616584
435.840000	1.731110
436.026000	1.738298
436.211000	1.625716
436.397000	1.369948
436.582000	1.541527
436.768000	1.857001
436.953000	1.823920
437.139000	1.861117
437.325000	2.171735
437.510000	2.121336
437.696000	2.324622
437.881000	2.393501
438.067000	2.089758
438.252000	2.154484
438.438000	2.202555
438.624000	2.265778
438.809000	2.413692
438.995000	2.561871
439.180000	2.498823
439.366000	2.467931
439.551000	2.530056
439.737000	2.711895
439.923000	2.801614
440.108000	2.756381
440.294000	2.876648
440.479000	3.035962
440.665000	3.181726
440.850000	3.137844
441.036000	3.225282
441.222000	3.272649
441.407000	3.201587
441.593000	3.405984
441.778000	3.627423
441.964000	3.823635
442.149000	3.514354
442.335000	3.528470
442.521000	3.748234
442.706000	4.029089
442.892000	4.000326
443.077000	3.982072
443.263000	4.214834
443.448000	4.224392
443.634000	4.274484
443.820000	4.638730
444.005000	4.621540
444.191000	4.501899
444.376000	4.566957
444.562000	5.002665
444.747000	5.089522
444.933000	5.022881
445.119000	5.037535
445.304000	5.061828
445.490000	5.314969
445.675000	5.421874
445.861000	5.377262
446.046000	5.531061
446.232000	5.741996
446.418000	5.879747
446.603000	5.944859
446.789000	6.037685
446.974000	6.189106
447.160000	6.094203
447.345000	6.285950
447.531000	6.348482
447.717000	6.747733
447.902000	6.961040
448.088000	7.024847
448.273000	6.999839
448.459000	7.103272
448.644000	7.172151
448.830000	7.255916
449.016000	7.330386
449.201000	7.518240
449.387000	7.742149
449.572000	7.958602
449.758000	7.950634
449.943000	7.982786
450.129000	8.126308
450.315000	8.244704
450.500000	8.370493
450.686000	8.648396
450.871000	8.680213
451.057000	8.955321
451.243000	9.060838
451.428000	9.169708
451.614000	9.316087
451.799000	9.441347
451.985000	9.786806
452.170000	9.945242
452.356000	9.852918
452.542000	9.981650
452.727000	10.175161
452.913000	10.205686
453.098000	10.583748
453.284000	10.940807
453.469000	10.828656
453.655000	11.055525
453.841000	11.010752
454.026000	10.921637
454.212000	11.098450
454.397000	11.154277
454.583000	11.164957
454.768000	11.074050
454.954000	11.401190
455.140000	11.482159
455.325000	11.338244
455.511000	11.409622
455.696000	11.514022
455.882000	11.683558
456.067000	12.033839
456.253000	11.844633
456.439000	11.701753
456.624000	11.676779
456.810000	11.664893
456.995000	11.767079
457.181000	11.707730
457.366000	11.892063
457.552000	11.813892
457.738000	11.883367
457.923000	11.949694
458.109000	12.129303
458.294000	11.916405
458.480000	11.894925
458.665000	11.708594
458.851000	11.575951
459.037000	11.385026
459.222000	11.429572
459.408000	11.334466
459.593000	11.307442
459.779000	11.313293
459.964000	11.364808
460.150000	11.453547
460.336000	11.237688
460.521000	10.825049
460.707000	10.547941
460.892000	10.427149
461.078000	10.589983
461.263000	10.515310
461.449000	10.222774
461.635000	10.158380
461.820000	10.010588
462.006000	9.913563
462.191000	9.748097
462.377000	9.327030
462.562000	9.551703
462.748000	9.643332
462.934000	9.090194
463.119000	8.766023
463.305000	8.777199
463.490000	8.531236
463.676000	8.508343
463.861000	8.353538
464.047000	8.153569
464.233000	8.044218
464.418000	7.856964
464.604000	7.602217
464.789000	7.690001
464.975000	7.581125
465.160000	7.328745
465.346000	7.253929
465.532000	7.078727
465.717000	6.899447
465.903000	6.971582
466.088000	6.818290
466.274000	6.475635
466.459000	6.335260
466.645000	6.579941
466.831000	6.379035
467.016000	6.331224
467.202000	6.167033
467.387000	5.913980
467.573000	5.664089
467.758000	5.840525
467.944000	5.627717
468.130000	5.431886
468.315000	5.508167
468.501000	5.494735
468.686000	5.340499
468.872000	5.245900
469.057000	5.225965
469.243000	5.107059
469.429000	4.974640
469.614000	4.787539
469.800000	4.655673
469.985000	4.721122
470.171000	4.752507
470.356000	4.567229
470.542000	4.588450
470.728000	4.496353
470.913000	4.377264
471.099000	4.474600
471.284000	4.338882
471.470000	4.184784
471.655000	4.175547
471.841000	4.089731
472.027000	3.925930
472.212000	4.090920
472.398000	4.069950
472.583000	3.936541
472.769000	3.908158
472.954000	3.807340
473.140000	3.580341
473.326000	3.501530
473.511000	3.722117
473.697000	3.662766
473.882000	3.495731
474.068000	3.388958
474.253000	3.236930
474.439000	3.303557
474.625000	3.320839
474.810000	3.234774
474.996000	3.208975
475.181000	2.990307
475.367000	3.137944
475.552000	3.344318
475.738000	2.957985
475.924000	2.902018
476.109000	2.981852
476.295000	2.805384
476.480000	2.841462
476.666000	2.756143
476.851000	2.678622
477.037000	2.695102
477.223000	2.555544
477.408000	2.440759
477.594000	2.309575
477.779000	2.388109
477.965000	2.344652
478.151000	2.187940
478.336000	2.345099
478.522000	2.243690
478.707000	2.166081
478.893000	2.241945
479.078000	2.020469
479.264000	1.986433
479.450000	2.027973
479.635000	2.131256
479.821000	2.025072
480.006000	2.074135
480.192000	2.025317
480.377000	1.995125
480.563000	1.928977
480.749000	1.710350
480.934000	1.735667
481.120000	1.842409
481.305000	1.912302
481.491000	1.817773
481.676000	1.805806
481.862000	1.801308
482.048000	1.659799
482.233000	1.673824
482.419000	1.666513
482.604000	1.567011
482.790000	1.511504
482.975000	1.563556
483.161000	1.682052
483.347000	1.653530
483.532000	1.549311
483.718000	1.305150
483.903000	1.345295
484.089000	1.374103
484.274000	1.245157
484.460000	1.383325
484.646000	1.421678
484.831000	1.296799
485.017000	1.344412
485.202000	1.343088
485.388000	1.582756
485.573000	1.560040
485.759000	1.361368
485.945000	1.509042
486.130000	1.328708
486.316000	1.308348
486.501000	1.375912
486.687000	1.206444
486.872000	1.161027
487.058000	1.317343
487.244000	1.325512
487.429000	1.146927
487.615000	1.325575
487.800000	1.401116
487.986000	1.258226
488.171000	1.341666
488.357000	1.250792
488.543000	1.293489
488.728000	1.338752
488.914000	1.263217
489.099000	1.165493
489.285000	1.157394
489.470000	1.367135
489.656000	1.395963
489.842000	1.325569
490.027000	1.393600
490.213000	1.237161
490.398000	0.949653
490.584000	1.223900
490.769000	1.251533
490.955000	1.299753
491.141000	1.323215
491.326000	1.283999
491.512000	1.433606
491.697000	1.333122
491.883000	1.189660
492.068000	1.124341
492.254000	1.196696
492.440000	1.287745
492.625000	1.229263
492.811000	1.184090
492.996000	1.289036
493.182000	1.322699
493.367000	1.134705
493.553000	1.061608
493.739000	1.184150
493.924000	1.313335
494.110000	1.310357
494.295000	1.239327
494.481000	1.338605
494.666000	1.387876
494.852000	1.551570
495.038000	1.394558
495.223000	1.276688
495.409000	1.358165
495.594000	1.353361
495.780000	1.438922
495.965000	1.364109
496.151000	1.565206
496.337000	1.644533
496.522000	1.418905
496.708000	1.489607
496.893000	1.668602
497.079000	1.510281
497.264000	1.466612
497.450000	1.540622
497.636000	1.641200
497.821000	1.514738
498.007000	1.753358
498.192000	1.836973
498.378000	1.697320
498.563000	1.639542
498.749000	1.697261
498.935000	1.762318
499.120000	1.851083
499.306000	1.687181
499.491000	1.650096
499.677000	1.777319
499.862000	1.923931
500.048000	2.003211
500.234000	1.899151
500.419000	1.901448
500.605000	2.104011
500.790000	2.023518
500.976000	1.886559
501.161000	1.865025
501.347000	2.085715
501.533000	2.206270
501.718000	2.131377
501.904000	2.081314
502.089000	2.233338
502.275000	2.297709
502.460000	2.181327
502.646000	2.294750
502.832000	2.394101
503.017000	2.409470
503.203000	2.235863
503.388000	2.247106
503.574000	2.476757
503.759000	2.565124
503.945000	2.622308
504.131000	2.567142
504.316000	2.536260
504.502000	2.578288
504.687000	2.595760
504.873000	2.532475
505.058000	2.580409
505.244000	2.591552
505.430000	2.637695
505.615000	2.781497
505.801000	2.907134
505.986000	2.753078
506.172000	2.841882
506.358000	2.945130
506.543000	2.971842
506.729000	3.209667
506.914000	3.165861
507.100000	3.314357
507.285000	3.123788
507.471000	3.051433
507.657000	3.359782
507.842000	3.255553
508.028000	3.121298
508.213000	3.168346
508.399000	3.279804
508.584000	3.457260
508.770000	3.338013
508.956000	3.273883
509.141000	3.324560
509.327000	3.475816
509.512000	3.491781
509.698000	3.495891
509.883000	3.613081
510.069000	3.595290
510.255000	3.606467
510.440000	3.667274
510.626000	3.630623
510.811000	3.605851
510.997000	3.761470
511.182000	3.982390
511.368000	3.906305
511.554000	3.602358
511.739000	3.720042
511.925000	3.915728
512.110000	3.898847
512.296000	4.020466
512.481000	4.040805
512.667000	3.998272
512.853000	3.806504
513.038000	3.897367
513.224000	3.870606
513.409000	3.736484
513.595000	3.915051
513.780000	3.734570
513.966000	3.871134
514.152000	3.883648
514.337000	3.826232
514.523000	3.854267
514.708000	3.902797
514.894000	3.953442
515.079000	3.856157
515.265000	3.905648
515.451000	3.891563
515.636000	3.824708
515.822000	3.946746
516.007000	3.819197
516.193000	3.948318
516.378000	4.037362
516.564000	3.961408
516.750000	3.892677
516.935000	3.991390
517.121000	4.026898
517.306000	4.106813
517.492000	4.023303
517.677000	3.733047
517.863000	3.701049
518.049000	3.820897
518.234000	3.703042
518.420000	3.844581
518.605000	4.028598
518.791000	3.959998
518.976000	3.824976
519.162000	3.669933
519.348000	3.680414
519.533000	3.636290
519.719000	3.880156
519.904000	3.735167
520.090000	3.639122
520.275000	3.808921
520.461000	3.738695
520.647000	3.507144
520.832000	3.283952
521.018000	3.395723
521.203000	3.389455
521.389000	3.218771
521.574000	3.288706
521.760000	3.367050
521.946000	3.322526
522.131000	3.232844
522.317000	3.222993
522.502000	3.112224
522.688000	3.221820
522.873000	3.148190
523.059000	3.089517
523.245000	3.045257
523.430000	2.941906
523.616000	2.987367
523.801000	2.857160
523.987000	2.883060
524.172000	3.006144
524.358000	2.998873
524.544000	2.931736
524.729000	3.001846
524.915000	3.001717
525.100000	2.840791
525.286000	2.816903
525.471000	2.805263
525.657000	2.819192
525.843000	2.568437
526.028000	2.700443
526.214000	2.590156
526.399000	2.501597
526.585000	2.412197
526.770000	2.376201
526.956000	2.485837
527.142000	2.397753
527.327000	2.529035
527.513000	2.332967
527.698000	2.286032
527.884000	2.340354
528.069000	2.303388
528.255000	2.374738
528.441000	2.269367
528.626000	2.293802
528.812000	2.487673
528.997000	2.296595
529.183000	2.132046
529.368000	2.173304
529.554000	2.151390
529.740000	2.143579
529.925000	2.101148
530.111000	2.102210
530.296000	2.068639
530.482000	2.158668
530.667000	2.073293
530.853000	2.128278
531.039000	2.014335
531.224000	2.036696
531.410000	2.075802
531.595000	1.998201
531.781000	2.067792
531.967000	1.872904
532.152000	1.947348
532.338000	1.842287
532.523000	1.708059
532.709000	1.628302
532.894000	1.693979
533.080000	1.746963
533.266000	1.588100
533.451000	1.533386
533.637000	1.585964
533.822000	1.768814
534.008000	1.610779
534.193000	1.612761
534.379000	1.680005
534.565000	1.568749
534.750000	1.530135
534.936000	1.760273
535.121000	1.573786
535.307000	1.602299
535.492000	1.583130
535.678000	1.366954
535.864000	1.461670
536.049000	1.742395
536.235000	1.542307
536.420000	1.460401
536.606000	1.347485
536.791000	1.222262
536.977000	1.228132
537.163000	1.492579
537.348000	1.454469
537.534000	1.492794
537.719000	1.294521
537.905000	1.142799
538.090000	1.371125
538.276000	1.444067
538.462000	1.402246
538.647000	1.388952
538.833000	1.273274
539.018000	1.386862
539.204000	1.305196
539.389000	1.121012
539.575000	1.407417
539.761000	1.321800
539.946000	1.063809
540.132000	1.183998
540.317000	1.051372
540.503000	1.202080
540.688000	1.232514
540.874000	1.470188
541.060000	1.590444
541.245000	1.389070
541.431000	1.197044
541.616000	1.214232
541.802000	1.193615
541.987000	1.276147
542.173000	1.307494
542.359000	1.217048
542.544000	1.310246
542.730000	1.131024
542.915000	1.072649
543.101000	1.266103
543.286000	1.053510
543.472000	0.902006
543.658000	1.013396
543.843000	1.019064
544.029000	1.211658
544.214000	1.090555
544.400000	0.734551
544.585000	0.897591
544.771000	0.966274
544.957000	1.206194
545.142000	1.306902
545.328000	1.350653
545.513000	1.341863
545.699000	1.305467
545.884000	1.161856
546.070000	1.055180
546.261000	0.953058
546.451000	0.753234
546.642000	0.536660
546.833000	0.663942
547.023000	0.581760
547.214000	0.595644
547.405000	0.773404
547.595000	1.016815
547.786000	0.909818
547.977000	0.663308
548.167000	0.477798
548.358000	0.538309
548.549000	0.922144
548.740000	0.707769
548.930000	0.367914
549.121000	0.483225
549.312000	0.437848
549.502000	0.323938
549.693000	0.497678
549.884000	0.573871
550.074000	0.635245
550.265000	0.397079
550.456000	0.508802
550.646000	0.603948
550.837000	0.544357
551.028000	0.397951
551.218000	0.539813
551.409000	0.423636
551.600000	0.439472
551.790000	0.572393
551.981000	0.299646
552.172000	0.286370
552.362000	0.649240
552.553000	0.671649
552.744000	0.473280
552.934000	0.456312
553.125000	0.394458
553.316000	0.311099
553.506000	0.631163
553.697000	0.430283
553.888000	0.462756
554.079000	0.613642
554.269000	0.545929
554.460000	0.224122
554.651000	0.162814
554.841000	0.034500
555.032000	0.163246
555.223000	0.242918
555.413000	0.350812
555.604000	0.336415
555.795000	0.314293
555.985000	0.385870
556.176000	0.236482
556.367000	-0.006017
556.557000	0.128908
556.748000	0.207437
556.939000	0.166263
557.129000	0.088031
557.320000	0.256797
557.511000	0.215548
557.701000	0.179812
557.892000	0.232064
558.083000	0.412858
558.273000	0.322395
558.464000	0.127119
558.655000	0.135879
558.845000	0.216838
559.036000	0.273630
559.227000	0.245492
559.418000	0.393226
559.608000	0.428546
559.799000	0.084327
559.990000	-0.004229
560.180000	0.078695
560.371000	-0.081996
560.562000	-0.014821
560.752000	0.145877
560.943000	-0.034277
561.134000	-0.191016
561.324000	0.066176
561.515000	0.313754
561.706000	0.143510
561.896000	-0.084936
562.087000	0.004558
562.278000	-0.005958
562.468000	-0.141019
562.659000	-0.060172
562.850000	0.253092
563.040000	0.303851
563.231000	-0.100545
563.422000	0.044695
563.612000	-0.068865
563.803000	0.023727
563.994000	-0.028475
564.185000	-0.139363
564.375000	0.075662
564.566000	0.033972
564.757000	0.009733
564.947000	-0.054511
565.138000	0.092736
565.329000	0.054563
565.519000	-0.152558
565.710000	-0.088794
565.901000	0.092659
566.091000	0.239422
566.282000	0.059632
566.473000	0.052575
566.663000	0.043933
566.854000	-0.140849
567.045000	-0.036485
567.235000	0.048751
567.426000	0.055549
567.617000	0.028184
567.807000	-0.000679
567.998000	0.007797
568.189000	-0.051518
568.379000	0.028060
568.570000	0.102295
568.761000	0.083550
568.951000	0.006054
569.142000	-0.076456
569.333000	-0.103399
569.524000	-0.200319
569.714000	-0.257339
569.905000	-0.354030
570.096000	0.064631
570.286000	0.154838
570.477000	0.242799
570.668000	0.044316
570.858000	0.020991
571.049000	-0.082008
571.240000	-0.163434
571.430000	0.052416
571.621000	-0.023801
571.812000	0.055310
572.002000	0.042216
572.193000	-0.084623
572.384000	-0.000658
572.574000	0.015811
572.765000	-0.030249
572.956000	-0.085875
573.146000	0.127365
573.337000	-0.023588
573.528000	-0.021911
573.718000	0.115142
573.909000	0.162207
574.100000	0.082112
574.290000	-0.092850
574.481000	-0.113624
574.672000	-0.092748
574.863000	0.108794
575.053000	-0.007068
575.244000	0.029807
575.435000	-0.119113
575.625000	-0.110617
575.816000	-0.085009
576.007000	-0.013372
576.197000	-0.018177
576.388000	0.000953
576.579000	0.134322
576.769000	0.099276
576.960000	-0.192380
577.155000	-0.351459
577.350000	-0.090598
577.545000	0.056085
577.740000	-0.105869
577.935000	0.201582
578.130000	0.126439
578.326000	-0.171095
578.521000	0.138501
578.716000	0.173651
578.911000	-0.126520
579.106000	0.008671
579.301000	0.146037
579.496000	-0.042165
579.691000	-0.332729
579.886000	-0.190774
580.081000	-0.045017
580.276000	0.016191
580.471000	-0.081552
580.666000	-0.218618
580.861000	-0.221589
581.057000	-0.217158
581.252000	-0.082979
581.447000	-0.175630
581.642000	-0.169828
581.837000	-0.166554
582.032000	-0.129646
582.227000	0.094481
582.422000	0.095811
582.617000	-0.081580
582.812000	-0.198041
583.007000	-0.181489
583.202000	-0.276657
583.397000	-0.005056
583.592000	0.196830
583.788000	-0.083453
583.983000	-0.075982
584.178000	0.045163
584.373000	-0.130079
584.568000	-0.181200
584.763000	-0.207833
584.958000	-0.278365
585.153000	-0.172558
585.348000	-0.146021
585.543000	-0.012352
585.738000	-0.040274
585.933000	-0.235826
586.128000	-0.016755
586.324000	-0.022693
586.519000	0.008246
586.714000	0.109935
586.909000	0.138180
587.104000	0.120866
587.299000	0.005317
587.494000	-0.025664
587.689000	-0.093696
587.884000	-0.080637
588.079000	-0.142904
588.274000	-0.076336
588.469000	-0.040611
588.664000	-0.006530
588.859000	-0.003567
589.055000	-0.021427
589.250000	-0.085450
589.445000	-0.228640
589.640000	-0.196007
589.835000	0.093602
590.030000	0.190737
590.225000	0.195258
590.420000	-0.067971
590.615000	-0.187911
590.810000	-0.136810
591.005000	-0.116328
591.200000	-0.202080
591.395000	-0.265189
591.591000	-0.105653
591.786000	-0.005098
591.981000	-0.092341
592.176000	-0.041292
592.371000	-0.035277
592.566000	-0.107563
592.761000	0.074711
592.956000	0.052205
593.151000	0.111105
593.346000	0.003936
593.541000	0.016029
593.736000	-0.020326
593.931000	-0.196365
594.126000	-0.113070
594.322000	-0.065955
594.517000	-0.167740
594.712000	-0.290938
594.907000	-0.311817
595.102000	-0.156419
595.297000	-0.040300
595.492000	0.022335
595.687000	-0.167694
595.882000	-0.232191
596.077000	-0.157348
596.272000	0.013212
596.467000	0.045489
596.662000	-0.092913
596.857000	-0.090195
597.053000	-0.074876
597.248000	-0.047009
597.443000	-0.006813
597.638000	-0.095302
597.833000	-0.291150
598.028000	-0.058032
598.223000	0.027363
598.418000	-0.076939
598.613000	-0.178151
598.808000	-0.086339
599.003000	-0.067710
599.198000	-0.231817
599.393000	-0.188022
599.589000	-0.067960
599.784000	-0.238808
599.979000	-0.160696
600.174000	0.022928
600.369000	-0.193987
600.564000	-0.101369
600.759000	0.136473
600.954000	0.235358
601.149000	0.071960
601.344000	-0.259698
601.539000	-0.108176
601.734000	-0.196484
601.929000	-0.413909
602.124000	-0.355619
602.320000	-0.076835
602.515000	0.161316
602.710000	0.099599
602.905000	-0.239258
603.100000	-0.330991
603.295000	-0.244086
603.490000	-0.102765
603.685000	-0.066074
603.880000	-0.094918
604.075000	-0.250551
604.270000	-0.204526
604.465000	-0.140204
604.660000	-0.393979
604.856000	-0.226844
605.051000	-0.016717
605.246000	-0.053642
605.441000	-0.280298
605.636000	-0.354331
605.831000	-0.211636
606.026000	-0.306536
606.221000	-0.377891
606.416000	-0.160454
606.611000	0.023591
606.806000	0.031642
607.001000	0.193326
607.196000	-0.047568
607.391000	-0.240438
607.587000	-0.039613
607.782000	-0.086809
607.977000	-0.250405
608.172000	0.109976
608.367000	0.124615
608.562000	-0.101717
608.757000	-0.131017
608.952000	-0.173789
609.147000	0.239152
609.342000	0.151295
609.537000	-0.095592
609.732000	-0.049839
609.927000	-0.121733
610.122000	-0.035074
610.318000	0.317620
610.513000	0.478647
610.708000	0.309915
610.903000	0.392515
611.098000	0.449406
611.293000	0.348937
611.488000	0.383619
611.683000	0.361161
611.878000	0.306734
612.073000	0.258880
612.268000	0.227719
612.463000	0.307843
612.658000	0.233208
612.854000	0.152253
613.049000	0.095783
613.244000	0.225618
613.439000	0.240685
613.634000	-0.057401
613.829000	0.087796
614.024000	-0.015727
614.219000	-0.019070
614.414000	0.242051
614.609000	0.054651
614.804000	-0.128113
614.999000	-0.159827
615.194000	-0.082977
615.389000	-0.019171
615.585000	-0.209583
615.780000	-0.054632
615.975000	-0.086842
616.170000	-0.095358
616.365000	0.116103
616.560000	0.243272
616.755000	0.147155
616.950000	0.057119
617.145000	0.140548
617.340000	-0.051776
617.535000	-0.353231
617.730000	-0.099599
617.925000	-0.246669
618.120000	-0.284339
618.316000	0.119190
618.511000	0.028454
618.706000	-0.212265
618.901000	-0.117597
619.096000	-0.021400
619.291000	-0.138633
619.486000	-0.069882
619.681000	-0.346914
619.876000	-0.405598
620.071000	-0.251816
620.266000	0.061805
620.461000	0.138441
620.656000	0.065516
620.852000	0.014966
621.047000	-0.138514
621.242000	-0.288922
621.437000	0.074591
621.632000	0.181789
621.827000	-0.056904
622.022000	-0.308291
622.217000	-0.117023
622.412000	0.069866
622.607000	0.071700
622.802000	-0.168566
622.997000	-0.199296
623.192000	-0.076946
623.387000	-0.055682
623.583000	-0.334754
623.778000	0.083029
623.973000	0.072386
624.168000	-0.000715
624.363000	0.045680
624.558000	0.113681
624.753000	-0.192587
624.948000	0.004671
625.143000	0.033440
625.338000	-0.058348
625.533000	-0.175459
625.728000	-0.047609
625.923000	0.145446
626.119000	0.022790
626.314000	-0.208927
626.509000	-0.245890
626.704000	-0.215585
626.899000	-0.192080
627.094000	-0.221546
627.289000	-0.234859
627.484000	-0.196910
627.679000	-0.213602
627.874000	-0.178966
628.069000	0.155674
628.264000	0.048903
628.459000	-0.091033
628.654000	-0.142760
628.850000	-0.302438
629.045000	-0.160097
629.240000	-0.160256
629.435000	-0.221754
629.630000	-0.101224
629.825000	-0.103082
630.020000	-0.118432
630.215000	-0.333072
630.410000	-0.197561
630.605000	-0.175212
630.800000	-0.135796
630.995000	0.034965
631.190000	0.313856
631.385000	0.138738
631.581000	-0.070620
631.776000	-0.032876
631.971000	-0.207374
632.166000	-0.146829
632.361000	-0.281783
632.556000	-0.147173
632.751000	0.004960
632.946000	-0.140064
633.141000	-0.218966
633.336000	-0.188636
633.531000	-0.118069
633.726000	-0.123685
633.921000	-0.285787
634.117000	-0.452406
634.312000	-0.574577
634.507000	-0.434009
634.702000	-0.285595
634.897000	-0.260778
635.092000	-0.177813
635.287000	-0.080704
635.482000	-0.192321
635.677000	-0.092672
635.872000	-0.020335
636.067000	0.065851
636.262000	-0.083421
636.457000	-0.424037
636.652000	-0.420746
636.848000	-0.431500
637.043000	-0.360218
637.238000	-0.279979
637.433000	-0.399084
637.628000	-0.313865
637.823000	-0.062310
638.018000	0.005169
638.213000	-0.227959
638.408000	-0.325902
638.603000	-0.390285
638.798000	-0.392852
638.993000	-0.315447
639.188000	-0.319566
639.383000	-0.331875
639.579000	0.081378
639.774000	-0.145523
639.969000	-0.304439
640.164000	-0.365598
640.359000	-0.418450
640.554000	-0.182627
640.749000	-0.140589
640.944000	-0.098260
641.139000	-0.128450
641.334000	-0.284966
641.529000	-0.694310
641.724000	-0.536339
641.919000	-0.341581
642.115000	-0.027409
642.310000	0.015523
642.505000	-0.174368
642.700000	-0.242184
642.895000	-0.357817
643.090000	-0.173109
643.285000	0.056617
643.480000	-0.013158
643.675000	-0.031689
643.870000	0.341421
644.065000	0.172696
644.260000	-0.256910
644.455000	-0.187042
644.650000	-0.282918
644.846000	-0.156397
645.041000	-0.378179
645.236000	-0.518352
645.431000	-0.487876
645.626000	-0.635271
645.821000	-0.389664
646.016000	-0.313644
646.211000	0.057666
646.406000	-0.055262
646.601000	-0.088667
646.796000	-0.278908
646.991000	-0.511063
647.186000	-0.346632
647.381000	-0.116178
647.577000	-0.093199
647.772000	-0.009236
647.967000	-0.089180
648.162000	-0.103986
648.357000	-0.152606
648.552000	-0.024020
648.747000	-0.013493
648.942000	-0.026159
649.137000	-0.151082
649.332000	-0.284763
649.527000	-0.254992
649.722000	0.037262
649.917000	0.128676
650.113000	-0.265949
650.308000	-0.355527
650.503000	-0.259816
650.698000	-0.098777
650.893000	-0.213884
651.088000	-0.045619
651.283000	0.035464
651.478000	-0.317040
651.673000	-0.118236
651.868000	-0.263891
652.063000	-0.017999
652.258000	0.147105
652.453000	0.294285
652.648000	-0.058681
652.844000	-0.131592
653.039000	-0.065263
653.234000	-0.484044
653.429000	-0.616139
653.624000	-0.359865
653.819000	-0.110739
654.014000	-0.175407
654.209000	-0.309821
654.404000	-0.149785
654.599000	-0.323270
654.794000	-0.285992
654.989000	0.035963
655.184000	-0.081120
655.380000	-0.390970
655.575000	-0.375842
655.770000	-0.335215
655.965000	-0.215859
656.160000	-0.289848
656.355000	-0.122520
656.550000	-0.162118
656.745000	-0.055384
656.940000	-0.223464
657.135000	-0.162321
657.330000	-0.116552
657.525000	-0.359079
657.720000	-0.197796
657.915000	-0.103616
658.111000	-0.158325
658.306000	0.145758
658.501000	-0.077653
658.696000	-0.347326
658.891000	-0.064495
659.086000	-0.211390
659.281000	-0.205146
659.476000	-0.341808
659.671000	-0.706865
659.866000	-0.489346
660.061000	-0.159409
660.256000	-0.027315
660.451000	-0.117733
660.646000	-0.334238
660.842000	-0.182120
661.037000	-0.365705
661.232000	-0.364015
661.427000	-0.228766
661.622000	-0.340014
661.817000	-0.448503
662.012000	-0.218594
662.207000	-0.307664
662.402000	-0.413183
662.597000	-0.259587
662.792000	-0.564596
662.987000	-0.521834
663.182000	-0.188293
663.378000	-0.242030
663.573000	-0.596264
663.768000	-0.577159
663.963000	-0.439156
664.158000	-0.400777
664.353000	0.144906
664.548000	0.339939
664.743000	-0.050285
664.938000	-0.398200
665.133000	-0.360606
665.328000	0.041878
665.523000	-0.048277
665.718000	-0.208470
665.913000	-0.211043
666.109000	-0.220574
666.304000	-0.041655
666.499000	-0.209050
666.694000	-0.012252
666.889000	0.282672
667.084000	-0.107895
667.279000	-0.214750
667.474000	-0.210319
667.669000	-0.192062
667.864000	-0.276587
668.059000	-0.249628
668.254000	-0.192827
668.449000	-0.327994
668.644000	-0.245877
668.840000	0.005945
669.035000	-0.268801
669.230000	-0.524726
669.425000	-0.198629
669.620000	-0.338841
669.815000	-0.353910
670.010000	-0.328228
670.205000	-0.187781
670.400000	-0.166721
670.595000	-0.160299
670.790000	-0.299288
670.985000	-0.343593
671.180000	-0.051920
671.376000	-0.376760
671.571000	-0.521751
671.766000	-0.464698
671.961000	-0.499845
672.156000	-0.460785
672.351000	-0.325473
672.546000	-0.335517
672.741000	-0.178365
672.936000	-0.169248
673.131000	0.362385
673.326000	-0.015044
673.521000	-0.424406
673.716000	-0.485562
673.911000	-0.605973
674.107000	0.003774
674.302000	0.223281
674.497000	-0.064745
674.692000	-0.355643
674.887000	-0.442273
675.082000	-0.309869
675.277000	-0.029507
675.472000	-0.198722
675.667000	-0.392325
675.862000	-0.390137
676.057000	-0.256602
676.252000	-0.199682
676.447000	-0.332179
676.643000	-0.176026
676.838000	0.099953
677.033000	-0.166984
677.228000	0.085872
677.423000	0.040066
677.618000	-0.342207
677.813000	-0.523410
678.008000	-0.255752
678.203000	-0.115138
678.398000	-0.409799
678.593000	-0.239537
678.788000	-0.115761
678.983000	-0.427841
679.178000	-0.293830
679.374000	-0.291814
679.569000	-0.260603
679.764000	-0.403854
679.959000	-0.537793
680.154000	-0.525587
680.349000	-0.697938
680.544000	-0.598278
680.739000	-0.423263
680.934000	-0.567062
681.129000	-0.546339
681.324000	-0.611543
681.519000	-0.282336
681.714000	-0.357154
681.909000	-0.478611
682.105000	-0.609677
682.300000	-0.243916
682.495000	-0.051061
682.690000	-0.018564
682.885000	-0.129049
683.080000	-0.383691
683.275000	-0.333505
683.470000	0.036821
683.665000	0.203719
683.860000	0.434471
684.055000	0.138320
684.250000	-0.358563
684.445000	-0.423819
684.641000	0.044693
684.836000	-0.224855
685.031000	-0.235879
685.226000	-0.251535
685.421000	0.063061
685.616000	-0.213791
685.811000	-0.386466
686.006000	-0.070400
686.201000	-0.163114
686.396000	-0.520144
686.591000	-0.415088
686.786000	-0.042508
686.981000	-0.239518
687.176000	-0.115373
687.372000	-0.185741
687.567000	0.069229
687.762000	-0.037580
687.957000	-0.134136
688.152000	-0.346254
688.347000	-0.297100
688.542000	-0.526338
688.737000	-0.854265
688.932000	-0.868865
689.127000	-0.525100
689.322000	-0.125179
689.517000	-0.312617
689.712000	-0.591940
689.908000	-0.444007
690.103000	-0.426265
690.298000	-0.335966
690.493000	-0.270222
690.688000	-0.548050
690.883000	-0.400002
691.078000	0.006964
691.273000	0.023036
691.468000	-0.269453
691.663000	-0.278560
691.858000	-0.065745
692.053000	-0.092686
692.248000	-0.049627
692.443000	-0.073898
692.639000	-0.136211
692.834000	-0.022758
693.029000	0.454251
693.224000	0.442791
693.419000	-0.205519
693.614000	-0.399801
693.809000	-0.523073
694.004000	-0.567868
694.199000	-0.521186
694.394000	-0.264773
694.589000	-0.586748
694.784000	-0.543307
694.979000	-0.243313
695.174000	-0.310154
695.370000	0.175200
695.565000	-0.086709
695.760000	-0.394125
695.955000	0.021086
696.150000	0.084924
696.345000	-0.349373
696.540000	-0.140664
696.740000	-0.288382
696.940000	-0.129508
697.140000	0.010100
697.340000	-0.304643
697.539000	-0.124846
697.739000	-0.223350
697.939000	-0.203801
698.139000	-0.587241
698.339000	-0.877944
698.539000	-0.642816
698.739000	-0.675722
698.939000	-0.465165
699.138000	-0.585698
699.338000	0.050015
699.538000	0.218509
699.738000	-0.315850
699.938000	-0.456421
700.138000	-0.451458
700.338000	-0.539057
700.538000	-0.338541
700.737000	-0.295189
700.937000	-0.728313
701.137000	-0.735189
701.337000	-0.059028
701.537000	0.004640
701.737000	-0.337123
701.937000	-0.401748
702.137000	-0.355321
702.337000	-0.443152
702.536000	-0.624709
702.736000	-0.616709
702.936000	-0.734482
703.136000	-0.188705
703.336000	-0.182803
703.536000	-0.374259
703.736000	-0.725806
703.936000	-0.671391
704.135000	-0.597603
704.335000	-0.189741
704.535000	-0.515237
704.735000	-0.737566
704.935000	-0.204806
705.135000	-0.238423
705.335000	-0.444520
705.535000	-0.215558
705.735000	-0.170869
705.934000	-0.152930
706.134000	-0.370250
706.334000	-0.520296
706.534000	-0.604698
706.734000	-0.530428
706.934000	-0.614114
707.134000	-0.581377
707.334000	-0.315882
707.533000	-0.289443
707.733000	-0.367242
707.933000	-0.511770
708.133000	-0.184182
708.333000	-0.103727
708.533000	-0.303297
708.733000	-0.025372
708.933000	-0.336773
709.132000	-0.491906
709.332000	-0.392613
709.532000	-0.518153
709.732000	-0.371651
709.932000	-0.792563
710.132000	-0.719065
710.332000	-0.888994
710.532000	-0.299446
710.732000	-0.059199
710.931000	-0.404317
711.131000	-0.436554
711.331000	-0.271215
711.531000	-0.452998
711.731000	-0.420247
711.931000	-0.340706
712.131000	-0.343380
712.331000	-0.155403
712.530000	-0.278400
712.730000	-0.507626
712.930000	-0.337687
713.130000	-0.357455
713.330000	-0.531574
713.530000	-0.359214
713.730000	0.360002
713.930000	-0.026151
714.129000	-0.539267
714.329000	-0.693876
714.529000	-0.359768
714.729000	-0.013746
714.929000	-0.204315
715.129000	-0.508193
715.329000	-0.399038
715.529000	-0.331483
715.729000	0.256150
715.928000	0.023917
716.128000	-0.294110
716.328000	-0.257083
716.528000	-0.371204
716.728000	-0.194186
716.928000	-0.402960
717.128000	-0.289740
717.328000	-0.302370
717.527000	-0.483618
717.727000	-0.344326
717.927000	-0.198847
718.127000	-0.339254
718.327000	-0.902058
718.527000	-0.863294
718.727000	-0.333621
718.927000	-0.503900
719.127000	-0.804854
719.326000	-0.529484
719.526000	-0.113532
719.726000	-0.194117
719.926000	-0.675494
720.126000	-0.656245
720.326000	-0.430334
720.526000	-0.559474
720.726000	-0.496439
720.925000	-0.276551
721.125000	-0.742369
721.325000	-0.462282
721.525000	-0.372283
721.725000	-0.580618
721.925000	-0.644265
722.125000	-0.575773
722.325000	-0.089424
722.524000	-0.305753
722.724000	-0.765004
722.924000	-0.856725
723.124000	-0.618239
723.324000	-0.195123
723.524000	-0.106527
723.724000	-0.666068
723.924000	-0.575982
724.124000	-0.444029
724.323000	-0.127030
724.523000	-0.235991
724.723000	0.137792
724.923000	-0.084157
725.123000	-0.173799
725.323000	-0.044524
725.523000	-0.244351
725.723000	-0.490185
725.922000	-0.487409
726.122000	-0.314639
726.322000	-0.509325
726.522000	-0.586766
726.722000	0.162394
726.922000	-0.141581
727.122000	-0.299560
727.322000	0.018788
727.521000	-0.243503
727.721000	-0.402170
727.921000	-0.324715
728.121000	-0.348207
728.321000	-0.699720
728.521000	-0.481655
728.721000	-0.296125
728.921000	0.062998
729.121000	0.731433
729.320000	0.039397
729.520000	-0.405556
729.720000	-0.617162
729.920000	-0.568825
730.120000	-0.359387
730.320000	-0.295324
730.520000	-0.668170
730.720000	-0.591379
730.919000	-0.474661
731.119000	-0.207529
731.319000	-0.693123
731.519000	-0.820347
731.719000	-0.352631
731.919000	-0.511313
732.119000	-1.050551
732.319000	-1.102317
732.519000	-0.423981
732.718000	-0.729760
732.918000	-0.723445
733.118000	-0.453803
733.318000	-0.127040
733.518000	-0.531933
733.718000	-1.025501
733.918000	-0.970143
734.118000	-0.616704
734.317000	-0.303289
734.517000	-0.625369
734.717000	-0.494533
734.917000	0.023300
735.117000	-0.125105
735.317000	-0.326463
735.517000	0.186349
735.717000	0.481819
735.916000	-0.495396
736.116000	-0.661848
736.316000	-0.412277
736.516000	-0.333576
736.716000	-0.433797
736.916000	-0.905576
737.116000	-0.628770
737.316000	0.012977
737.516000	-0.059235
737.715000	-0.189383
737.915000	-0.786079
738.115000	-0.766811
738.315000	-0.498760
738.515000	-0.799893
738.715000	-0.494290
738.915000	0.035093
739.115000	-0.514079
739.314000	-0.601413
739.514000	-0.038182
739.714000	0.101586
739.914000	-0.042082
740.114000	-0.271456
740.314000	-0.101409
740.514000	0.339537
740.714000	-0.484995
740.913000	-0.969915
741.113000	-0.792367
741.313000	-0.396930
741.513000	-0.439199
741.713000	-0.395366
741.913000	-0.325627
742.113000	-0.389104
742.313000	-0.948061
742.513000	-0.594129
742.712000	-0.452152
742.912000	-0.815906
743.112000	-0.685641
743.312000	-0.964690
743.512000	-0.558601
743.712000	-0.391969
743.912000	-0.998374
744.112000	-1.152472
744.311000	-1.170974
744.511000	-0.733761
744.711000	-0.353114
744.911000	-0.651526
745.111000	-0.663957
745.311000	-0.312047
745.511000	-0.467939
745.711000	-0.701793
745.911000	-0.496255
746.110000	-0.878409
746.310000	-1.044318
746.510000	-0.764336
746.710000	-0.280573
746.910000	-0.119566
747.110000	-0.604307
747.310000	-0.988156
747.510000	-0.758200
747.709000	-0.469403
747.909000	-0.426885
748.109000	-0.165109
748.309000	-0.473162
748.509000	-0.766091
748.709000	-0.817139
748.909000	-0.535756
749.109000	-0.610701
749.308000	-0.005653
749.508000	-0.337987
749.708000	-0.585393
749.908000	-0.273298
750.108000	-0.172437
750.308000	-0.866828
750.508000	-0.116200
750.708000	-0.591018
750.908000	-1.027082
751.107000	-0.236167
751.307000	0.310681
751.507000	-0.315299
751.707000	-0.306655
751.907000	-0.485077
752.107000	-0.465990
752.307000	-0.854416
752.507000	-0.635608
752.706000	-0.743540
752.906000	0.273990
753.106000	-0.567484
753.306000	-1.187217
753.506000	-0.170305
753.706000	-0.571916
753.906000	-0.314307
754.106000	-0.094755
754.305000	-0.298189
754.505000	-0.269243
754.705000	-0.343303
754.905000	-0.360916
755.105000	-0.220125
755.305000	-1.026683
755.505000	-0.926418
755.705000	-0.436658
755.905000	-0.450929
756.104000	-1.078149
756.304000	-1.371462
756.504000	-1.539344
756.704000	-0.385962
756.904000	-0.211198
757.104000	-0.467989
757.304000	-0.468437
757.504000	-0.111462
757.703000	-0.576513
757.903000	-0.124904
758.103000	0.183333
758.303000	-0.280192
758.503000	-0.467038
758.703000	-0.636904
758.903000	-0.881576
759.103000	-0.487456
759.303000	-0.422639
759.502000	-0.536254
759.702000	-0.118523
759.902000	-0.489149
760.102000	-0.567216
760.302000	-0.573665
760.502000	-0.277831
760.702000	-0.214790
760.902000	-0.560365
761.101000	-0.871656
761.301000	-1.114974
761.501000	-0.795884
761.701000	-0.939238
761.901000	-0.613178
762.101000	-0.296650
762.301000	-0.476305
762.501000	-0.859345
762.700000	-0.928143
762.900000	-0.812646
763.100000	-0.451778
763.300000	-0.248702
763.500000	-0.500693
763.703000	-0.629118
763.905000	-0.957992
764.108000	-0.161013
764.311000	-0.399779
764.513000	-0.672102
764.716000	-0.458353
764.919000	-0.501377
765.121000	-1.053110
765.324000	-1.150840
765.527000	-0.952583
765.729000	-0.724397
765.932000	0.159971
766.135000	0.017135
766.337000	-0.363824
766.540000	-0.613461
766.743000	-0.309973
766.945000	-0.871394
767.148000	-1.239276
767.351000	-1.128382
767.553000	-0.229034
767.756000	-0.558198
767.958000	-0.983760
768.161000	-0.607033
768.364000	-0.852199
768.566000	-1.160826
768.769000	-0.641953
768.972000	-0.231540
769.174000	-0.692816
769.377000	-1.338495
769.580000	-1.306879
769.782000	-0.572676
769.985000	-1.063132
770.188000	-1.906709
770.390000	-0.991382
770.593000	0.569061
770.796000	0.132184
770.998000	-0.399767
771.201000	-0.793407
771.404000	-0.530349
771.606000	-0.832710
771.809000	-0.682359
772.012000	-0.578417
772.214000	-1.401532
772.417000	-1.456867
772.620000	-0.332083
772.822000	-0.677377
773.025000	-0.929546
773.228000	-0.991886
773.430000	-0.846836
773.633000	-0.579819
773.836000	-0.489256
774.038000	-0.282233
774.241000	-0.445135
774.444000	-0.758134
774.646000	0.212351
774.849000	-0.247620
775.052000	-0.477764
775.254000	-0.324951
775.457000	-0.765038
775.659000	-0.751472
775.862000	-0.900543
776.065000	-0.742603
776.267000	-0.166909
776.470000	0.303228
776.673000	-0.437033
776.875000	0.039469
777.078000	-0.095405
777.281000	-0.980573
777.483000	-0.357138
777.686000	-0.190412
777.889000	-0.195853
778.091000	0.055700
778.294000	-1.156498
778.497000	-1.142222
778.699000	-0.864450
778.902000	-0.893783
779.105000	-0.614188
779.307000	0.304362
779.510000	-0.801796
779.713000	-0.555040
779.915000	-0.796905
780.118000	0.190078
780.321000	0.345340
780.523000	-0.479027
780.726000	-0.854459
780.929000	-1.132796
781.131000	-1.096980
781.334000	-1.483514
781.537000	-1.503870
781.739000	-0.391450
781.942000	-0.905825
782.145000	-1.476178
782.347000	-1.439011
782.550000	-1.053266
782.753000	-1.149615
782.955000	-1.026727
783.158000	-0.993268
783.361000	-0.688331
783.563000	-0.699424
783.766000	-0.921406
783.968000	0.857772
784.171000	0.750948
784.374000	-0.522831
784.576000	-0.561434
784.779000	-0.179111
784.982000	0.125655
785.184000	-0.522118
785.387000	0.036951
785.590000	0.518159
785.792000	0.317916
785.995000	0.042754
786.198000	-0.154389
786.400000	-0.585082
786.603000	-0.592240
786.806000	-0.709172
787.008000	-0.669518
787.211000	-0.484656
787.414000	-1.118408
787.616000	-0.825400
787.819000	-0.729943
788.022000	-1.350553
788.224000	-0.767256
788.427000	-1.371944
788.630000	-0.753059
788.832000	-0.486881
789.035000	-1.085099
789.238000	-1.691692
789.440000	-1.259295
789.643000	-0.083624
789.846000	-0.672064
790.048000	-0.270878
790.251000	-0.078247
790.454000	-0.480195
790.656000	0.167284
790.859000	-0.547572
791.062000	-1.129960
791.264000	-0.413117
791.467000	-1.233986
791.669000	-1.837749
791.872000	-0.826789
792.075000	-1.270149
792.277000	-1.080750
792.480000	-0.729182
792.683000	-1.149008
792.885000	-1.471250
793.088000	-1.237899
793.291000	-1.390585
793.493000	-1.423092
793.696000	-0.434171
793.899000	-0.309087
794.101000	-0.785963
794.304000	-0.769616
794.507000	-0.419863
794.709000	-0.305761
794.912000	-0.970922
795.115000	-1.338959
795.317000	-0.942017
795.520000	-0.504933
795.723000	-0.789984
795.925000	-1.271738
796.128000	-1.534710
796.331000	-1.163151
796.533000	-1.537230
796.736000	-0.730183
796.939000	-0.526192
797.141000	-0.827626
797.344000	-0.208981
797.547000	-0.102658
797.749000	-0.203103
797.952000	-0.815277
798.155000	-1.398158
798.357000	-1.627936
798.560000	-1.280953
798.763000	-0.479068
798.965000	-0.783303
799.168000	-0.632800
799.371000	-0.384967
799.573000	-0.680416
799.776000	-1.494803
799.978000	-1.634953
800.181000	-0.807452
800.384000	0.674562
800.586000	0.159017
800.789000	-1.346541
800.992000	-1.352086
801.194000	-1.445669
801.397000	-1.585653
801.600000	-1.408794
801.802000	0.029991
802.005000	-0.238078
802.208000	-1.767073
802.410000	-0.631773
802.613000	-0.397589
802.816000	-0.668253
803.018000	-1.377069
803.221000	-1.240617
803.424000	0.222900
803.626000	-0.082388
803.829000	-0.682537
804.032000	0.318111
804.234000	0.892575
804.437000	-0.660240
804.640000	-0.686502
804.842000	-0.607439
805.045000	-1.056152
805.248000	-1.024301
805.450000	-1.016542
805.653000	-0.859744
805.856000	-1.089813
806.058000	-0.043617
806.261000	-1.061580
806.464000	-1.021614
806.666000	-0.386280
806.869000	-0.919504
807.072000	-2.132413
807.274000	-2.382091
807.477000	-1.275208
807.679000	-0.930209
807.882000	-1.459567
808.085000	-1.169101
808.287000	-0.408262
808.490000	-1.361616
808.693000	-1.208375
808.895000	-0.915018
809.098000	-0.838237
809.301000	-0.939655
809.503000	-1.155964
809.706000	-0.059750
809.909000	0.125169
810.111000	-0.045580
810.314000	-0.466833
810.517000	-1.127001
810.719000	-1.398087
810.922000	-1.109410
811.125000	-0.081736
811.327000	-0.060571
811.530000	-0.632727
811.735000	-1.036568
811.940000	-1.277962
812.146000	-1.174212
812.351000	-0.541314
812.556000	-0.762025
812.761000	-1.467380
812.967000	-0.326511
813.172000	-0.179245
813.377000	-0.577718
813.582000	0.041441
813.788000	-0.353188
813.993000	-1.422585
814.198000	-0.590721
814.403000	-1.571901
814.609000	-0.646485
814.814000	-0.596786
815.019000	0.289595
815.224000	0.229457
815.429000	-1.150379
815.635000	-0.813247
815.840000	-0.670103
816.045000	-0.543703
816.250000	-0.041187
816.456000	-1.301892
816.661000	-2.436127
816.866000	-1.926109
817.071000	-1.617405
817.277000	-2.393784
817.482000	-1.460143
817.687000	-0.707920
817.892000	-0.828765
818.097000	-0.354723
818.303000	0.137512
818.508000	0.371183
818.713000	7.140907
818.918000	3.724143
819.124000	0.083216
819.329000	-1.099014
819.534000	-1.126011
819.739000	-1.141921
819.945000	-0.972510
820.150000	-0.714350
820.355000	-0.811812
820.560000	-0.625983
820.766000	-0.619582
820.971000	-0.671462
821.176000	-2.150025
821.381000	-2.699092
821.586000	-1.589979
821.792000	0.021122
821.997000	-0.621247
822.202000	-0.898602
822.407000	-1.472820
822.613000	-1.884980
822.818000	-0.938389
823.023000	-0.684939
823.228000	-1.003461
823.434000	-0.408004
823.639000	0.129120
823.844000	-0.725308
824.049000	-0.194333
824.255000	-0.061655
824.460000	-0.714850
824.665000	-1.227163
824.870000	-0.230452
825.075000	-0.340220
825.281000	-0.434159
825.486000	0.667846
825.691000	-1.662779
825.896000	-2.706238
826.102000	-0.984543
826.307000	-0.824446
826.512000	-1.136565
826.717000	-0.993687
826.923000	-1.100149
827.128000	-0.704462
827.333000	-1.510359
827.538000	-0.563042
827.744000	0.145485
827.949000	-1.096939
828.154000	-1.066251
828.359000	-0.152747
828.564000	-0.665224
828.770000	-1.013479
828.975000	-0.012431
829.180000	-0.574717
829.385000	-2.019665
829.591000	-1.616077
829.796000	-0.975932
830.001000	-0.995837
830.206000	-1.397125
830.412000	-1.422818
830.617000	-1.426255
830.822000	-0.222200
831.027000	-0.857744
831.232000	-1.338301
831.438000	-1.412195
831.643000	-0.740096
831.848000	-0.935693
832.053000	-0.772532
832.259000	-1.079545
832.464000	-3.128680
832.669000	-2.486601
832.874000	-1.848873
833.080000	-1.885128
833.285000	-0.247508
833.490000	-0.435323
833.695000	-1.722541
833.901000	-1.446000
834.106000	-1.875826
834.311000	-1.455819
834.516000	-0.692670
834.721000	-1.524004
834.927000	-0.139118
835.132000	-0.516909
835.337000	1.004335
835.542000	-0.403733
835.748000	-2.154906
835.953000	-0.062507
836.158000	-0.121405
836.363000	-0.623222
836.569000	-0.677584
836.774000	-1.561977
836.979000	-1.961303
837.184000	-2.075622
837.390000	-1.899806
837.595000	-1.354637
837.800000	-0.806225
838.005000	-0.569025
838.210000	-1.134506
838.416000	-1.625265
838.621000	-1.385802
838.826000	-1.364647
839.031000	-1.126716
839.237000	-1.721212
839.442000	-2.424260
839.647000	-2.718850
839.852000	-1.883725
840.058000	-1.931991
840.263000	-1.639426
840.468000	-2.287497
840.673000	-1.297143
840.878000	-1.016567
841.084000	-1.925560
841.289000	-1.256763
841.494000	1.543220
841.699000	1.548326
841.905000	0.592812
842.110000	0.746091
842.315000	-1.637159
842.520000	-1.034539
842.726000	-1.230644
842.931000	-1.788576
843.136000	-0.870443
843.341000	-2.513005
843.547000	-1.647961
843.752000	-1.399210
843.957000	-2.179726
844.162000	-2.101761
844.367000	-1.287701
844.573000	-0.537741
844.778000	-0.580644
844.983000	-0.704259
845.188000	-0.551558
845.394000	-2.302771
845.599000	-1.757678
845.804000	-1.549416
846.009000	-0.946976
846.215000	-2.069274
846.420000	-2.006230
846.625000	-0.761959
846.830000	0.098333
847.036000	-1.268432
847.241000	-1.746875
847.446000	-0.269960
847.651000	-0.931458
847.856000	-1.992016
848.062000	-2.115174
848.267000	-0.379999
848.472000	-1.511147
848.677000	-2.766371
848.883000	-0.911548
849.088000	0.732816
849.293000	-0.948296
849.498000	-1.519633
849.704000	-0.088515
849.909000	-0.880247
850.114000	-1.983617
850.319000	-0.978401
850.524000	-1.092554
850.730000	-0.977209
850.935000	-1.212993
851.140000	-0.115012
851.345000	-0.433069
851.551000	-0.397561
851.756000	-0.276336
851.961000	-1.538734
852.166000	-1.762295
852.372000	-1.034807
852.577000	-1.067365
852.782000	-1.478443
852.987000	-0.168269
853.193000	-0.672980
853.398000	-0.584936
853.603000	-1.988678
853.808000	-2.596498
854.013000	-1.697060
854.219000	-0.425673
854.424000	1.210327
854.629000	1.110419
854.834000	-1.192699
855.040000	-0.810619
855.245000	-0.290019
855.450000	-2.818982
855.655000	-3.753236
855.861000	-3.437741
856.066000	-2.742001
856.271000	-2.601452
856.476000	-0.163977
856.682000	-1.253148
856.887000	-4.169947
857.092000	-2.676800
857.297000	0.101418
857.502000	-0.098943
857.708000	-0.943133
857.913000	-0.246928
858.118000	-0.831585
858.323000	-1.146449
858.529000	-1.239614
858.734000	-1.814162
858.939000	-1.342127
859.144000	-2.126752
859.350000	-3.290497
859.555000	-2.984987
859.760000	-0.930474
859.965000	-0.019322
860.171000	-1.752020
860.376000	-0.631913
860.581000	-2.531624
860.786000	-4.602410
860.991000	-3.566798
861.197000	-2.790928
861.402000	-1.261212
861.607000	-1.685513
861.812000	-3.238089
862.018000	-3.378596
862.223000	-2.187248
862.428000	-1.196165
862.633000	0.137751
862.839000	-0.698848
863.044000	-1.840348
863.249000	-2.779168
863.454000	-1.023238
863.659000	-1.769860
863.865000	-2.452616
864.070000	-2.664705
864.275000	-3.257733
864.480000	-2.651812
864.686000	-4.249080
864.891000	-3.242919
865.096000	-0.632468
865.301000	-0.603761
865.507000	-0.772671
865.712000	-0.742556
865.917000	-1.791171
866.122000	-0.840377
866.328000	-3.667372
866.533000	-3.253207
866.738000	0.238120
866.943000	0.009178
867.148000	0.393786
867.354000	-2.331649
867.559000	-3.650458
867.764000	-1.922974
867.969000	-0.617094
868.175000	-2.004250
868.380000	-2.684840
868.585000	-3.582358
868.790000	-1.249654
868.996000	-1.479712
869.201000	-3.310276
869.406000	-4.042428
869.611000	-3.073653
869.817000	-2.783001
870.022000	1.547338
870.227000	-0.568429
870.432000	-2.668956
870.637000	-1.185764
870.843000	-1.907596
871.048000	-1.989801
871.253000	-0.185432
871.458000	-1.150935
871.664000	-3.428688
871.869000	-3.482046
872.074000	-2.695759
872.279000	-1.400323
872.485000	-2.027189
872.690000	-2.505561
872.895000	-2.515917
873.100000	-3.007832
873.306000	-3.088347
873.511000	-1.848187
873.716000	-0.502360
873.921000	-2.051913
874.126000	-2.174667
874.332000	-1.644484
874.537000	-0.665205
874.742000	-0.870264
874.947000	-1.307465
875.153000	0.448078
875.358000	-0.971943
875.563000	-1.724739
875.768000	-4.143367
875.974000	-4.407825
876.179000	-1.335197
876.384000	-1.003595
876.589000	-2.790280
876.794000	-2.362035
877.000000	-3.227538
877.205000	-4.822593
877.410000	-1.523960
877.615000	-3.089634
877.821000	-5.135652
878.026000	-3.628019
878.231000	-4.136532
878.436000	-4.617225
878.642000	-3.511627
878.847000	-2.030024
879.052000	-0.815259
879.257000	-3.137512
879.463000	-4.254657
879.668000	-2.901615
879.873000	-0.920142
880.078000	-3.387100
880.283000	-4.843630
880.489000	-4.862269
880.694000	-4.318624
880.899000	-2.454427
881.104000	-0.959856
881.310000	1.020774
881.515000	-0.121743
881.720000	1.365280
881.925000	2.293413
882.131000	3.731823
882.336000	0.823221
882.541000	-3.377209
882.746000	-2.845838
882.952000	-3.722267
883.157000	-3.849025
883.362000	-3.580146
883.567000	-4.206148
883.772000	-4.145735
883.978000	-3.074867
884.183000	-1.864282
884.388000	-2.457331
884.593000	-4.649696
884.799000	-0.008004
885.004000	-0.251637
885.209000	-2.078931
885.414000	-1.505296
885.620000	-3.941264
885.825000	-1.137100
886.030000	-1.483124
886.235000	-3.223553
886.440000	-2.439875
886.646000	-4.679104
886.851000	-4.702638
887.056000	-0.576048
887.261000	-1.355007
887.467000	-4.381555
887.672000	-1.391063
887.877000	-2.595357
888.082000	-5.357263
888.288000	-5.294910
888.493000	-7.537962
888.698000	-5.679611
888.903000	-2.200425
889.109000	-3.473543
889.314000	-0.420356
889.519000	-1.951323
889.724000	-0.159962
889.929000	-2.021337
890.135000	-2.417373
890.340000	-2.500999
890.545000	-3.745419
890.750000	-5.023899
890.956000	-3.590401
891.161000	-0.908371
891.366000	-3.155280
891.571000	-1.861442
891.777000	-1.973556
891.982000	-0.630009
892.187000	-0.788658
892.392000	-0.142243
892.598000	-0.478341
892.803000	-0.775719
893.008000	-3.252988
893.213000	-3.536481
893.418000	-3.538781
893.624000	-4.511615
893.829000	-6.720302
894.034000	-3.383273
894.239000	-1.360883
894.445000	-3.986335
894.650000	-4.351017
894.855000	-4.011424
895.060000	-4.463987
895.266000	-4.446291
895.471000	-5.373846
895.676000	-1.517541
895.881000	-1.132741
896.087000	-3.263111
896.292000	-4.438804
896.497000	-0.033147
896.702000	-1.730869
896.907000	-3.859134
897.113000	0.464617
897.318000	0.677619
897.523000	0.014253
897.728000	-2.131911
897.934000	-2.434050
898.139000	-2.965145
898.344000	-0.418636
898.549000	-1.969602
898.755000	-3.620089
898.960000	-3.642443
899.165000	-5.473438
899.370000	-2.018342
899.575000	1.242582
899.781000	-3.531467
899.986000	-3.974954
900.191000	-2.240589
900.396000	-2.987612
900.602000	-2.431398
900.807000	-3.303323
901.012000	-2.312710
901.217000	-0.568198
901.423000	-3.650293
901.628000	-5.336515
901.833000	-0.851366
902.038000	-0.190092
902.244000	-4.109066
902.449000	-3.463282
902.654000	-3.421664
902.859000	-1.880887
903.064000	0.093973
903.270000	0.041916
903.475000	-4.755871
903.680000	-7.239148
903.885000	-6.293669
904.091000	-5.423848
904.296000	-6.297919
904.501000	-4.905337
904.706000	-4.330802
904.912000	-0.254951
905.117000	-2.271486
905.322000	-5.420042
905.527000	-4.930299
905.733000	-3.921671
905.938000	-3.671025
906.143000	-4.077183
906.348000	-6.505315
906.553000	-2.200836
906.759000	-0.740635
906.964000	-2.351346
907.169000	-3.725507
907.374000	-6.206620
907.580000	-4.419532
907.785000	-3.598867
907.990000	25.725733
908.195000	16.825783
908.401000	-1.152117
908.606000	-8.773630
908.811000	-10.145443
909.016000	-3.062484
909.221000	-2.571921
909.427000	-3.888725
909.632000	-5.982823
909.837000	-5.904267
910.042000	-6.705258
910.248000	-7.556628
910.453000	-2.874020
910.658000	-4.613852
910.863000	-5.130012
911.069000	-5.917628
911.274000	-2.460032
911.479000	-0.667112
911.684000	-7.300583
911.890000	-4.435962
912.095000	-4.033096
912.300000	-6.560973
912.506000	-5.298385
912.711000	-5.140091
912.917000	-2.386310
913.123000	-2.645264
913.328000	-2.920017
913.534000	-3.174984
913.740000	5.797076
913.946000	2.131170
914.151000	-4.695452
914.357000	-6.551989
914.563000	-2.555690
914.768000	-5.204762
914.974000	-7.109536
915.180000	-6.771196
915.385000	-5.127725
915.591000	-8.028179
915.797000	-3.326698
916.002000	0.229269
916.208000	-4.025274
916.414000	-6.621647
916.620000	-6.916096
916.825000	-3.142025
917.031000	-3.460971
917.237000	-10.254318
917.442000	-6.189045
917.648000	-6.741231
917.854000	-8.570162
918.059000	-1.932860
918.265000	-1.930439
918.471000	-4.192900
918.676000	-7.285588
918.882000	-9.773298
919.088000	-7.421160
919.294000	-12.590787
919.499000	-8.506998
919.705000	-1.526298
919.911000	-2.244014
920.116000	-0.931010
920.322000	-7.793942
920.528000	-5.562767
920.733000	-8.530936
920.939000	-9.311338
921.145000	-8.311919
921.350000	-7.229447
921.556000	-5.011125
921.762000	-5.157988
921.968000	-5.492503
922.173000	-7.581668
922.379000	-10.573536
922.585000	-5.536578
922.790000	-5.956019
922.996000	-7.117023
923.202000	-8.874275
923.407000	-8.929825
923.613000	-6.668485
923.819000	-3.778512
924.024000	-4.133233
924.230000	-1.876763
924.436000	-3.972940
924.642000	5.538276
924.847000	0.026108
925.053000	-6.928677
925.259000	-11.900125
925.464000	-4.442388
925.670000	-5.314290
925.876000	-8.163219
926.081000	-8.385016
926.287000	-5.236335
926.493000	-2.559953
926.698000	-4.701075
926.904000	-3.271476
927.110000	-5.609407
927.316000	-4.948336
927.521000	2.379488
927.727000	-4.418629
927.933000	-6.600280
928.138000	-6.723597
928.344000	-12.676663
928.550000	-7.864070
928.755000	-1.954725
928.961000	-6.151930
929.167000	-7.161087
929.372000	0.273143
929.578000	-1.299528
929.784000	-7.308804
929.990000	-10.580274
930.195000	-7.861310
930.401000	-6.863174
930.607000	-4.357827
930.812000	-4.349488
931.018000	-7.384903
931.224000	-13.443954
931.429000	-8.975260
931.635000	-12.436364
931.841000	-12.715406
932.046000	-8.597660
932.252000	-4.094793
932.458000	2.914684
932.664000	-2.396862
932.869000	-8.289708
933.075000	-10.522475
933.281000	-10.065230
933.486000	-3.656538
933.692000	-5.975678
933.898000	-11.173276
934.103000	-2.231563
934.309000	-6.152966
934.515000	-4.196844
934.720000	-1.793031
934.926000	1.106252
935.132000	0.928572
935.338000	-3.574024
935.543000	-11.559451
935.749000	-13.331192
935.955000	-16.115596
936.160000	-13.485085
936.366000	-3.805706
936.572000	-4.908707
936.777000	-3.501178
936.983000	-0.092007
937.189000	-4.861607
937.394000	-11.170365
937.600000	-1.915332
937.806000	3.437383
938.012000	-6.583091
938.217000	3.378629
938.423000	-1.778381
938.629000	-9.551431
938.834000	-15.544062
939.040000	-15.376141
939.246000	-7.790147
939.451000	-12.036290
939.657000	-8.407286
939.863000	-11.805444
940.068000	-2.588682
940.274000	-7.455467
940.480000	-4.560429
940.686000	-3.471072
940.891000	-7.317867
941.097000	19.040969
941.303000	4.872467
941.508000	-8.226629
941.714000	-4.591652
941.920000	-16.159820
942.125000	-6.467472
942.331000	-3.878911
942.537000	1.848039
942.742000	0.545176
942.948000	-9.698926
943.154000	-14.472892
943.360000	-25.212465
943.565000	-8.881112
943.771000	2.687980
943.977000	4.528203
944.182000	-15.298677
944.388000	-15.534493
944.594000	-1.922715
944.799000	4.734160
945.005000	-4.552588
945.211000	1.590438
945.416000	-2.639530
945.622000	-15.006908
945.828000	-12.353264
946.034000	-2.092540
946.239000	-0.935210
946.445000	-7.561017
946.651000	-20.567315
946.856000	-19.117916
947.062000	-3.315857
947.268000	-1.017802
947.473000	-16.261358
947.679000	-18.164155
947.885000	-1.574168
948.090000	-1.765887
948.296000	11.718702
948.502000	-1.496202
948.708000	-12.276590
948.913000	-13.074257
949.119000	-1.992069
949.325000	-7.116385
949.530000	-21.008957
949.736000	-27.995999
949.942000	-20.299509
950.147000	-18.769718
950.353000	-14.082524
950.559000	-10.115688
950.764000	13.308574
950.970000	7.479562
951.176000	-10.684147
951.382000	-17.111354
951.587000	-2.873110
951.793000	1.436214
951.999000	-0.523650
952.204000	-14.531364
952.410000	-28.279696
952.616000	-13.037960
952.821000	-6.629130
953.027000	-15.669607
953.233000	-18.619657
953.438000	-19.649686
953.644000	-0.935305
953.850000	-5.316877
954.056000	-12.315953
954.261000	-11.380033
954.467000	0.669788
954.673000	6.137008
954.878000	-6.341010
955.084000	-5.636634
955.290000	-23.127784
955.495000	-24.629727
955.701000	-19.250646
955.907000	0.270533
956.112000	-0.561935
956.318000	7.797128
956.524000	5.904783
956.730000	-8.943506
956.935000	-14.391161
957.141000	-19.677152
957.347000	-5.720124
957.552000	-8.710323
957.758000	-23.279175
957.964000	-32.818110
958.169000	1.152137
958.375000	0.065417
958.581000	-15.272861
958.786000	-28.753980
958.992000	-33.805646
959.198000	-14.045738
959.404000	-5.513527
959.609000	-13.522804
959.815000	-18.972541
960.021000	0.068191
960.226000	-5.434817
960.432000	-28.631277
960.638000	-19.762753
960.843000	-12.598411
961.049000	-16.063543
961.255000	-4.515290
961.460000	-15.917295
961.666000	-34.545243
961.872000	-21.641598
962.078000	-19.435210
962.283000	-31.839178
962.489000	-32.562422
962.695000	-21.766607
962.900000	-14.047885
963.106000	-14.938176
963.312000	-18.996365
963.517000	-21.010329
963.723000	-24.942257
963.929000	-2.452085
964.134000	4.238598
964.340000	-19.057442
964.546000	-22.263723
964.752000	-28.385743
964.957000	-32.675734
965.163000	-3.077841
965.369000	-6.716211
965.574000	-4.900710
965.780000	-9.486207
966.000000	-18.799071
966.220000	-12.264000
966.440000	-12.738039
966.661000	-6.915201
966.881000	-28.268809
967.101000	-41.627059
967.321000	-40.585852
967.541000	-15.393900
967.761000	-21.778386
967.981000	-15.984320
968.202000	-12.321594
968.422000	-1.941129
968.642000	-3.812548
968.862000	-4.187096
969.082000	-13.871312
969.302000	-3.895098
969.522000	-9.857364
969.743000	0.968701
969.963000	-18.661140
970.183000	-32.652726
970.403000	-30.408430
970.623000	-26.726405
970.843000	1.642721
971.063000	-1.321870
971.284000	-23.653235
971.504000	-38.385841
971.724000	-14.699668
971.944000	-28.813976
972.164000	-40.059390
972.384000	-29.682541
972.604000	-45.374333
972.825000	-52.015512
973.045000	-38.380918
973.265000	19.306849
973.485000	11.499172
973.705000	-6.397638
973.925000	-16.045038
974.145000	-51.434596
974.365000	-17.500279
974.586000	-17.423948
974.806000	-32.309142
975.026000	-6.178434
975.246000	-21.097099
975.466000	-30.757104
975.686000	-14.729599
975.906000	-25.122374
976.127000	-49.890430
976.347000	-45.405852
976.567000	-11.465891
976.787000	-13.187135
977.007000	-22.943573
977.227000	-29.311889
977.447000	-32.455303
977.668000	-51.878461
977.888000	-33.666543
978.108000	-32.838316
978.328000	-19.240694
978.548000	8.462451
978.768000	12.262530
978.988000	-0.507351
979.209000	-19.654736
979.429000	-22.942543
979.649000	-9.393334
979.869000	-30.356362
980.089000	-46.171567
980.309000	-52.973943
980.529000	-59.630457
980.750000	-37.001164
980.970000	-47.675263
981.190000	-35.064913
981.410000	-34.115636
981.630000	-37.953108
981.850000	-23.075984
982.070000	-25.814061
982.291000	-56.131035
982.511000	-46.474549
982.731000	-11.722232
982.951000	-30.530888
983.171000	-30.066601
983.391000	-24.589333
983.611000	3.833269
983.832000	-26.462391
984.052000	-56.097120
984.272000	-37.576431
984.492000	-25.587959
984.712000	-34.698366
984.932000	-59.317311
985.152000	-64.057965
985.373000	-43.957343
985.593000	-17.891063
985.813000	-35.353599
986.033000	-46.859299
986.253000	-4.590569
986.473000	8.144766
986.693000	-32.448945
986.914000	-45.148158
987.134000	3.327107
987.354000	-31.046872
987.574000	193.070417
987.794000	109.657402
988.014000	-49.030663
988.234000	-27.732005
988.455000	-16.855543
988.675000	-14.760156
988.895000	-24.942725
989.115000	-48.085337
989.335000	-31.214478
989.555000	-11.842691
989.775000	-52.355388
989.995000	-46.456680
990.216000	-34.872670
990.436000	-32.563936
990.656000	-2.881517
990.876000	-30.378017
991.096000	-23.073538
991.316000	13.091211
991.536000	-12.632860
991.757000	-28.912790
991.977000	-80.802551
992.197000	-25.147937
992.417000	-42.426473
992.637000	-88.987319
992.857000	-91.229309
993.077000	-83.100510
993.298000	-51.065597
993.518000	-48.700507
993.738000	-97.839607
993.958000	-58.066951
994.178000	-58.996847
994.398000	-56.095334
994.618000	-93.727932
994.839000	-143.227231
995.059000	-40.490195
995.279000	22.635246
995.499000	-20.972239
995.719000	-10.604139
995.939000	-39.494788
996.159000	-39.497701
996.380000	-29.186664
996.600000	-80.895617
996.820000	-46.289784
997.040000	5.737768
997.260000	-64.697135
997.480000	-49.014806
997.700000	-106.553784
997.921000	-71.142807
998.141000	19.575981
998.361000	-4.826522
998.581000	-65.115499
998.801000	-108.753408
999.021000	-75.519454
999.241000	-50.858510
999.462000	-72.179894
999.682000	-111.499710
999.902000	-65.842745
1000.122000	-78.493600
1000.342000	-146.276537
1000.562000	-83.642807
1000.782000	-75.378868
1001.003000	-1078.247274
