Wavelength	Irradiance
(nm)	(mW/cm2/nm)

294.396000	0.000000
294.577000	0.000000
294.757000	0.000000
294.938000	-0.000000
295.118000	-0.000000
295.299000	0.000000
295.479000	-0.000000
295.660000	-0.000000
295.840000	-0.000000
296.021000	-0.000000
296.202000	-0.000000
296.382000	-0.000000
296.563000	-0.000000
296.743000	-0.000000
296.924000	0.000000
297.104000	-0.000000
297.285000	-0.000000
297.465000	-0.000000
297.646000	-0.000000
297.826000	0.000000
298.007000	0.000000
298.187000	0.000000
298.368000	-0.000000
298.548000	0.000000
298.729000	0.000000
298.909000	-0.000000
299.090000	-0.000000
299.270000	-0.000000
299.451000	-0.000000
299.631000	-0.000000
299.812000	-0.000000
299.992000	0.000000
300.173000	0.000000
300.353000	-0.000000
300.534000	0.000000
300.714000	0.000000
300.895000	0.000000
301.075000	-0.000000
301.256000	0.000000
301.436000	-0.000000
301.617000	-0.000000
301.797000	-0.000000
301.978000	0.000000
302.159000	0.000000
302.339000	0.000000
302.520000	-0.000000
302.700000	-0.000000
302.881000	0.000000
303.061000	0.000000
303.242000	0.000000
303.422000	0.000000
303.603000	-0.000000
303.783000	-0.000000
303.964000	0.000000
304.144000	-0.000000
304.325000	-0.000000
304.505000	-0.000000
304.686000	-0.000000
304.866000	0.000000
305.047000	-0.000000
305.227000	-0.000000
305.408000	-0.000000
305.588000	-0.000000
305.769000	-0.000000
305.949000	-0.000000
306.130000	-0.000000
306.310000	-0.000000
306.491000	-0.000000
306.671000	0.000000
306.852000	-0.000000
307.032000	-0.000000
307.213000	-0.000000
307.393000	-0.000000
307.574000	0.000000
307.755000	0.000000
307.935000	0.000000
308.116000	-0.000000
308.296000	-0.000000
308.477000	0.000000
308.657000	0.000000
308.838000	0.000000
309.018000	0.000000
309.199000	-0.000000
309.379000	-0.000000
309.560000	0.000000
309.740000	-0.000000
309.921000	0.000000
310.101000	0.000000
310.282000	-0.000000
310.462000	-0.000000
310.643000	-0.000000
310.823000	-0.000000
311.004000	-0.000000
311.184000	-0.000000
311.365000	0.000000
311.545000	0.000000
311.726000	0.000000
311.906000	-0.000000
312.087000	0.000000
312.267000	-0.000000
312.448000	-0.000000
312.628000	-0.000000
312.809000	-0.000000
312.989000	-0.000000
313.170000	-0.000000
313.344000	-0.000000
313.518000	-0.000000
313.691000	-0.000000
313.865000	-0.000000
314.039000	-0.000000
314.213000	-0.000000
314.387000	-0.000000
314.560000	-0.000000
314.734000	-0.000000
314.908000	-0.000000
315.082000	-0.000000
315.255000	0.000000
315.429000	0.000000
315.603000	0.000000
315.777000	-0.000000
315.951000	0.000000
316.124000	-0.000000
316.298000	-0.000000
316.472000	-0.000000
316.646000	-0.000000
316.820000	-0.000000
316.993000	-0.000000
317.167000	-0.000000
317.341000	-0.000000
317.515000	-0.000000
317.688000	-0.000000
317.862000	-0.000000
318.036000	-0.000000
318.210000	-0.000000
318.384000	-0.000000
318.557000	-0.000000
318.731000	-0.000000
318.905000	-0.000000
319.079000	0.000000
319.253000	-0.000000
319.426000	0.000000
319.600000	0.000000
319.774000	-0.000000
319.948000	-0.000000
320.122000	0.000000
320.295000	0.000000
320.469000	-0.000000
320.643000	-0.000000
320.817000	-0.000000
320.990000	-0.000000
321.164000	-0.000000
321.338000	-0.000000
321.512000	-0.000000
321.686000	-0.000000
321.859000	-0.000000
322.033000	0.000000
322.207000	-0.000000
322.381000	-0.000000
322.555000	0.000000
322.728000	0.000000
322.902000	-0.000000
323.076000	-0.000000
323.250000	-0.000000
323.423000	-0.000000
323.597000	-0.000000
323.771000	-0.000000
323.945000	-0.000000
324.119000	-0.000000
324.292000	0.000000
324.466000	-0.000000
324.640000	0.000000
324.814000	0.000000
324.988000	-0.000000
325.161000	-0.000000
325.335000	-0.000000
325.509000	-0.000000
325.683000	-0.000000
325.856000	-0.000000
326.030000	-0.000000
326.204000	-0.000000
326.378000	-0.000000
326.552000	-0.000000
326.725000	-0.000000
326.899000	-0.000000
327.073000	-0.000000
327.247000	-0.000000
327.421000	0.000000
327.594000	0.000000
327.768000	-0.000000
327.942000	-0.000000
328.116000	0.000000
328.289000	0.000000
328.463000	0.000000
328.637000	0.000000
328.811000	-0.000000
328.985000	-0.000000
329.158000	-0.000000
329.332000	-0.000000
329.506000	0.000000
329.680000	-0.000000
329.854000	-0.000000
330.027000	-0.000000
330.201000	0.000000
330.375000	0.000000
330.549000	0.000000
330.723000	-0.000000
330.896000	-0.000000
331.070000	-0.000000
331.244000	-0.000000
331.418000	-0.000000
331.591000	-0.000000
331.765000	-0.000000
331.939000	-0.000000
332.113000	-0.000000
332.287000	-0.000000
332.460000	0.000000
332.634000	0.000000
332.808000	-0.000000
332.982000	-0.000000
333.156000	-0.000000
333.329000	-0.000000
333.503000	-0.000000
333.677000	-0.000000
333.851000	-0.000000
334.024000	-0.000000
334.198000	-0.000000
334.372000	-0.000000
334.546000	-0.000000
334.720000	-0.000000
334.893000	-0.000000
335.067000	-0.000000
335.241000	0.000000
335.415000	-0.000000
335.589000	-0.000000
335.762000	-0.000000
335.936000	-0.000000
336.110000	-0.000000
336.284000	-0.000000
336.458000	-0.000000
336.631000	-0.000000
336.805000	-0.000000
336.979000	-0.000000
337.153000	-0.000000
337.326000	-0.000000
337.500000	-0.000000
337.674000	-0.000000
337.848000	-0.000000
338.022000	-0.000000
338.195000	-0.000000
338.369000	-0.000000
338.543000	-0.000000
338.717000	-0.000000
338.891000	0.000000
339.064000	0.000000
339.238000	-0.000000
339.412000	-0.000000
339.586000	-0.000000
339.759000	-0.000000
339.933000	-0.000000
340.107000	0.000000
340.281000	-0.000000
340.455000	-0.000000
340.628000	-0.000000
340.802000	-0.000000
340.976000	-0.000000
341.150000	-0.000000
341.324000	-0.000000
341.497000	-0.000000
341.671000	-0.000000
341.845000	-0.000000
342.019000	-0.000000
342.192000	-0.000000
342.366000	-0.000000
342.540000	-0.000000
342.714000	-0.000000
342.888000	-0.000000
343.061000	-0.000000
343.235000	-0.000000
343.409000	-0.000000
343.583000	-0.000000
343.757000	-0.000000
343.930000	-0.000000
344.104000	-0.000000
344.278000	0.000000
344.452000	0.000000
344.626000	-0.000000
344.799000	-0.000000
344.973000	-0.000000
345.147000	-0.000000
345.321000	-0.000000
345.494000	-0.000000
345.668000	0.000000
345.842000	0.000000
346.016000	-0.000000
346.190000	0.000000
346.363000	0.000000
346.537000	-0.000000
346.711000	-0.000000
346.885000	-0.000000
347.059000	-0.000000
347.232000	-0.000000
347.406000	0.000000
347.580000	-0.000000
347.754000	-0.000000
347.927000	-0.000000
348.101000	0.000000
348.275000	-0.000000
348.449000	-0.000000
348.623000	-0.000000
348.796000	-0.000000
348.970000	0.000000
349.144000	-0.000000
349.318000	-0.000000
349.492000	-0.000000
349.665000	-0.000000
349.839000	-0.000000
350.013000	-0.000000
350.187000	-0.000000
350.361000	-0.000000
350.534000	-0.000000
350.708000	-0.000000
350.882000	-0.000000
351.056000	0.000000
351.229000	0.000000
351.403000	-0.000000
351.577000	-0.000000
351.751000	-0.000000
351.925000	-0.000000
352.098000	-0.000000
352.272000	-0.000000
352.446000	-0.000000
352.620000	-0.000000
352.794000	-0.000000
352.967000	-0.000000
353.141000	0.000000
353.315000	0.000000
353.489000	-0.000000
353.662000	-0.000000
353.836000	-0.000000
354.010000	-0.000000
354.184000	-0.000000
354.358000	-0.000000
354.531000	-0.000000
354.705000	-0.000000
354.879000	-0.000000
355.053000	-0.000000
355.227000	0.000000
355.400000	-0.000000
355.574000	-0.000000
355.748000	0.000000
355.922000	-0.000000
356.095000	-0.000000
356.269000	-0.000000
356.443000	-0.000000
356.617000	-0.000000
356.791000	-0.000000
356.964000	-0.000000
357.138000	-0.000000
357.312000	-0.000000
357.486000	-0.000000
357.660000	-0.000000
357.833000	-0.000000
358.007000	-0.000000
358.181000	-0.000000
358.355000	-0.000000
358.529000	-0.000000
358.702000	-0.000000
358.876000	-0.000000
359.050000	-0.000000
359.224000	-0.000000
359.397000	0.000000
359.571000	-0.000000
359.745000	-0.000000
359.919000	-0.000000
360.093000	-0.021519
360.266000	0.042859
360.440000	0.072690
360.614000	0.114445
360.788000	0.039764
360.962000	-0.187120
361.135000	-0.096442
361.309000	-0.178159
361.483000	-0.296440
361.657000	-0.253292
361.830000	-0.230796
362.004000	-0.051503
362.178000	-0.367703
362.352000	-0.242017
362.526000	-0.082959
362.699000	-0.064073
362.873000	-0.379969
363.047000	-0.394772
363.221000	-0.343076
363.395000	-0.195806
363.568000	-0.220799
363.742000	-0.199102
363.916000	-0.216073
364.090000	-0.307240
364.263000	-0.267682
364.437000	-0.321217
364.611000	-0.081851
364.785000	-0.102304
364.959000	-0.252835
365.132000	-0.244531
365.306000	-0.269801
365.480000	-0.123343
365.656000	-0.185682
365.831000	-0.165469
366.007000	-0.181486
366.183000	-0.174304
366.358000	-0.303486
366.534000	-0.185539
366.710000	-0.365283
366.886000	-0.281361
367.061000	-0.090218
367.237000	0.053687
367.413000	-0.128486
367.588000	-0.338692
367.764000	-0.292695
367.940000	-0.334118
368.115000	-0.301708
368.291000	-0.334939
368.467000	-0.197818
368.643000	0.119975
368.818000	-0.259979
368.994000	-0.364189
369.170000	-0.259550
369.345000	-0.223197
369.521000	-0.267761
369.697000	-0.188431
369.872000	-0.245205
370.048000	-0.319240
370.224000	-0.271496
370.399000	-0.469012
370.575000	-0.341037
370.751000	-0.447172
370.927000	-0.440989
371.102000	-0.371863
371.278000	-0.338649
371.454000	-0.223195
371.629000	0.021126
371.805000	-0.020835
371.981000	0.114447
372.156000	0.298525
372.332000	0.075315
372.508000	-0.039806
372.683000	-0.058412
372.859000	-0.157777
373.035000	-0.185502
373.211000	0.150668
373.386000	-0.022492
373.562000	-0.388605
373.738000	-0.488615
373.913000	-0.598698
374.089000	-0.429937
374.265000	-0.044346
374.440000	0.014637
374.616000	0.010472
374.792000	-0.210985
374.968000	0.203505
375.143000	-0.042431
375.319000	-0.308647
375.495000	-0.363886
375.670000	-0.209249
375.846000	-0.133628
376.022000	-0.281851
376.197000	-0.225094
376.373000	-0.426105
376.549000	-0.445982
376.724000	-0.476627
376.900000	-0.317358
377.076000	-0.172838
377.252000	0.028282
377.427000	0.120696
377.603000	-0.211281
377.779000	-0.204687
377.954000	-0.371087
378.130000	-0.233870
378.306000	-0.193783
378.481000	-0.169259
378.657000	-0.245776
378.833000	-0.310827
379.009000	-0.133302
379.184000	0.007401
379.360000	-0.092232
379.536000	-0.087713
379.711000	-0.154975
379.887000	-0.246644
380.063000	-0.301629
380.238000	-0.353849
380.414000	-0.046404
380.590000	-0.257299
380.765000	-0.272336
380.941000	-0.057930
381.117000	-0.061450
381.293000	-0.146669
381.468000	-0.315137
381.644000	-0.252340
381.820000	-0.146027
381.995000	0.003411
382.171000	0.197188
382.347000	0.107427
382.522000	-0.327804
382.698000	0.032042
382.874000	0.078815
383.050000	-0.323898
383.225000	0.046533
383.401000	0.252574
383.577000	-0.118071
383.752000	-0.250498
383.928000	-0.193073
384.104000	-0.106506
384.279000	-0.237842
384.455000	-0.169284
384.631000	-0.185014
384.806000	-0.364036
384.982000	-0.169730
385.158000	-0.257184
385.334000	-0.060811
385.509000	-0.130631
385.685000	-0.445432
385.861000	-0.255717
386.036000	-0.385131
386.212000	-0.540060
386.388000	-0.363968
386.563000	-0.282804
386.739000	-0.307739
386.915000	-0.534833
387.090000	-0.246056
387.266000	-0.079489
387.442000	0.031818
387.618000	-0.067238
387.793000	-0.366779
387.969000	-0.480423
388.145000	-0.381018
388.320000	-0.359691
388.496000	-0.327366
388.672000	-0.536826
388.847000	-0.135873
389.023000	-0.113614
389.199000	-0.406183
389.375000	-0.205545
389.550000	-0.310149
389.726000	-0.167758
389.902000	-0.392243
390.077000	-0.223499
390.253000	-0.154717
390.429000	-0.242796
390.604000	-0.143091
390.780000	-0.119579
390.956000	-0.234292
391.131000	-0.295316
391.307000	-0.044442
391.483000	-0.189997
391.659000	-0.331632
391.834000	-0.094524
392.010000	-0.258400
392.186000	-0.337625
392.361000	-0.294396
392.537000	-0.401025
392.713000	0.090877
392.888000	0.207251
393.064000	-0.091090
393.240000	-0.217123
393.416000	-0.351117
393.591000	-0.452785
393.767000	-0.477841
393.943000	-0.338048
394.118000	-0.082273
394.294000	0.099540
394.470000	-0.046722
394.645000	0.038326
394.821000	0.248370
394.997000	-0.095043
395.172000	-0.134337
395.348000	-0.238512
395.524000	-0.532413
395.700000	-0.387311
395.875000	-0.118986
396.051000	-0.155891
396.227000	-0.211251
396.402000	-0.251118
396.578000	-0.181637
396.754000	-0.323588
396.929000	-0.300618
397.105000	-0.033909
397.281000	-0.117451
397.457000	-0.226602
397.632000	-0.234813
397.808000	-0.483993
397.984000	-0.573356
398.159000	-0.454109
398.335000	-0.279658
398.511000	0.154868
398.686000	-0.086948
398.862000	-0.302851
399.038000	-0.431160
399.213000	-0.203703
399.389000	-0.500506
399.565000	-0.195228
399.741000	0.017110
399.916000	-0.062003
400.092000	0.193812
400.268000	-0.149944
400.443000	-0.304172
400.619000	0.046708
400.795000	-0.032437
400.970000	-0.196721
401.146000	-0.291311
401.322000	-0.008737
401.497000	0.401842
401.673000	0.090839
401.849000	-0.228591
402.025000	-0.076973
402.200000	-0.187096
402.376000	-0.263274
402.552000	0.129118
402.727000	-0.060270
402.903000	-0.364371
403.079000	-0.268603
403.254000	-0.052032
403.430000	-0.048193
403.606000	-0.140387
403.782000	-0.173982
403.957000	-0.370675
404.133000	-0.486378
404.309000	-0.286072
404.484000	-0.072779
404.660000	-0.096374
404.841000	-0.216974
405.023000	-0.007449
405.204000	-0.062336
405.385000	-0.365176
405.566000	-0.372873
405.748000	-0.247007
405.929000	-0.021813
406.110000	-0.052027
406.292000	-0.189557
406.473000	-0.101642
406.654000	-0.318132
406.835000	-0.180367
407.017000	-0.212272
407.198000	-0.185737
407.379000	-0.150797
407.560000	-0.205375
407.742000	-0.249894
407.923000	-0.168454
408.104000	-0.327876
408.286000	-0.178901
408.467000	-0.143783
408.648000	-0.348280
408.829000	-0.410597
409.011000	-0.273456
409.192000	-0.455679
409.373000	-0.218487
409.555000	-0.102535
409.736000	-0.127194
409.917000	-0.232900
410.098000	-0.227912
410.280000	-0.101955
410.461000	-0.115435
410.642000	-0.149863
410.823000	0.081631
411.005000	0.028082
411.186000	-0.194650
411.367000	-0.294284
411.549000	-0.303212
411.730000	-0.060991
411.911000	0.061116
412.092000	-0.141421
412.274000	-0.205794
412.455000	-0.123687
412.636000	-0.096641
412.818000	-0.293504
412.999000	-0.381079
413.180000	-0.269628
413.361000	-0.243501
413.543000	-0.329905
413.724000	-0.419905
413.905000	-0.391879
414.087000	-0.384831
414.268000	-0.365050
414.449000	-0.359051
414.630000	-0.448769
414.812000	-0.568360
414.993000	-0.198446
415.174000	-0.035857
415.355000	-0.229831
415.537000	-0.468271
415.718000	-0.187989
415.899000	-0.281476
416.081000	-0.386098
416.262000	-0.188474
416.443000	-0.338271
416.624000	-0.278395
416.806000	-0.160517
416.987000	-0.061033
417.168000	-0.123088
417.350000	-0.296042
417.531000	-0.356292
417.712000	-0.327972
417.893000	-0.105948
418.075000	-0.015605
418.256000	-0.255839
418.437000	-0.169573
418.618000	-0.067846
418.800000	-0.004776
418.981000	-0.224029
419.162000	-0.201122
419.344000	0.002809
419.525000	-0.102528
419.706000	-0.165706
419.887000	-0.048180
420.069000	0.071109
420.250000	-0.028610
420.431000	-0.062053
420.613000	-0.125346
420.794000	-0.356290
420.975000	-0.004739
421.156000	-0.182795
421.338000	-0.248416
421.519000	-0.207402
421.700000	-0.285862
421.882000	-0.311754
422.063000	-0.119047
422.244000	0.286029
422.425000	0.056649
422.607000	-0.250731
422.788000	-0.238737
422.969000	-0.323142
423.150000	-0.361210
423.332000	-0.417083
423.513000	-0.202959
423.694000	-0.166122
423.876000	-0.146185
424.057000	-0.096536
424.238000	-0.039453
424.419000	-0.002609
424.601000	-0.167816
424.782000	-0.137245
424.963000	0.008184
425.145000	-0.108405
425.326000	-0.073536
425.507000	0.013526
425.688000	-0.085670
425.870000	-0.262583
426.051000	-0.372675
426.232000	-0.316705
426.413000	-0.318568
426.595000	-0.334123
426.776000	-0.327513
426.957000	-0.257608
427.139000	-0.183351
427.320000	-0.158223
427.501000	-0.061192
427.682000	-0.071690
427.864000	-0.056543
428.045000	0.106706
428.226000	0.047353
428.408000	-0.283631
428.589000	-0.156014
428.770000	-0.116853
428.951000	-0.242565
429.133000	-0.369522
429.314000	-0.201859
429.495000	-0.226818
429.677000	-0.199758
429.858000	-0.192464
430.039000	-0.165839
430.220000	-0.090669
430.402000	0.000643
430.583000	-0.248389
430.764000	-0.238847
430.945000	-0.108622
431.127000	-0.000425
431.308000	-0.150759
431.489000	-0.032363
431.671000	0.035916
431.852000	-0.056699
432.033000	-0.155462
432.214000	-0.085209
432.396000	-0.028962
432.577000	-0.183691
432.758000	-0.335005
432.940000	-0.281596
433.121000	-0.166829
433.302000	-0.096554
433.483000	0.064945
433.665000	0.118778
433.846000	0.011179
434.027000	-0.144002
434.208000	-0.246388
434.390000	-0.278813
434.571000	0.142514
434.752000	0.619261
434.934000	0.431192
435.115000	0.337619
435.296000	0.409255
435.477000	0.217297
435.659000	-0.051701
435.840000	0.026341
436.026000	-0.018877
436.211000	-0.153103
436.397000	-0.395497
436.582000	-0.283211
436.768000	-0.080996
436.953000	-0.189890
437.139000	-0.171179
437.325000	0.096751
437.510000	0.049178
437.696000	0.202448
437.881000	0.187014
438.067000	-0.169713
438.252000	-0.138760
438.438000	-0.179739
438.624000	-0.177743
438.809000	-0.105173
438.995000	-0.030299
439.180000	-0.109694
439.366000	-0.173105
439.551000	-0.145118
439.737000	-0.084481
439.923000	-0.044970
440.108000	-0.136909
440.294000	-0.080277
440.479000	0.027123
440.665000	0.068928
440.850000	-0.013981
441.036000	-0.030556
441.222000	-0.060979
441.407000	-0.165952
441.593000	-0.071176
441.778000	0.048954
441.964000	0.123976
442.149000	-0.204614
442.335000	-0.225736
442.521000	-0.098506
442.706000	0.068598
442.892000	-0.052007
443.077000	-0.137551
443.263000	-0.045278
443.448000	-0.104982
443.634000	-0.149782
443.820000	0.183057
444.005000	0.043089
444.191000	-0.186916
444.376000	-0.170016
444.562000	0.170099
444.747000	0.168163
444.933000	0.050324
445.119000	-0.064065
445.304000	-0.134997
445.490000	0.020202
445.675000	0.007105
445.861000	-0.179401
446.046000	-0.140664
446.232000	-0.065752
446.418000	0.006157
446.603000	0.021082
446.789000	0.017332
446.974000	-0.033086
447.160000	-0.234124
447.345000	-0.152299
447.531000	-0.203999
447.717000	-0.010616
447.902000	0.073501
448.088000	0.115835
448.273000	0.006104
448.459000	-0.031726
448.644000	-0.103720
448.830000	-0.192098
449.016000	-0.244689
449.201000	-0.164866
449.387000	-0.059648
449.572000	0.037492
449.758000	-0.054817
449.943000	-0.167642
450.129000	-0.204713
450.315000	-0.186872
450.500000	-0.200828
450.686000	-0.117364
450.871000	-0.230897
451.057000	-0.079534
451.243000	-0.090476
451.428000	-0.101646
451.614000	-0.098650
451.799000	-0.139900
451.985000	0.062028
452.170000	0.086720
452.356000	-0.124949
452.542000	-0.123264
452.727000	0.017919
452.913000	-0.096522
453.098000	0.095780
453.284000	0.232127
453.469000	0.048203
453.655000	0.148750
453.841000	0.075446
454.026000	-0.065840
454.212000	-0.010337
454.397000	-0.016707
454.583000	-0.192709
454.768000	-0.231740
454.954000	0.009598
455.140000	0.039410
455.325000	-0.146458
455.511000	-0.228729
455.696000	-0.197936
455.882000	-0.051905
456.067000	0.128106
456.253000	-0.047410
456.439000	-0.164100
456.624000	-0.190610
456.810000	-0.180194
456.995000	-0.140821
457.181000	-0.226658
457.366000	-0.034308
457.552000	0.003203
457.738000	0.088523
457.923000	0.086007
458.109000	0.214868
458.294000	0.139711
458.480000	0.087182
458.665000	0.045955
458.851000	-0.099038
459.037000	-0.252924
459.222000	-0.096620
459.408000	-0.092206
459.593000	-0.046935
459.779000	0.077625
459.964000	0.220821
460.150000	0.393540
460.336000	0.274566
460.521000	0.075537
460.707000	-0.051692
460.892000	-0.154079
461.078000	0.058851
461.263000	0.144388
461.449000	-0.049055
461.635000	-0.022937
461.820000	0.002254
462.006000	0.103264
462.191000	0.074496
462.377000	-0.134145
462.562000	0.139908
462.748000	0.328371
462.934000	-0.040730
463.119000	-0.189366
463.305000	0.003918
463.490000	-0.043563
463.676000	0.017504
463.861000	-0.008875
464.047000	-0.044577
464.233000	0.027551
464.418000	-0.002870
464.604000	-0.084573
464.789000	0.065415
464.975000	0.114785
465.160000	0.014814
465.346000	0.001346
465.532000	-0.098905
465.717000	-0.135753
465.903000	0.132346
466.088000	0.092762
466.274000	-0.104640
466.459000	-0.126481
466.645000	0.226375
466.831000	0.200846
467.016000	0.206327
467.202000	0.119716
467.387000	0.014631
467.573000	-0.131151
467.758000	0.161268
467.944000	0.046644
468.130000	-0.058317
468.315000	0.085036
468.501000	0.217695
468.686000	0.104299
468.872000	0.133179
469.057000	0.190817
469.243000	0.090427
469.429000	0.058206
469.614000	-0.024181
469.800000	-0.080111
469.985000	0.092325
470.171000	0.168767
470.356000	0.057066
470.542000	0.146175
470.728000	0.136648
470.913000	0.091897
471.099000	0.205200
471.284000	0.129450
471.470000	0.070413
471.655000	0.093459
471.841000	0.086602
472.027000	0.033118
472.212000	0.223368
472.398000	0.273247
472.583000	0.153824
472.769000	0.156576
472.954000	0.153051
473.140000	0.021724
473.326000	-0.001963
473.511000	0.286938
473.697000	0.310153
473.882000	0.164576
474.068000	0.090911
474.253000	0.011950
474.439000	0.116898
474.625000	0.187873
474.810000	0.169993
474.996000	0.201109
475.181000	0.051886
475.367000	0.216906
475.552000	0.425113
475.738000	0.150762
475.924000	0.146190
476.109000	0.251679
476.295000	0.141297
476.480000	0.216015
476.666000	0.206686
476.851000	0.215572
477.037000	0.249583
477.223000	0.163442
477.408000	0.097142
477.594000	0.016857
477.779000	0.151368
477.965000	0.186693
478.151000	0.077581
478.336000	0.238540
478.522000	0.194569
478.707000	0.151152
478.893000	0.263874
479.078000	0.118116
479.264000	0.132955
479.450000	0.212024
479.635000	0.330099
479.821000	0.253278
480.006000	0.348528
480.192000	0.341622
480.377000	0.367902
480.563000	0.362604
480.749000	0.180020
480.934000	0.236588
481.120000	0.376694
481.305000	0.458841
481.491000	0.470571
481.676000	0.505402
481.862000	0.515650
482.048000	0.380668
482.233000	0.459771
482.419000	0.455878
482.604000	0.375708
482.790000	0.400402
482.975000	0.456778
483.161000	0.625391
483.347000	0.617010
483.532000	0.600733
483.718000	0.387168
483.903000	0.445383
484.089000	0.498553
484.274000	0.436224
484.460000	0.578523
484.646000	0.628732
484.831000	0.526323
485.017000	0.572251
485.202000	0.604733
485.388000	0.891528
485.573000	0.903654
485.759000	0.714372
485.945000	0.862731
486.130000	0.724616
486.316000	0.760911
486.501000	0.874007
486.687000	0.724404
486.872000	0.662232
487.058000	0.852917
487.244000	0.890211
487.429000	0.709223
487.615000	0.904901
487.800000	1.000879
487.986000	0.920784
488.171000	1.048995
488.357000	1.014642
488.543000	1.028717
488.728000	1.077530
488.914000	1.039421
489.099000	0.969305
489.285000	0.961346
489.470000	1.172382
489.656000	1.232097
489.842000	1.229778
490.027000	1.352534
490.213000	1.204847
490.398000	0.932129
490.584000	1.218053
490.769000	1.272520
490.955000	1.346292
491.141000	1.390397
491.326000	1.380762
491.512000	1.519993
491.697000	1.453436
491.883000	1.356438
492.068000	1.319309
492.254000	1.374921
492.440000	1.475795
492.625000	1.435763
492.811000	1.444718
492.996000	1.604565
493.182000	1.630141
493.367000	1.480112
493.553000	1.463943
493.739000	1.570512
493.924000	1.702507
494.110000	1.760042
494.295000	1.675490
494.481000	1.801609
494.666000	1.863387
494.852000	2.062014
495.038000	1.917654
495.223000	1.854663
495.409000	1.955901
495.594000	1.956004
495.780000	2.060313
495.965000	2.020155
496.151000	2.238040
496.337000	2.329618
496.522000	2.137883
496.708000	2.277525
496.893000	2.460767
497.079000	2.340920
497.264000	2.343441
497.450000	2.415071
497.636000	2.581395
497.821000	2.442015
498.007000	2.715187
498.192000	2.831970
498.378000	2.690184
498.563000	2.680159
498.749000	2.778638
498.935000	2.807863
499.120000	2.952242
499.306000	2.847763
499.491000	2.895043
499.677000	3.043559
499.862000	3.143687
500.048000	3.270650
500.234000	3.205705
500.419000	3.242668
500.605000	3.449539
500.790000	3.403715
500.976000	3.354661
501.161000	3.358431
501.347000	3.592688
501.533000	3.751609
501.718000	3.679309
501.904000	3.648856
502.089000	3.823152
502.275000	3.989432
502.460000	3.935701
502.646000	4.028965
502.832000	4.140151
503.017000	4.173482
503.203000	4.038681
503.388000	4.067176
503.574000	4.371354
503.759000	4.488889
503.945000	4.591209
504.131000	4.563809
504.316000	4.588396
504.502000	4.707464
504.687000	4.738071
504.873000	4.680300
505.058000	4.723650
505.244000	4.787614
505.430000	4.954598
505.615000	5.113536
505.801000	5.201608
505.986000	5.087868
506.172000	5.236177
506.358000	5.317346
506.543000	5.397816
506.729000	5.662275
506.914000	5.666836
507.100000	5.854739
507.285000	5.736217
507.471000	5.725870
507.657000	6.031523
507.842000	5.915709
508.028000	5.872239
508.213000	5.974925
508.399000	6.085842
508.584000	6.273243
508.770000	6.217713
508.956000	6.215442
509.141000	6.303596
509.327000	6.493219
509.512000	6.447718
509.698000	6.546393
509.883000	6.683233
510.069000	6.658955
510.255000	6.745739
510.440000	6.843597
510.626000	6.786527
510.811000	6.796303
510.997000	6.962609
511.182000	7.252452
511.368000	7.183524
511.554000	6.869091
511.739000	7.046269
511.925000	7.261258
512.110000	7.281623
512.296000	7.447392
512.481000	7.482384
512.667000	7.480053
512.853000	7.282467
513.038000	7.356929
513.224000	7.406111
513.409000	7.297726
513.595000	7.446231
513.780000	7.331493
513.966000	7.433309
514.152000	7.453484
514.337000	7.408344
514.523000	7.454761
514.708000	7.572449
514.894000	7.608648
515.079000	7.426476
515.265000	7.501125
515.451000	7.559825
515.636000	7.475383
515.822000	7.558854
516.007000	7.439933
516.193000	7.607371
516.378000	7.677676
516.564000	7.580315
516.750000	7.563601
516.935000	7.625474
517.121000	7.651421
517.306000	7.739887
517.492000	7.683658
517.677000	7.364241
517.863000	7.323636
518.049000	7.489826
518.234000	7.338952
518.420000	7.408669
518.605000	7.605590
518.791000	7.492830
518.976000	7.317529
519.162000	7.225648
519.348000	7.309694
519.533000	7.228792
519.719000	7.336380
519.904000	7.226471
520.090000	7.166579
520.275000	7.326609
520.461000	7.201782
520.647000	6.933937
520.832000	6.722866
521.018000	6.753211
521.203000	6.727881
521.389000	6.523712
521.574000	6.507791
521.760000	6.647405
521.946000	6.644079
522.131000	6.515862
522.317000	6.475008
522.502000	6.389583
522.688000	6.438615
522.873000	6.292160
523.059000	6.195111
523.245000	6.203923
523.430000	6.032291
523.616000	5.996497
523.801000	5.875151
523.987000	5.914207
524.172000	5.949411
524.358000	5.938915
524.544000	5.866563
524.729000	5.896433
524.915000	5.896732
525.100000	5.722067
525.286000	5.682494
525.471000	5.620976
525.657000	5.585096
525.843000	5.319182
526.028000	5.436751
526.214000	5.320117
526.399000	5.144224
526.585000	5.054127
526.770000	5.013304
526.956000	5.112244
527.142000	4.934407
527.327000	5.038957
527.513000	4.875278
527.698000	4.820451
527.884000	4.795740
528.069000	4.669471
528.255000	4.775812
528.441000	4.667091
528.626000	4.637342
528.812000	4.854677
528.997000	4.637990
529.183000	4.434562
529.368000	4.479403
529.554000	4.436764
529.740000	4.375276
529.925000	4.276977
530.111000	4.253925
530.296000	4.273703
530.482000	4.332382
530.667000	4.204762
530.853000	4.193614
531.039000	4.067606
531.224000	4.090316
531.410000	4.128363
531.595000	3.991100
531.781000	3.988289
531.967000	3.813588
532.152000	3.942843
532.338000	3.786420
532.523000	3.602179
532.709000	3.543332
532.894000	3.594846
533.080000	3.607452
533.266000	3.445611
533.451000	3.384623
533.637000	3.425591
533.822000	3.525063
534.008000	3.322172
534.193000	3.341594
534.379000	3.414158
534.565000	3.266081
534.750000	3.186636
534.936000	3.396041
535.121000	3.199780
535.307000	3.206226
535.492000	3.188734
535.678000	2.937940
535.864000	3.046842
536.049000	3.270826
536.235000	3.033692
536.420000	2.980853
536.606000	2.901102
536.791000	2.775284
536.977000	2.731619
537.163000	2.942632
537.348000	2.914427
537.534000	2.905371
537.719000	2.679584
537.905000	2.524148
538.090000	2.730506
538.276000	2.797137
538.462000	2.730644
538.647000	2.708621
538.833000	2.565920
539.018000	2.646725
539.204000	2.601343
539.389000	2.422075
539.575000	2.695692
539.761000	2.597577
539.946000	2.272541
540.132000	2.380857
540.317000	2.252682
540.503000	2.350438
540.688000	2.420113
540.874000	2.632354
541.060000	2.735412
541.245000	2.519961
541.431000	2.320922
541.616000	2.374677
541.802000	2.302459
541.987000	2.353513
542.173000	2.323050
542.359000	2.231203
542.544000	2.341088
542.730000	2.133669
542.915000	2.078237
543.101000	2.251895
543.286000	2.038733
543.472000	1.908134
543.658000	2.001270
543.843000	1.968139
544.029000	2.167494
544.214000	2.020537
544.400000	1.682589
544.585000	1.828000
544.771000	1.931266
544.957000	2.089708
545.142000	2.158978
545.328000	2.191532
545.513000	2.185926
545.699000	2.154253
545.884000	1.953312
546.070000	1.842667
546.261000	1.772217
546.451000	1.583655
546.642000	1.367971
546.833000	1.472071
547.023000	1.348144
547.214000	1.355794
547.405000	1.494985
547.595000	1.739876
547.786000	1.706847
547.977000	1.413818
548.167000	1.193498
548.358000	1.253274
548.549000	1.643088
548.740000	1.406383
548.930000	1.051693
549.121000	1.119684
549.312000	1.089110
549.502000	1.020732
549.693000	1.150549
549.884000	1.222997
550.074000	1.299659
550.265000	1.053439
550.456000	1.146877
550.646000	1.244105
550.837000	1.175054
551.028000	1.015807
551.218000	1.114747
551.409000	0.974168
551.600000	1.021995
551.790000	1.142254
551.981000	0.869479
552.172000	0.865336
552.362000	1.186470
552.553000	1.227245
552.744000	1.043553
552.934000	0.933244
553.125000	0.861797
553.316000	0.800798
553.506000	1.150382
553.697000	0.971290
553.888000	0.953261
554.079000	1.082362
554.269000	1.036728
554.460000	0.722015
554.651000	0.657117
554.841000	0.527598
555.032000	0.608325
555.223000	0.676262
555.413000	0.851370
555.604000	0.799677
555.795000	0.705035
555.985000	0.802242
556.176000	0.700477
556.367000	0.397118
556.557000	0.540490
556.748000	0.619822
556.939000	0.554919
557.129000	0.477542
557.320000	0.621097
557.511000	0.579759
557.701000	0.555245
557.892000	0.594197
558.083000	0.784064
558.273000	0.687160
558.464000	0.490723
558.655000	0.519865
558.845000	0.584366
559.036000	0.617820
559.227000	0.610010
559.418000	0.712870
559.608000	0.719684
559.799000	0.405809
559.990000	0.360185
560.180000	0.415943
560.371000	0.257533
560.562000	0.315955
560.752000	0.492850
560.943000	0.302254
561.134000	0.081763
561.324000	0.351532
561.515000	0.647183
561.706000	0.449759
561.896000	0.186719
562.087000	0.298695
562.278000	0.255357
562.468000	0.111786
562.659000	0.243252
562.850000	0.542124
563.040000	0.600467
563.231000	0.159518
563.422000	0.292847
563.612000	0.173152
563.803000	0.269374
563.994000	0.176638
564.185000	0.087362
564.375000	0.321160
564.566000	0.287261
564.757000	0.279949
564.947000	0.183556
565.138000	0.300584
565.329000	0.236668
565.519000	0.073173
565.710000	0.157319
565.901000	0.340671
566.091000	0.445218
566.282000	0.263805
566.473000	0.292770
566.663000	0.282133
566.854000	0.057661
567.045000	0.182537
567.235000	0.263188
567.426000	0.247188
567.617000	0.258748
567.807000	0.211300
567.998000	0.219910
568.189000	0.114786
568.379000	0.214791
568.570000	0.297768
568.761000	0.232008
568.951000	0.177822
569.142000	0.127539
569.333000	0.065789
569.524000	-0.041831
569.714000	-0.084326
569.905000	-0.157867
570.096000	0.207175
570.286000	0.312798
570.477000	0.453137
570.668000	0.239462
570.858000	0.183919
571.049000	0.060427
571.240000	-0.055807
571.430000	0.175385
571.621000	0.117463
571.812000	0.183927
572.002000	0.186453
572.193000	0.010537
572.384000	0.126825
572.574000	0.182924
572.765000	0.111352
572.956000	0.039988
573.146000	0.191047
573.337000	0.100029
573.528000	0.107486
573.718000	0.242026
573.909000	0.251453
574.100000	0.196463
574.290000	0.044861
574.481000	0.060901
574.672000	0.058816
574.863000	0.170165
575.053000	0.004926
575.244000	0.114954
575.435000	0.003842
575.625000	0.026140
575.816000	0.004882
576.007000	0.095092
576.197000	0.105872
576.388000	0.094872
576.579000	0.217625
576.769000	0.193055
576.960000	-0.097616
577.155000	-0.223771
577.350000	0.077445
577.545000	0.193883
577.740000	-0.017174
577.935000	0.263969
578.130000	0.217112
578.326000	-0.051506
578.521000	0.188211
578.716000	0.218464
578.911000	-0.041863
579.106000	0.080107
579.301000	0.199244
579.496000	0.021134
579.691000	-0.239245
579.886000	-0.059706
580.081000	0.054715
580.276000	0.075965
580.471000	-0.007534
580.666000	-0.133549
580.861000	-0.147726
581.057000	-0.128505
581.252000	0.001627
581.447000	-0.073458
581.642000	-0.064435
581.837000	-0.069423
582.032000	-0.032791
582.227000	0.194798
582.422000	0.144219
582.617000	-0.051387
582.812000	-0.152968
583.007000	-0.104050
583.202000	-0.203339
583.397000	0.063049
583.592000	0.302420
583.788000	0.014402
583.983000	-0.005322
584.178000	0.107840
584.373000	-0.067099
584.568000	-0.108074
584.763000	-0.140515
584.958000	-0.211052
585.153000	-0.125817
585.348000	-0.110079
585.543000	0.031960
585.738000	-0.008231
585.933000	-0.169959
586.128000	0.065255
586.324000	0.055602
586.519000	0.054580
586.714000	0.145990
586.909000	0.190538
587.104000	0.152662
587.299000	0.044900
587.494000	0.053688
587.689000	0.000591
587.884000	0.022333
588.079000	-0.034985
588.274000	-0.034059
588.469000	-0.036955
588.664000	0.085683
588.859000	0.068962
589.055000	0.037298
589.250000	0.004565
589.445000	-0.122617
589.640000	-0.117743
589.835000	0.162085
590.030000	0.227809
590.225000	0.191969
590.420000	-0.028346
590.615000	-0.149250
590.810000	-0.110166
591.005000	-0.073544
591.200000	-0.140734
591.395000	-0.181804
591.591000	-0.050425
591.786000	0.020593
591.981000	-0.078606
592.176000	0.003617
592.371000	0.021709
592.566000	-0.052627
592.761000	0.106041
592.956000	0.100186
593.151000	0.173702
593.346000	0.033908
593.541000	0.028832
593.736000	0.008697
593.931000	-0.126864
594.126000	-0.083485
594.322000	-0.040931
594.517000	-0.137150
594.712000	-0.260841
594.907000	-0.269916
595.102000	-0.112426
595.297000	0.009770
595.492000	0.064863
595.687000	-0.130190
595.882000	-0.207960
596.077000	-0.096703
596.272000	0.106106
596.467000	0.119460
596.662000	-0.023997
596.857000	-0.017915
597.053000	-0.015883
597.248000	-0.013814
597.443000	0.024362
597.638000	-0.010762
597.833000	-0.247959
598.028000	-0.038688
598.223000	0.082502
598.418000	-0.031565
598.613000	-0.137454
598.808000	-0.034702
599.003000	-0.048260
599.198000	-0.239940
599.393000	-0.168033
599.589000	-0.026516
599.784000	-0.206215
599.979000	-0.138516
600.174000	0.071819
600.369000	-0.143997
600.564000	-0.079123
600.759000	0.129854
600.954000	0.236617
601.149000	0.089003
601.344000	-0.242638
601.539000	-0.052085
601.734000	-0.140466
601.929000	-0.350888
602.124000	-0.273000
602.320000	-0.032173
602.515000	0.209160
602.710000	0.133223
602.905000	-0.221017
603.100000	-0.292662
603.295000	-0.190304
603.490000	-0.080212
603.685000	-0.065330
603.880000	-0.056887
604.075000	-0.222569
604.270000	-0.233744
604.465000	-0.126622
604.660000	-0.324731
604.856000	-0.188663
605.051000	0.018860
605.246000	-0.032549
605.441000	-0.299370
605.636000	-0.321964
605.831000	-0.163640
606.026000	-0.252656
606.221000	-0.288470
606.416000	-0.128492
606.611000	0.058817
606.806000	0.040467
607.001000	0.194620
607.196000	-0.028476
607.391000	-0.252103
607.587000	-0.041561
607.782000	-0.051370
607.977000	-0.258838
608.172000	0.117785
608.367000	0.155742
608.562000	-0.060204
608.757000	-0.088431
608.952000	-0.152882
609.147000	0.215987
609.342000	0.131362
609.537000	-0.081188
609.732000	-0.039784
609.927000	-0.088791
610.122000	0.039991
610.318000	0.368150
610.513000	0.509506
610.708000	0.366551
610.903000	0.449215
611.098000	0.491939
611.293000	0.400827
611.488000	0.419573
611.683000	0.389468
611.878000	0.300344
612.073000	0.315858
612.268000	0.283104
612.463000	0.330179
612.658000	0.271578
612.854000	0.194582
613.049000	0.103764
613.244000	0.235823
613.439000	0.284739
613.634000	-0.047167
613.829000	0.100815
614.024000	-0.007138
614.219000	-0.030557
614.414000	0.294166
614.609000	0.037552
614.804000	-0.151365
614.999000	-0.156811
615.194000	-0.085552
615.389000	-0.046414
615.585000	-0.201496
615.780000	-0.020684
615.975000	-0.077042
616.170000	-0.086115
616.365000	0.158641
616.560000	0.257051
616.755000	0.163807
616.950000	0.076612
617.145000	0.142476
617.340000	-0.006131
617.535000	-0.301342
617.730000	-0.072084
617.925000	-0.211137
618.120000	-0.251075
618.316000	0.082885
618.511000	-0.003885
618.706000	-0.201141
618.901000	-0.179260
619.096000	-0.013116
619.291000	-0.069431
619.486000	-0.003921
619.681000	-0.324756
619.876000	-0.377681
620.071000	-0.202515
620.266000	0.077083
620.461000	0.179254
620.656000	0.083173
620.852000	0.011138
621.047000	-0.112114
621.242000	-0.201931
621.437000	0.132607
621.632000	0.232325
621.827000	0.028803
622.022000	-0.238337
622.217000	-0.081540
622.412000	0.115974
622.607000	0.084298
622.802000	-0.139470
622.997000	-0.183692
623.192000	-0.074936
623.387000	-0.046579
623.583000	-0.262260
623.778000	0.071982
623.973000	0.045880
624.168000	0.030501
624.363000	0.082796
624.558000	0.112728
624.753000	-0.178601
624.948000	0.054615
625.143000	0.077427
625.338000	-0.044902
625.533000	-0.138590
625.728000	-0.014908
625.923000	0.170348
626.119000	0.040515
626.314000	-0.211703
626.509000	-0.217197
626.704000	-0.159504
626.899000	-0.162071
627.094000	-0.201228
627.289000	-0.188277
627.484000	-0.137385
627.679000	-0.168092
627.874000	-0.132785
628.069000	0.208056
628.264000	0.107366
628.459000	0.008108
628.654000	-0.074270
628.850000	-0.239878
629.045000	-0.106731
629.240000	-0.141461
629.435000	-0.186218
629.630000	-0.060040
629.825000	-0.089809
630.020000	-0.051557
630.215000	-0.215825
630.410000	-0.189189
630.605000	-0.171835
630.800000	-0.091781
630.995000	0.073439
631.190000	0.351157
631.385000	0.136476
631.581000	-0.060927
631.776000	0.000756
631.971000	-0.153414
632.166000	-0.047299
632.361000	-0.168867
632.556000	-0.093045
632.751000	0.077067
632.946000	-0.079382
633.141000	-0.179154
633.336000	-0.165376
633.531000	-0.068457
633.726000	-0.085017
633.921000	-0.258569
634.117000	-0.396820
634.312000	-0.505411
634.507000	-0.386044
634.702000	-0.258857
634.897000	-0.225594
635.092000	-0.091306
635.287000	-0.013516
635.482000	-0.182939
635.677000	-0.056568
635.872000	0.022942
636.067000	0.098776
636.262000	-0.068731
636.457000	-0.376748
636.652000	-0.370769
636.848000	-0.368958
637.043000	-0.304658
637.238000	-0.255294
637.433000	-0.345318
637.628000	-0.299070
637.823000	-0.078582
638.018000	-0.044271
638.213000	-0.229022
638.408000	-0.291729
638.603000	-0.342748
638.798000	-0.372583
638.993000	-0.259733
639.188000	-0.267842
639.383000	-0.321575
639.579000	0.063606
639.774000	-0.157315
639.969000	-0.302160
640.164000	-0.347190
640.359000	-0.359671
640.554000	-0.135219
640.749000	-0.105880
640.944000	-0.077688
641.139000	-0.077529
641.334000	-0.249514
641.529000	-0.645907
641.724000	-0.479732
641.919000	-0.316143
642.115000	-0.008727
642.310000	0.010349
642.505000	-0.109439
642.700000	-0.150547
642.895000	-0.312406
643.090000	-0.134549
643.285000	0.080138
643.480000	0.002193
643.675000	-0.045819
643.870000	0.285342
644.065000	0.115130
644.260000	-0.245620
644.455000	-0.200560
644.650000	-0.289555
644.846000	-0.184468
645.041000	-0.380667
645.236000	-0.513225
645.431000	-0.447358
645.626000	-0.621820
645.821000	-0.437211
646.016000	-0.291122
646.211000	0.101124
646.406000	-0.028468
646.601000	-0.061900
646.796000	-0.233329
646.991000	-0.456415
647.186000	-0.298151
647.381000	-0.076054
647.577000	-0.078925
647.772000	-0.014554
647.967000	-0.069269
648.162000	-0.103004
648.357000	-0.167783
648.552000	0.037364
648.747000	0.003654
648.942000	-0.001969
649.137000	-0.079562
649.332000	-0.244930
649.527000	-0.229295
649.722000	0.024841
649.917000	0.121173
650.113000	-0.175886
650.308000	-0.337545
650.503000	-0.266608
650.698000	-0.087139
650.893000	-0.195138
651.088000	-0.115681
651.283000	-0.004842
651.478000	-0.293967
651.673000	-0.064596
651.868000	-0.220123
652.063000	0.009428
652.258000	0.140958
652.453000	0.310254
652.648000	-0.034837
652.844000	-0.126305
653.039000	-0.072133
653.234000	-0.473020
653.429000	-0.591471
653.624000	-0.386091
653.819000	-0.111170
654.014000	-0.151416
654.209000	-0.339060
654.404000	-0.151656
654.599000	-0.283312
654.794000	-0.287144
654.989000	0.009532
655.184000	-0.111920
655.380000	-0.432581
655.575000	-0.418180
655.770000	-0.356637
655.965000	-0.211951
656.160000	-0.245378
656.355000	-0.100507
656.550000	-0.151659
656.745000	-0.087801
656.940000	-0.185347
657.135000	-0.137304
657.330000	-0.118444
657.525000	-0.323841
657.720000	-0.104149
657.915000	0.019820
658.111000	-0.109924
658.306000	0.105926
658.501000	-0.111727
658.696000	-0.360189
658.891000	-0.067859
659.086000	-0.165779
659.281000	-0.133835
659.476000	-0.309988
659.671000	-0.719035
659.866000	-0.477318
660.061000	-0.122419
660.256000	-0.002056
660.451000	-0.081429
660.646000	-0.315547
660.842000	-0.186246
661.037000	-0.346985
661.232000	-0.351911
661.427000	-0.193810
661.622000	-0.302038
661.817000	-0.390593
662.012000	-0.200526
662.207000	-0.360720
662.402000	-0.403228
662.597000	-0.186439
662.792000	-0.504140
662.987000	-0.512632
663.182000	-0.220716
663.378000	-0.186658
663.573000	-0.548217
663.768000	-0.582817
663.963000	-0.419479
664.158000	-0.371437
664.353000	0.075668
664.548000	0.238585
664.743000	-0.085904
664.938000	-0.379196
665.133000	-0.364802
665.328000	0.059440
665.523000	-0.017145
665.718000	-0.202153
665.913000	-0.270244
666.109000	-0.233105
666.304000	0.006943
666.499000	-0.174058
666.694000	-0.077747
666.889000	0.262557
667.084000	-0.050685
667.279000	-0.194731
667.474000	-0.205463
667.669000	-0.132593
667.864000	-0.188948
668.059000	-0.146643
668.254000	-0.151398
668.449000	-0.325402
668.644000	-0.282965
668.840000	0.008536
669.035000	-0.273838
669.230000	-0.545862
669.425000	-0.184529
669.620000	-0.319378
669.815000	-0.351295
670.010000	-0.369410
670.205000	-0.182091
670.400000	-0.169485
670.595000	-0.157681
670.790000	-0.265828
670.985000	-0.224431
671.180000	-0.005254
671.376000	-0.350158
671.571000	-0.464089
671.766000	-0.407679
671.961000	-0.434256
672.156000	-0.447246
672.351000	-0.287026
672.546000	-0.304789
672.741000	-0.156264
672.936000	-0.136209
673.131000	0.349415
673.326000	0.024446
673.521000	-0.417818
673.716000	-0.524457
673.911000	-0.647250
674.107000	-0.060381
674.302000	0.222809
674.497000	-0.069944
674.692000	-0.397891
674.887000	-0.403993
675.082000	-0.293710
675.277000	-0.072024
675.472000	-0.140424
675.667000	-0.325187
675.862000	-0.381064
676.057000	-0.277787
676.252000	-0.214527
676.447000	-0.261455
676.643000	-0.086974
676.838000	0.129106
677.033000	-0.162653
677.228000	0.158558
677.423000	0.084637
677.618000	-0.357211
677.813000	-0.463426
678.008000	-0.201237
678.203000	-0.115623
678.398000	-0.404608
678.593000	-0.214869
678.788000	-0.121134
678.983000	-0.392553
679.178000	-0.256085
679.374000	-0.331407
679.569000	-0.217822
679.764000	-0.298714
679.959000	-0.471800
680.154000	-0.466970
680.349000	-0.691018
680.544000	-0.574913
680.739000	-0.402355
680.934000	-0.495046
681.129000	-0.488169
681.324000	-0.533445
681.519000	-0.314371
681.714000	-0.355992
681.909000	-0.426869
682.105000	-0.574420
682.300000	-0.164280
682.495000	-0.000667
682.690000	-0.012376
682.885000	-0.127878
683.080000	-0.346430
683.275000	-0.344924
683.470000	0.044723
683.665000	0.257134
683.860000	0.397674
684.055000	0.075324
684.250000	-0.352308
684.445000	-0.361875
684.641000	0.073812
684.836000	-0.170252
685.031000	-0.201501
685.226000	-0.222223
685.421000	0.035205
685.616000	-0.221139
685.811000	-0.305610
686.006000	0.001028
686.201000	-0.120749
686.396000	-0.534435
686.591000	-0.450972
686.786000	0.025228
686.981000	-0.140669
687.176000	-0.109829
687.372000	-0.212275
687.567000	0.084324
687.762000	-0.021574
687.957000	-0.139877
688.152000	-0.256988
688.347000	-0.187587
688.542000	-0.457701
688.737000	-0.832038
688.932000	-0.852736
689.127000	-0.432580
689.322000	-0.130989
689.517000	-0.331628
689.712000	-0.535943
689.908000	-0.393258
690.103000	-0.431226
690.298000	-0.291312
690.493000	-0.313394
690.688000	-0.548583
690.883000	-0.359484
691.078000	0.038567
691.273000	0.060000
691.468000	-0.159954
691.663000	-0.187503
691.858000	-0.036645
692.053000	-0.130048
692.248000	-0.031286
692.443000	-0.096013
692.639000	-0.209722
692.834000	0.006502
693.029000	0.541343
693.224000	0.395044
693.419000	-0.229687
693.614000	-0.315690
693.809000	-0.428880
694.004000	-0.511830
694.199000	-0.486148
694.394000	-0.196657
694.589000	-0.545138
694.784000	-0.531013
694.979000	-0.264965
695.174000	-0.304267
695.370000	0.238007
695.565000	-0.006259
695.760000	-0.345782
695.955000	0.028854
696.150000	0.117673
696.345000	-0.346215
696.540000	-0.116103
696.740000	-0.236879
696.940000	-0.075174
697.140000	0.017955
697.340000	-0.219958
697.539000	-0.086980
697.739000	-0.242666
697.939000	-0.224068
698.139000	-0.491058
698.339000	-0.839854
698.539000	-0.600037
698.739000	-0.614877
698.939000	-0.475224
699.138000	-0.538743
699.338000	0.158381
699.538000	0.244563
699.738000	-0.222011
699.938000	-0.332915
700.138000	-0.457768
700.338000	-0.545385
700.538000	-0.308359
700.737000	-0.315945
700.937000	-0.696314
701.137000	-0.710817
701.337000	-0.114584
701.537000	-0.049105
701.737000	-0.292328
701.937000	-0.372333
702.137000	-0.289134
702.337000	-0.433071
702.536000	-0.573815
702.736000	-0.541444
702.936000	-0.723380
703.136000	-0.129710
703.336000	-0.104292
703.536000	-0.343512
703.736000	-0.723449
703.936000	-0.620047
704.135000	-0.568810
704.335000	-0.216847
704.535000	-0.436060
704.735000	-0.645494
704.935000	-0.130635
705.135000	-0.198488
705.335000	-0.371723
705.535000	-0.151645
705.735000	-0.113913
705.934000	-0.149558
706.134000	-0.411521
706.334000	-0.422442
706.534000	-0.520646
706.734000	-0.469232
706.934000	-0.534983
707.134000	-0.535122
707.334000	-0.298500
707.533000	-0.309059
707.733000	-0.342839
707.933000	-0.429278
708.133000	-0.164784
708.333000	-0.077192
708.533000	-0.292825
708.733000	0.003222
708.933000	-0.222500
709.132000	-0.354189
709.332000	-0.362879
709.532000	-0.487339
709.732000	-0.286228
709.932000	-0.751575
710.132000	-0.722715
710.332000	-0.872373
710.532000	-0.276724
710.732000	-0.096427
710.931000	-0.391694
711.131000	-0.442277
711.331000	-0.276942
711.531000	-0.412636
711.731000	-0.407513
711.931000	-0.340294
712.131000	-0.339886
712.331000	-0.226937
712.530000	-0.321104
712.730000	-0.529858
712.930000	-0.358882
713.130000	-0.370465
713.330000	-0.509451
713.530000	-0.310033
713.730000	0.341732
713.930000	-0.040264
714.129000	-0.515010
714.329000	-0.643541
714.529000	-0.304275
714.729000	0.044985
714.929000	-0.090390
715.129000	-0.457707
715.329000	-0.368343
715.529000	-0.348885
715.729000	0.250290
715.928000	-0.013427
716.128000	-0.288442
716.328000	-0.211393
716.528000	-0.291736
716.728000	-0.192710
716.928000	-0.433113
717.128000	-0.256560
717.328000	-0.237501
717.527000	-0.466270
717.727000	-0.428608
717.927000	-0.362004
718.127000	-0.408975
718.327000	-0.788768
718.527000	-0.745804
718.727000	-0.271413
718.927000	-0.402096
719.127000	-0.673712
719.326000	-0.459697
719.526000	-0.084240
719.726000	-0.236539
719.926000	-0.734204
720.126000	-0.695607
720.326000	-0.437431
720.526000	-0.506344
720.726000	-0.397842
720.925000	-0.151984
721.125000	-0.601089
721.325000	-0.347144
721.525000	-0.311104
721.725000	-0.473868
721.925000	-0.512192
722.125000	-0.494825
722.325000	0.020887
722.524000	-0.262760
722.724000	-0.713217
722.924000	-0.800572
723.124000	-0.613426
723.324000	-0.156361
723.524000	-0.097321
723.724000	-0.680986
723.924000	-0.538112
724.124000	-0.326855
724.323000	-0.040579
724.523000	-0.115461
724.723000	0.239811
724.923000	0.005743
725.123000	-0.111443
725.323000	0.023480
725.523000	-0.233920
725.723000	-0.521889
725.922000	-0.498062
726.122000	-0.365301
726.322000	-0.495511
726.522000	-0.449162
726.722000	0.168409
726.922000	-0.158944
727.122000	-0.248852
727.322000	0.126598
727.521000	-0.117491
727.721000	-0.389370
727.921000	-0.310792
728.121000	-0.335410
728.321000	-0.700395
728.521000	-0.539833
728.721000	-0.402965
728.921000	-0.018967
729.121000	0.688913
729.320000	0.107776
729.520000	-0.363211
729.720000	-0.570211
729.920000	-0.447585
730.120000	-0.287328
730.320000	-0.247014
730.520000	-0.538913
730.720000	-0.513169
730.919000	-0.501641
731.119000	-0.156678
731.319000	-0.620392
731.519000	-0.771713
731.719000	-0.326918
731.919000	-0.483289
732.119000	-1.006375
732.319000	-1.009534
732.519000	-0.411973
732.718000	-0.703863
732.918000	-0.658182
733.118000	-0.444059
733.318000	-0.084693
733.518000	-0.382545
733.718000	-0.958625
733.918000	-0.912555
734.118000	-0.611576
734.317000	-0.316862
734.517000	-0.533760
734.717000	-0.491716
734.917000	-0.048012
735.117000	-0.106964
735.317000	-0.260040
735.517000	0.136042
735.717000	0.408860
735.916000	-0.427401
736.116000	-0.580892
736.316000	-0.398702
736.516000	-0.293814
736.716000	-0.293963
736.916000	-0.799854
737.116000	-0.597043
737.316000	0.027877
737.516000	-0.053937
737.715000	-0.140712
737.915000	-0.685559
738.115000	-0.680481
738.315000	-0.363966
738.515000	-0.676014
738.715000	-0.482852
738.915000	0.125749
739.115000	-0.420832
739.314000	-0.557027
739.514000	-0.030350
739.714000	0.114345
739.914000	-0.060047
740.114000	-0.378214
740.314000	-0.168768
740.514000	0.295550
740.714000	-0.459704
740.913000	-0.959485
741.113000	-0.776947
741.313000	-0.331770
741.513000	-0.387572
741.713000	-0.281082
741.913000	-0.212059
742.113000	-0.389856
742.313000	-0.928702
742.513000	-0.562170
742.712000	-0.404942
742.912000	-0.680300
743.112000	-0.545776
743.312000	-0.881698
743.512000	-0.614054
743.712000	-0.383803
743.912000	-1.015755
744.112000	-1.149402
744.311000	-1.096089
744.511000	-0.645894
744.711000	-0.281770
744.911000	-0.625218
745.111000	-0.610499
745.311000	-0.138170
745.511000	-0.464830
745.711000	-0.711648
745.911000	-0.419129
746.110000	-0.824629
746.310000	-0.962780
746.510000	-0.697316
746.710000	-0.145133
746.910000	-0.056112
747.110000	-0.615600
747.310000	-0.982368
747.510000	-0.811810
747.709000	-0.460945
747.909000	-0.398532
748.109000	-0.059556
748.309000	-0.347411
748.509000	-0.732203
748.709000	-0.823299
748.909000	-0.525849
749.109000	-0.501254
749.308000	-0.076449
749.508000	-0.336096
749.708000	-0.465936
749.908000	-0.168682
750.108000	-0.163761
750.308000	-0.858122
750.508000	-0.099288
750.708000	-0.617758
750.908000	-1.010128
751.107000	-0.289106
751.307000	0.341366
751.507000	-0.287235
751.707000	-0.314349
751.907000	-0.400512
752.107000	-0.283021
752.307000	-0.694403
752.507000	-0.493250
752.706000	-0.604056
752.906000	0.372003
753.106000	-0.490087
753.306000	-1.074549
753.506000	-0.107916
753.706000	-0.507995
753.906000	-0.263049
754.106000	-0.082911
754.305000	-0.150789
754.505000	-0.094561
754.705000	-0.359813
754.905000	-0.437319
755.105000	-0.189576
755.305000	-0.956064
755.505000	-0.766710
755.705000	-0.236559
755.905000	-0.366847
756.104000	-0.937797
756.304000	-1.313090
756.504000	-1.509808
756.704000	-0.440683
756.904000	-0.213525
757.104000	-0.489195
757.304000	-0.486755
757.504000	-0.109414
757.703000	-0.460391
757.903000	-0.033425
758.103000	0.189797
758.303000	-0.251613
758.503000	-0.444292
758.703000	-0.587455
758.903000	-0.768417
759.103000	-0.360616
759.303000	-0.347424
759.502000	-0.471281
759.702000	-0.168806
759.902000	-0.557739
760.102000	-0.486702
760.302000	-0.473213
760.502000	-0.127905
760.702000	-0.167361
760.902000	-0.428069
761.101000	-0.784520
761.301000	-1.014000
761.501000	-0.731386
761.701000	-0.870037
761.901000	-0.629419
762.101000	-0.191625
762.301000	-0.388169
762.501000	-0.818775
762.700000	-0.918262
762.900000	-0.872259
763.100000	-0.533105
763.300000	-0.206165
763.500000	-0.492301
763.703000	-0.719877
763.905000	-0.930940
764.108000	-0.076138
764.311000	-0.488098
764.513000	-0.619921
764.716000	-0.387137
764.919000	-0.466192
765.121000	-0.969201
765.324000	-1.104503
765.527000	-0.894908
765.729000	-0.638205
765.932000	0.071733
766.135000	-0.055212
766.337000	-0.391761
766.540000	-0.517269
766.743000	-0.254781
766.945000	-0.753863
767.148000	-1.211351
767.351000	-1.102066
767.553000	-0.352409
767.756000	-0.649458
767.958000	-0.971830
768.161000	-0.627365
768.364000	-0.901757
768.566000	-1.140700
768.769000	-0.554991
768.972000	-0.281365
769.174000	-0.638266
769.377000	-1.164222
769.580000	-1.179835
769.782000	-0.375224
769.985000	-0.925922
770.188000	-1.904400
770.390000	-1.028836
770.593000	0.584620
770.796000	0.184196
770.998000	-0.326178
771.201000	-0.807676
771.404000	-0.449933
771.606000	-0.758647
771.809000	-0.624996
772.012000	-0.562711
772.214000	-1.442665
772.417000	-1.449510
772.620000	-0.314746
772.822000	-0.633025
773.025000	-0.881826
773.228000	-0.977745
773.430000	-0.928787
773.633000	-0.569007
773.836000	-0.447977
774.038000	-0.259477
774.241000	-0.439363
774.444000	-0.696148
774.646000	0.260675
774.849000	-0.154848
775.052000	-0.434455
775.254000	-0.319142
775.457000	-0.708027
775.659000	-0.661816
775.862000	-0.904993
776.065000	-0.632207
776.267000	-0.008242
776.470000	0.284944
776.673000	-0.450150
776.875000	0.102481
777.078000	0.050468
777.281000	-0.907013
777.483000	-0.307710
777.686000	-0.123454
777.889000	-0.242285
778.091000	-0.032930
778.294000	-1.099827
778.497000	-0.898086
778.699000	-0.793639
778.902000	-0.810420
779.105000	-0.578308
779.307000	0.276885
779.510000	-0.643978
779.713000	-0.423192
779.915000	-0.659287
780.118000	0.425717
780.321000	0.529592
780.523000	-0.419372
780.726000	-0.848384
780.929000	-0.965966
781.131000	-0.974617
781.334000	-1.455862
781.537000	-1.477942
781.739000	-0.354684
781.942000	-0.932159
782.145000	-1.506274
782.347000	-1.318549
782.550000	-0.956326
782.753000	-1.108817
782.955000	-1.027823
783.158000	-0.910405
783.361000	-0.627219
783.563000	-0.678562
783.766000	-0.797745
783.968000	1.060639
784.171000	0.877214
784.374000	-0.463016
784.576000	-0.617909
784.779000	-0.285250
784.982000	0.143076
785.184000	-0.504602
785.387000	-0.210510
785.590000	0.356630
785.792000	0.331771
785.995000	0.148513
786.198000	-0.148004
786.400000	-0.506995
786.603000	-0.496937
786.806000	-0.732924
787.008000	-0.525511
787.211000	-0.285270
787.414000	-0.954405
787.616000	-0.721749
787.819000	-0.639416
788.022000	-1.409074
788.224000	-0.772241
788.427000	-1.305956
788.630000	-0.725339
788.832000	-0.486112
789.035000	-1.015217
789.238000	-1.667779
789.440000	-1.343869
789.643000	-0.086721
789.846000	-0.715936
790.048000	-0.332371
790.251000	-0.130022
790.454000	-0.432797
790.656000	0.228505
790.859000	-0.576103
791.062000	-0.949073
791.264000	-0.314532
791.467000	-1.262665
791.669000	-1.716963
791.872000	-0.646089
792.075000	-1.036341
792.277000	-0.870604
792.480000	-0.581439
792.683000	-1.027414
792.885000	-1.250424
793.088000	-1.056054
793.291000	-1.254159
793.493000	-1.308397
793.696000	-0.509332
793.899000	-0.246147
794.101000	-0.560139
794.304000	-0.742634
794.507000	-0.396874
794.709000	-0.199796
794.912000	-0.821893
795.115000	-1.177438
795.317000	-0.774439
795.520000	-0.471434
795.723000	-0.715334
795.925000	-1.180547
796.128000	-1.466200
796.331000	-1.063547
796.533000	-1.400258
796.736000	-0.768745
796.939000	-0.637582
797.141000	-0.714275
797.344000	0.006674
797.547000	-0.026708
797.749000	-0.248238
797.952000	-0.816537
798.155000	-1.254821
798.357000	-1.452114
798.560000	-1.210142
798.763000	-0.382916
798.965000	-0.623765
799.168000	-0.642561
799.371000	-0.456352
799.573000	-0.773355
799.776000	-1.457657
799.978000	-1.462718
800.181000	-0.598398
800.384000	0.961325
800.586000	0.157724
800.789000	-1.427523
800.992000	-1.361987
801.194000	-1.468534
801.397000	-1.437728
801.600000	-1.199601
801.802000	-0.027818
802.005000	-0.263368
802.208000	-1.571606
802.410000	-0.665853
802.613000	-0.502032
802.816000	-0.660785
803.018000	-1.362973
803.221000	-1.188979
803.424000	0.148600
803.626000	-0.192239
803.829000	-0.663874
804.032000	0.238806
804.234000	0.911282
804.437000	-0.592248
804.640000	-0.743711
804.842000	-0.579666
805.045000	-1.041746
805.248000	-0.845240
805.450000	-0.826391
805.653000	-0.781750
805.856000	-0.998316
806.058000	-0.079056
806.261000	-1.058393
806.464000	-1.045775
806.666000	-0.490384
806.869000	-0.911692
807.072000	-2.087844
807.274000	-2.286918
807.477000	-1.177470
807.679000	-0.850846
807.882000	-1.310651
808.085000	-1.016852
808.287000	-0.328101
808.490000	-1.239276
808.693000	-0.983148
808.895000	-0.759708
809.098000	-0.760076
809.301000	-0.753227
809.503000	-0.954578
809.706000	-0.011381
809.909000	0.187754
810.111000	0.050328
810.314000	-0.444466
810.517000	-1.130795
810.719000	-1.285038
810.922000	-0.897683
811.125000	0.103246
811.327000	0.137487
811.530000	-0.397686
811.735000	-0.888625
811.940000	-1.112783
812.146000	-0.957412
812.351000	-0.394830
812.556000	-0.702659
812.761000	-1.349248
812.967000	-0.325530
813.172000	-0.246829
813.377000	-0.596386
813.582000	0.062161
813.788000	-0.295068
813.993000	-1.404252
814.198000	-0.686446
814.403000	-1.454418
814.609000	-0.505814
814.814000	-0.573236
815.019000	0.338111
815.224000	0.182966
815.429000	-0.927953
815.635000	-0.521972
815.840000	-0.603396
816.045000	-0.535073
816.250000	-0.215595
816.456000	-1.412930
816.661000	-2.406961
816.866000	-1.684063
817.071000	-1.590755
817.277000	-2.302489
817.482000	-1.402275
817.687000	-0.709469
817.892000	-0.755028
818.097000	-0.215647
818.303000	0.211477
818.508000	0.658148
818.713000	7.410602
818.918000	3.793051
819.124000	0.275293
819.329000	-0.916633
819.534000	-1.114414
819.739000	-1.156682
819.945000	-1.098576
820.150000	-0.710621
820.355000	-0.631943
820.560000	-0.332154
820.766000	-0.397045
820.971000	-0.426172
821.176000	-1.842264
821.381000	-2.566578
821.586000	-1.540326
821.792000	-0.040078
821.997000	-0.679794
822.202000	-0.946353
822.407000	-1.531603
822.613000	-1.660266
822.818000	-1.019322
823.023000	-0.637306
823.228000	-0.834289
823.434000	-0.084794
823.639000	0.157813
823.844000	-0.798890
824.049000	0.031005
824.255000	0.114422
824.460000	-0.643979
824.665000	-1.097517
824.870000	-0.013457
825.075000	-0.181900
825.281000	-0.244390
825.486000	0.751114
825.691000	-1.596404
825.896000	-2.639733
826.102000	-0.912309
826.307000	-0.737782
826.512000	-1.135420
826.717000	-0.863376
826.923000	-1.009765
827.128000	-0.677345
827.333000	-1.523715
827.538000	-0.550219
827.744000	0.085304
827.949000	-1.005381
828.154000	-0.693268
828.359000	0.132264
828.564000	-0.572881
828.770000	-0.864646
828.975000	0.305444
829.180000	-0.270105
829.385000	-1.715169
829.591000	-1.286412
829.796000	-0.812676
830.001000	-0.808215
830.206000	-1.365756
830.412000	-1.171520
830.617000	-1.222677
830.822000	-0.063139
831.027000	-0.844418
831.232000	-1.507721
831.438000	-1.346526
831.643000	-0.640680
831.848000	-0.820654
832.053000	-0.780560
832.259000	-1.028844
832.464000	-2.836025
832.669000	-2.373347
832.874000	-1.903544
833.080000	-1.862040
833.285000	-0.040001
833.490000	-0.158868
833.695000	-1.582774
833.901000	-1.375155
834.106000	-1.725684
834.311000	-1.308071
834.516000	-0.850849
834.721000	-1.388024
834.927000	-0.092746
835.132000	-0.589831
835.337000	0.902221
835.542000	-0.256153
835.748000	-1.936236
835.953000	-0.041671
836.158000	-0.146208
836.363000	-0.592422
836.569000	-0.365869
836.774000	-1.332410
836.979000	-1.784448
837.184000	-2.054374
837.390000	-1.732176
837.595000	-1.116525
837.800000	-0.851684
838.005000	-0.594584
838.210000	-0.971665
838.416000	-1.407753
838.621000	-1.066106
838.826000	-1.234681
839.031000	-1.172982
839.237000	-1.791815
839.442000	-2.419454
839.647000	-2.614648
839.852000	-1.827268
840.058000	-1.619666
840.263000	-1.419309
840.468000	-2.268730
840.673000	-1.316608
840.878000	-1.046487
841.084000	-1.787670
841.289000	-1.006253
841.494000	1.509303
841.699000	1.436314
841.905000	0.423640
842.110000	0.368757
842.315000	-1.693020
842.520000	-0.947254
842.726000	-1.358298
842.931000	-1.923293
843.136000	-0.876217
843.341000	-2.278865
843.547000	-1.396159
843.752000	-1.070839
843.957000	-1.870638
844.162000	-1.805925
844.367000	-1.264101
844.573000	-0.506632
844.778000	-0.431420
844.983000	-0.373235
845.188000	-0.017864
845.394000	-1.970799
845.599000	-1.808625
845.804000	-1.521600
846.009000	-0.737294
846.215000	-2.010717
846.420000	-1.627250
846.625000	-0.645676
846.830000	0.118914
847.036000	-0.975834
847.241000	-1.587648
847.446000	-0.356870
847.651000	-0.852678
847.856000	-2.045011
848.062000	-2.168327
848.267000	-0.245514
848.472000	-1.219274
848.677000	-2.513023
848.883000	-0.497779
849.088000	0.893021
849.293000	-0.871063
849.498000	-1.394786
849.704000	-0.393931
849.909000	-0.954600
850.114000	-1.874082
850.319000	-0.684320
850.524000	-0.800884
850.730000	-0.894559
850.935000	-1.191028
851.140000	-0.141930
851.345000	-0.101131
851.551000	-0.207779
851.756000	-0.258242
851.961000	-1.471115
852.166000	-1.653389
852.372000	-1.177909
852.577000	-1.136523
852.782000	-1.405402
852.987000	0.239427
853.193000	-0.238610
853.398000	-0.591660
853.603000	-1.890129
853.808000	-2.540034
854.013000	-1.428211
854.219000	0.013594
854.424000	1.634240
854.629000	1.278820
854.834000	-1.277031
855.040000	-0.678980
855.245000	-0.201977
855.450000	-2.782841
855.655000	-3.911459
855.861000	-3.692678
856.066000	-2.573587
856.271000	-2.375659
856.476000	-0.250374
856.682000	-1.348727
856.887000	-4.035546
857.092000	-2.422500
857.297000	0.325605
857.502000	-0.092704
857.708000	-0.816310
857.913000	0.023261
858.118000	-0.644681
858.323000	-0.836745
858.529000	-0.862576
858.734000	-1.227574
858.939000	-1.031146
859.144000	-1.828404
859.350000	-2.987545
859.555000	-2.740586
859.760000	-0.730758
859.965000	-0.058885
860.171000	-1.777893
860.376000	-0.532625
860.581000	-2.320422
860.786000	-4.665943
860.991000	-3.832361
861.197000	-2.751540
861.402000	-1.235818
861.607000	-1.725980
861.812000	-2.848687
862.018000	-3.001931
862.223000	-1.714817
862.428000	-0.682704
862.633000	0.206626
862.839000	-0.648792
863.044000	-1.789874
863.249000	-2.627190
863.454000	-0.662779
863.659000	-1.520078
863.865000	-2.123452
864.070000	-2.011505
864.275000	-2.730963
864.480000	-2.240885
864.686000	-3.910815
864.891000	-3.191444
865.096000	-0.889035
865.301000	-0.292914
865.507000	-0.465006
865.712000	-0.535122
865.917000	-1.587446
866.122000	-0.489462
866.328000	-3.248360
866.533000	-3.042831
866.738000	-0.085479
866.943000	-0.197832
867.148000	0.436856
867.354000	-1.781809
867.559000	-2.836833
867.764000	-1.240427
867.969000	-0.661993
868.175000	-2.106232
868.380000	-2.980371
868.585000	-3.538441
868.790000	-1.263294
868.996000	-1.525128
869.201000	-3.064600
869.406000	-4.130700
869.611000	-3.263227
869.817000	-2.429807
870.022000	1.992638
870.227000	-0.336133
870.432000	-2.349456
870.637000	-0.930518
870.843000	-1.477548
871.048000	-1.608314
871.253000	-0.253749
871.458000	-1.377634
871.664000	-3.261970
871.869000	-3.148846
872.074000	-2.627148
872.279000	-1.442355
872.485000	-1.919206
872.690000	-2.117596
872.895000	-2.148802
873.100000	-2.668383
873.306000	-2.758743
873.511000	-1.550386
873.716000	0.052400
873.921000	-1.867855
874.126000	-2.508093
874.332000	-1.475554
874.537000	-0.697542
874.742000	-1.075167
874.947000	-1.657741
875.153000	0.543762
875.358000	-0.940363
875.563000	-1.500382
875.768000	-4.053013
875.974000	-4.258188
876.179000	-0.559579
876.384000	-0.704652
876.589000	-2.470673
876.794000	-2.149919
877.000000	-3.339080
877.205000	-4.329074
877.410000	-1.172462
877.615000	-3.213411
877.821000	-4.939246
878.026000	-3.522490
878.231000	-4.079535
878.436000	-4.329332
878.642000	-3.417445
878.847000	-1.757883
879.052000	-0.482300
879.257000	-2.523839
879.463000	-3.145553
879.668000	-2.466249
879.873000	-0.526505
880.078000	-2.905362
880.283000	-4.616194
880.489000	-4.940995
880.694000	-4.083930
880.899000	-1.965059
881.104000	-0.843048
881.310000	1.036009
881.515000	-0.271386
881.720000	0.986460
881.925000	2.155348
882.131000	3.421158
882.336000	0.458633
882.541000	-3.329167
882.746000	-3.202057
882.952000	-3.615395
883.157000	-3.180084
883.362000	-3.171884
883.567000	-4.131249
883.772000	-4.395062
883.978000	-3.058935
884.183000	-1.362616
884.388000	-1.956837
884.593000	-4.268530
884.799000	0.368197
885.004000	0.197522
885.209000	-1.588974
885.414000	-1.178879
885.620000	-3.945340
885.825000	-0.894901
886.030000	-1.589646
886.235000	-2.918511
886.440000	-2.028380
886.646000	-4.606819
886.851000	-4.671901
887.056000	-0.187811
887.261000	-0.720987
887.467000	-3.780165
887.672000	-0.643774
887.877000	-2.172061
888.082000	-4.645539
888.288000	-5.127973
888.493000	-7.535094
888.698000	-5.604576
888.903000	-2.103496
889.109000	-3.528403
889.314000	-0.424689
889.519000	-1.761371
889.724000	0.311277
889.929000	-1.520692
890.135000	-2.219180
890.340000	-2.119145
890.545000	-3.443863
890.750000	-5.159680
890.956000	-3.492255
891.161000	-0.810366
891.366000	-3.159681
891.571000	-2.211381
891.777000	-1.816084
891.982000	-0.035493
892.187000	-0.852523
892.392000	0.157060
892.598000	-0.423205
892.803000	-0.862912
893.008000	-2.964634
893.213000	-3.211442
893.418000	-3.490511
893.624000	-3.432223
893.829000	-5.723859
894.034000	-3.045857
894.239000	-1.411286
894.445000	-3.846142
894.650000	-3.834899
894.855000	-3.993023
895.060000	-4.307839
895.266000	-3.780734
895.471000	-4.831220
895.676000	-1.460305
895.881000	-0.942390
896.087000	-2.721600
896.292000	-4.137229
896.497000	0.451427
896.702000	-1.562656
896.907000	-3.438739
897.113000	1.131517
897.318000	0.941401
897.523000	-0.133030
897.728000	-2.502332
897.934000	-2.319954
898.139000	-2.278680
898.344000	-0.070575
898.549000	-1.522772
898.755000	-3.398780
898.960000	-3.826110
899.165000	-5.697839
899.370000	-2.064065
899.575000	1.466869
899.781000	-2.994605
899.986000	-3.766437
900.191000	-1.791150
900.396000	-3.083560
900.602000	-2.802515
900.807000	-2.805562
901.012000	-1.879183
901.217000	-0.361888
901.423000	-2.837993
901.628000	-4.673678
901.833000	-0.363657
902.038000	-0.229481
902.244000	-3.781161
902.449000	-3.442668
902.654000	-3.426872
902.859000	-1.912061
903.064000	0.027844
903.270000	0.499499
903.475000	-4.114414
903.680000	-6.607076
903.885000	-5.603759
904.091000	-4.730388
904.296000	-6.027958
904.501000	-5.142491
904.706000	-4.246726
904.912000	-0.043396
905.117000	-2.059045
905.322000	-4.839781
905.527000	-4.398279
905.733000	-3.799517
905.938000	-3.658182
906.143000	-4.277701
906.348000	-5.897706
906.553000	-1.542082
906.759000	-0.269322
906.964000	-1.548768
907.169000	-3.012916
907.374000	-5.778512
907.580000	-4.311461
907.785000	-3.556437
907.990000	16.976195
908.195000	11.488135
908.401000	-0.612123
908.606000	-8.240470
908.811000	-9.994662
909.016000	-2.823899
909.221000	-2.008884
909.427000	-3.046267
909.632000	-4.923987
909.837000	-4.216761
910.042000	-5.716353
910.248000	-7.885879
910.453000	-3.235302
910.658000	-4.323441
910.863000	-4.584527
911.069000	-5.667472
911.274000	-1.268228
911.479000	0.241075
911.684000	-6.735806
911.890000	-3.940289
912.095000	-3.798565
912.300000	-6.208777
912.506000	-5.262514
912.711000	-4.858091
912.917000	-2.745540
913.123000	-2.020331
913.328000	-2.226621
913.534000	-2.051461
913.740000	7.059784
913.946000	3.158266
914.151000	-3.821464
914.357000	-5.888072
914.563000	-1.659767
914.768000	-5.621853
914.974000	-7.071421
915.180000	-6.212024
915.385000	-5.054992
915.591000	-8.539542
915.797000	-2.907985
916.002000	0.361272
916.208000	-3.559578
916.414000	-5.836186
916.620000	-6.502672
916.825000	-3.313067
917.031000	-3.831454
917.237000	-9.543389
917.442000	-5.744081
917.648000	-6.988242
917.854000	-7.151388
918.059000	-0.661178
918.265000	-0.539848
918.471000	-4.054832
918.676000	-7.109324
918.882000	-9.078374
919.088000	-7.613725
919.294000	-12.573372
919.499000	-7.449886
919.705000	-1.118278
919.911000	-3.082686
920.116000	-1.154859
920.322000	-7.776060
920.528000	-5.891499
920.733000	-8.109077
920.939000	-8.691628
921.145000	-6.976168
921.350000	-5.902992
921.556000	-4.033409
921.762000	-4.368744
921.968000	-5.580447
922.173000	-7.308020
922.379000	-9.377042
922.585000	-4.563383
922.790000	-6.155372
922.996000	-7.937160
923.202000	-8.590165
923.407000	-8.756049
923.613000	-6.410278
923.819000	-3.927849
924.024000	-3.679586
924.230000	-1.420253
924.436000	-3.896374
924.642000	5.357400
924.847000	1.003694
925.053000	-6.531676
925.259000	-10.893214
925.464000	-4.714013
925.670000	-5.381412
925.876000	-7.478524
926.081000	-8.052702
926.287000	-3.907180
926.493000	-2.463123
926.698000	-4.558619
926.904000	-1.879743
927.110000	-4.648747
927.316000	-4.820519
927.521000	2.231923
927.727000	-3.601058
927.933000	-5.904524
928.138000	-5.678543
928.344000	-10.966698
928.550000	-5.784843
928.755000	-0.625770
928.961000	-6.290357
929.167000	-6.620200
929.372000	0.572299
929.578000	-1.424230
929.784000	-7.583173
929.990000	-10.341172
930.195000	-6.938996
930.401000	-6.185578
930.607000	-3.981225
930.812000	-3.544782
931.018000	-6.593906
931.224000	-13.039703
931.429000	-9.037733
931.635000	-11.858009
931.841000	-12.218819
932.046000	-8.011854
932.252000	-2.941479
932.458000	3.864892
932.664000	-0.590218
932.869000	-7.003560
933.075000	-9.953007
933.281000	-8.623135
933.486000	-1.580400
933.692000	-5.406565
933.898000	-9.716215
934.103000	-2.469446
934.309000	-6.338018
934.515000	-3.424875
934.720000	-1.509921
934.926000	1.689117
935.132000	0.698413
935.338000	-3.545945
935.543000	-11.693721
935.749000	-12.255169
935.955000	-13.384279
936.160000	-11.035149
936.366000	-2.411120
936.572000	-2.158803
936.777000	-0.891686
936.983000	1.603546
937.189000	-3.815103
937.394000	-9.997834
937.600000	-0.692397
937.806000	3.333220
938.012000	-5.722827
938.217000	5.403953
938.423000	1.008216
938.629000	-8.935210
938.834000	-14.312198
939.040000	-13.325028
939.246000	-7.924295
939.451000	-11.274623
939.657000	-7.319630
939.863000	-11.795507
940.068000	-1.876293
940.274000	-6.586673
940.480000	-4.473417
940.686000	-3.981831
940.891000	-7.152492
941.097000	15.163420
941.303000	3.511973
941.508000	-7.287807
941.714000	-4.181016
941.920000	-16.013944
942.125000	-5.940734
942.331000	-3.295165
942.537000	3.957747
942.742000	0.969202
942.948000	-10.431440
943.154000	-12.949140
943.360000	-23.986629
943.565000	-8.673268
943.771000	2.359071
943.977000	5.722207
944.182000	-14.247280
944.388000	-16.850210
944.594000	-0.881244
944.799000	7.260201
945.005000	-2.296187
945.211000	2.200391
945.416000	-0.428345
945.622000	-14.124832
945.828000	-12.693478
946.034000	-2.170041
946.239000	-2.302054
946.445000	-8.582138
946.651000	-17.941326
946.856000	-16.396882
947.062000	-3.510907
947.268000	0.214274
947.473000	-14.964513
947.679000	-17.460678
947.885000	-4.004781
948.090000	-0.813158
948.296000	13.119516
948.502000	-0.571720
948.708000	-10.331723
948.913000	-13.993055
949.119000	-1.141871
949.325000	-6.607184
949.530000	-20.219800
949.736000	-24.856434
949.942000	-15.321781
950.147000	-16.303125
950.353000	-12.961343
950.559000	-7.236939
950.764000	14.036532
950.970000	5.550160
951.176000	-10.417994
951.382000	-14.348983
951.587000	-3.283555
951.793000	-0.091813
951.999000	1.137808
952.204000	-11.776541
952.410000	-24.481897
952.616000	-12.672050
952.821000	-8.231493
953.027000	-15.559577
953.233000	-18.079383
953.438000	-17.214214
953.644000	0.172468
953.850000	-4.938523
954.056000	-10.826769
954.261000	-10.759059
954.467000	-2.056724
954.673000	5.374102
954.878000	-5.717748
955.084000	-6.470937
955.290000	-21.752103
955.495000	-21.883984
955.701000	-17.397788
955.907000	0.874031
956.112000	-1.900865
956.318000	5.266843
956.524000	5.814368
956.730000	-10.200966
956.935000	-12.074121
957.141000	-14.666375
957.347000	-3.170705
957.552000	-8.375036
957.758000	-23.514751
957.964000	-33.705086
958.169000	1.565167
958.375000	2.805676
958.581000	-11.642727
958.786000	-24.531367
958.992000	-30.287951
959.198000	-9.961199
959.404000	-2.782806
959.609000	-12.697883
959.815000	-16.779357
960.021000	1.106217
960.226000	-6.069262
960.432000	-28.426279
960.638000	-18.493865
960.843000	-10.723370
961.049000	-12.211772
961.255000	-1.207213
961.460000	-14.875092
961.666000	-35.205749
961.872000	-21.746147
962.078000	-17.996468
962.283000	-27.969666
962.489000	-29.815795
962.695000	-21.300355
962.900000	-13.666458
963.106000	-12.173670
963.312000	-18.231857
963.517000	-20.617066
963.723000	-26.195296
963.929000	-2.224572
964.134000	7.703485
964.340000	-16.276637
964.546000	-18.065321
964.752000	-23.753977
964.957000	-29.091495
965.163000	-3.454898
965.369000	-6.076572
965.574000	-2.997870
965.780000	-10.456387
966.000000	-19.814994
966.220000	-12.426796
966.440000	-11.310579
966.661000	-0.859827
966.881000	-21.047922
967.101000	-38.559997
967.321000	-38.821249
967.541000	-13.887975
967.761000	-19.314683
967.981000	-12.723557
968.202000	-13.408510
968.422000	0.347665
968.642000	0.442872
968.862000	-4.462304
969.082000	-13.802005
969.302000	-3.312367
969.522000	-10.088475
969.743000	4.364048
969.963000	-15.140925
970.183000	-27.786949
970.403000	-26.125987
970.623000	-24.546913
970.843000	-1.901011
971.063000	-2.454902
971.284000	-22.523875
971.504000	-36.523922
971.724000	-13.981304
971.944000	-28.473234
972.164000	-36.812493
972.384000	-27.233273
972.604000	-41.193679
972.825000	-47.896661
973.045000	-31.918602
973.265000	23.226117
973.485000	9.707387
973.705000	-8.940727
973.925000	-16.021885
974.145000	-50.651565
974.365000	-18.069393
974.586000	-15.790081
974.806000	-34.575832
975.026000	-1.724214
975.246000	-14.796001
975.466000	-29.461941
975.686000	-14.467422
975.906000	-24.024910
976.127000	-46.033988
976.347000	-37.981230
976.567000	-8.266397
976.787000	-9.915327
977.007000	-20.109052
977.227000	-25.360333
977.447000	-28.257698
977.668000	-50.614404
977.888000	-33.113337
978.108000	-32.472089
978.328000	-20.356681
978.548000	10.409212
978.768000	14.515382
978.988000	-3.156848
979.209000	-18.995369
979.429000	-22.349931
979.649000	-11.779599
979.869000	-32.764271
980.089000	-46.073359
980.309000	-52.001811
980.529000	-57.770210
980.750000	-35.277095
980.970000	-45.125466
981.190000	-33.789025
981.410000	-30.356081
981.630000	-36.975097
981.850000	-23.682407
982.070000	-19.590745
982.291000	-48.381371
982.511000	-45.240995
982.731000	-11.689940
982.951000	-28.469526
983.171000	-30.199786
983.391000	-25.931158
983.611000	4.029847
983.832000	-25.173584
984.052000	-54.366356
984.272000	-32.459420
984.492000	-20.626682
984.712000	-36.116369
984.932000	-56.638692
985.152000	-63.023894
985.373000	-47.486765
985.593000	-19.005937
985.813000	-25.771782
986.033000	-35.904935
986.253000	2.164659
986.473000	8.801316
986.693000	-30.037199
986.914000	-40.042458
987.134000	7.763250
987.354000	-32.564200
987.574000	147.251806
987.794000	86.742481
988.014000	-44.939834
988.234000	-28.100129
988.455000	-11.650155
988.675000	-13.369255
988.895000	-24.362662
989.115000	-35.754090
989.335000	-14.888207
989.555000	-1.139938
989.775000	-47.543394
989.995000	-41.642987
990.216000	-24.098481
990.436000	-24.736482
990.656000	10.428346
990.876000	-23.230248
991.096000	-13.328335
991.316000	13.475582
991.536000	-17.224465
991.757000	-36.057078
991.977000	-79.910371
992.197000	-23.529386
992.417000	-39.418008
992.637000	-80.948845
992.857000	-84.364186
993.077000	-79.531160
993.298000	-40.214801
993.518000	-38.177282
993.738000	-87.358609
993.958000	-49.241577
994.178000	-56.364442
994.398000	-46.785230
994.618000	-84.467799
994.839000	-127.852557
995.059000	-31.237718
995.279000	35.459016
995.499000	-9.937259
995.719000	-12.914227
995.939000	-33.581727
996.159000	-35.863674
996.380000	-19.457776
996.600000	-71.868638
996.820000	-38.619588
997.040000	6.861035
997.260000	-60.651573
997.480000	-44.053282
997.700000	-101.605856
997.921000	-64.630598
998.141000	20.403135
998.361000	-10.333706
998.581000	-57.225503
998.801000	-95.740179
999.021000	-59.741687
999.241000	-23.672573
999.462000	-59.219021
999.682000	-120.492174
999.902000	-69.452755
1000.122000	-82.250388
1000.342000	-138.999622
1000.562000	-65.435554
1000.782000	-60.703721
1001.003000	-1020.310817
