Wavelength	Irradiance
(nm)	(mW/cm2/nm)

294.396000	0.000000
294.577000	0.000000
294.757000	0.000000
294.938000	-0.000000
295.118000	-0.000000
295.299000	0.000000
295.479000	-0.000000
295.660000	-0.000000
295.840000	-0.000000
296.021000	-0.000000
296.202000	-0.000000
296.382000	-0.000000
296.563000	-0.000000
296.743000	-0.000000
296.924000	0.000000
297.104000	-0.000000
297.285000	-0.000000
297.465000	-0.000000
297.646000	-0.000000
297.826000	0.000000
298.007000	0.000000
298.187000	-0.000000
298.368000	-0.000000
298.548000	0.000000
298.729000	0.000000
298.909000	-0.000000
299.090000	-0.000000
299.270000	-0.000000
299.451000	-0.000000
299.631000	-0.000000
299.812000	-0.000000
299.992000	0.000000
300.173000	0.000000
300.353000	-0.000000
300.534000	0.000000
300.714000	0.000000
300.895000	0.000000
301.075000	-0.000000
301.256000	0.000000
301.436000	-0.000000
301.617000	-0.000000
301.797000	-0.000000
301.978000	0.000000
302.159000	0.000000
302.339000	0.000000
302.520000	-0.000000
302.700000	-0.000000
302.881000	0.000000
303.061000	0.000000
303.242000	0.000000
303.422000	0.000000
303.603000	-0.000000
303.783000	-0.000000
303.964000	0.000000
304.144000	-0.000000
304.325000	-0.000000
304.505000	0.000000
304.686000	-0.000000
304.866000	0.000000
305.047000	0.000000
305.227000	-0.000000
305.408000	-0.000000
305.588000	-0.000000
305.769000	-0.000000
305.949000	-0.000000
306.130000	-0.000000
306.310000	-0.000000
306.491000	-0.000000
306.671000	0.000000
306.852000	-0.000000
307.032000	-0.000000
307.213000	-0.000000
307.393000	-0.000000
307.574000	0.000000
307.755000	0.000000
307.935000	0.000000
308.116000	-0.000000
308.296000	-0.000000
308.477000	0.000000
308.657000	0.000000
308.838000	0.000000
309.018000	0.000000
309.199000	-0.000000
309.379000	-0.000000
309.560000	0.000000
309.740000	-0.000000
309.921000	0.000000
310.101000	-0.000000
310.282000	-0.000000
310.462000	-0.000000
310.643000	-0.000000
310.823000	-0.000000
311.004000	-0.000000
311.184000	-0.000000
311.365000	0.000000
311.545000	0.000000
311.726000	0.000000
311.906000	0.000000
312.087000	0.000000
312.267000	-0.000000
312.448000	-0.000000
312.628000	-0.000000
312.809000	-0.000000
312.989000	-0.000000
313.170000	-0.000000
313.344000	-0.000000
313.518000	-0.000000
313.691000	-0.000000
313.865000	-0.000000
314.039000	-0.000000
314.213000	-0.000000
314.387000	-0.000000
314.560000	-0.000000
314.734000	-0.000000
314.908000	-0.000000
315.082000	-0.000000
315.255000	0.000000
315.429000	0.000000
315.603000	0.000000
315.777000	-0.000000
315.951000	0.000000
316.124000	-0.000000
316.298000	-0.000000
316.472000	-0.000000
316.646000	-0.000000
316.820000	-0.000000
316.993000	-0.000000
317.167000	-0.000000
317.341000	-0.000000
317.515000	-0.000000
317.688000	-0.000000
317.862000	-0.000000
318.036000	-0.000000
318.210000	-0.000000
318.384000	-0.000000
318.557000	-0.000000
318.731000	-0.000000
318.905000	-0.000000
319.079000	0.000000
319.253000	-0.000000
319.426000	0.000000
319.600000	0.000000
319.774000	-0.000000
319.948000	-0.000000
320.122000	0.000000
320.295000	0.000000
320.469000	-0.000000
320.643000	-0.000000
320.817000	-0.000000
320.990000	-0.000000
321.164000	-0.000000
321.338000	-0.000000
321.512000	-0.000000
321.686000	-0.000000
321.859000	-0.000000
322.033000	0.000000
322.207000	0.000000
322.381000	-0.000000
322.555000	0.000000
322.728000	-0.000000
322.902000	-0.000000
323.076000	-0.000000
323.250000	-0.000000
323.423000	-0.000000
323.597000	-0.000000
323.771000	-0.000000
323.945000	-0.000000
324.119000	-0.000000
324.292000	0.000000
324.466000	-0.000000
324.640000	0.000000
324.814000	0.000000
324.988000	-0.000000
325.161000	-0.000000
325.335000	-0.000000
325.509000	-0.000000
325.683000	-0.000000
325.856000	-0.000000
326.030000	-0.000000
326.204000	-0.000000
326.378000	-0.000000
326.552000	-0.000000
326.725000	-0.000000
326.899000	-0.000000
327.073000	-0.000000
327.247000	-0.000000
327.421000	0.000000
327.594000	0.000000
327.768000	-0.000000
327.942000	-0.000000
328.116000	0.000000
328.289000	0.000000
328.463000	0.000000
328.637000	0.000000
328.811000	-0.000000
328.985000	-0.000000
329.158000	-0.000000
329.332000	-0.000000
329.506000	0.000000
329.680000	-0.000000
329.854000	-0.000000
330.027000	-0.000000
330.201000	0.000000
330.375000	0.000000
330.549000	0.000000
330.723000	-0.000000
330.896000	-0.000000
331.070000	-0.000000
331.244000	-0.000000
331.418000	-0.000000
331.591000	-0.000000
331.765000	-0.000000
331.939000	-0.000000
332.113000	-0.000000
332.287000	-0.000000
332.460000	0.000000
332.634000	0.000000
332.808000	-0.000000
332.982000	-0.000000
333.156000	-0.000000
333.329000	-0.000000
333.503000	-0.000000
333.677000	-0.000000
333.851000	-0.000000
334.024000	-0.000000
334.198000	-0.000000
334.372000	-0.000000
334.546000	-0.000000
334.720000	-0.000000
334.893000	-0.000000
335.067000	-0.000000
335.241000	0.000000
335.415000	-0.000000
335.589000	-0.000000
335.762000	-0.000000
335.936000	-0.000000
336.110000	-0.000000
336.284000	-0.000000
336.458000	-0.000000
336.631000	-0.000000
336.805000	-0.000000
336.979000	-0.000000
337.153000	-0.000000
337.326000	-0.000000
337.500000	-0.000000
337.674000	-0.000000
337.848000	-0.000000
338.022000	-0.000000
338.195000	-0.000000
338.369000	-0.000000
338.543000	-0.000000
338.717000	-0.000000
338.891000	0.000000
339.064000	0.000000
339.238000	-0.000000
339.412000	-0.000000
339.586000	-0.000000
339.759000	-0.000000
339.933000	-0.000000
340.107000	0.000000
340.281000	0.000000
340.455000	-0.000000
340.628000	-0.000000
340.802000	-0.000000
340.976000	0.000000
341.150000	-0.000000
341.324000	-0.000000
341.497000	-0.000000
341.671000	-0.000000
341.845000	-0.000000
342.019000	-0.000000
342.192000	-0.000000
342.366000	-0.000000
342.540000	-0.000000
342.714000	-0.000000
342.888000	-0.000000
343.061000	-0.000000
343.235000	-0.000000
343.409000	-0.000000
343.583000	-0.000000
343.757000	-0.000000
343.930000	-0.000000
344.104000	-0.000000
344.278000	0.000000
344.452000	0.000000
344.626000	-0.000000
344.799000	-0.000000
344.973000	-0.000000
345.147000	-0.000000
345.321000	-0.000000
345.494000	-0.000000
345.668000	0.000000
345.842000	0.000000
346.016000	-0.000000
346.190000	0.000000
346.363000	0.000000
346.537000	-0.000000
346.711000	-0.000000
346.885000	-0.000000
347.059000	-0.000000
347.232000	0.000000
347.406000	0.000000
347.580000	-0.000000
347.754000	-0.000000
347.927000	0.000000
348.101000	0.000000
348.275000	-0.000000
348.449000	-0.000000
348.623000	-0.000000
348.796000	0.000000
348.970000	0.000000
349.144000	-0.000000
349.318000	-0.000000
349.492000	-0.000000
349.665000	-0.000000
349.839000	-0.000000
350.013000	-0.000000
350.187000	-0.000000
350.361000	-0.000000
350.534000	-0.000000
350.708000	-0.000000
350.882000	-0.000000
351.056000	0.000000
351.229000	0.000000
351.403000	-0.000000
351.577000	-0.000000
351.751000	-0.000000
351.925000	-0.000000
352.098000	-0.000000
352.272000	-0.000000
352.446000	-0.000000
352.620000	-0.000000
352.794000	-0.000000
352.967000	-0.000000
353.141000	0.000000
353.315000	0.000000
353.489000	-0.000000
353.662000	-0.000000
353.836000	-0.000000
354.010000	-0.000000
354.184000	0.000000
354.358000	-0.000000
354.531000	-0.000000
354.705000	-0.000000
354.879000	-0.000000
355.053000	-0.000000
355.227000	0.000000
355.400000	-0.000000
355.574000	0.000000
355.748000	0.000000
355.922000	-0.000000
356.095000	-0.000000
356.269000	-0.000000
356.443000	-0.000000
356.617000	-0.000000
356.791000	-0.000000
356.964000	-0.000000
357.138000	-0.000000
357.312000	-0.000000
357.486000	-0.000000
357.660000	-0.000000
357.833000	-0.000000
358.007000	-0.000000
358.181000	-0.000000
358.355000	-0.000000
358.529000	-0.000000
358.702000	-0.000000
358.876000	-0.000000
359.050000	-0.000000
359.224000	-0.000000
359.397000	-0.000000
359.571000	-0.000000
359.745000	-0.000000
359.919000	-0.000000
360.093000	-0.029284
360.266000	0.072442
360.440000	0.118960
360.614000	0.146235
360.788000	0.007744
360.962000	-0.229344
361.135000	-0.096442
361.309000	-0.199395
361.483000	-0.313896
361.657000	-0.276620
361.830000	-0.240252
362.004000	-0.025984
362.178000	-0.357757
362.352000	-0.233927
362.526000	-0.035823
362.699000	-0.049939
362.873000	-0.377627
363.047000	-0.372469
363.221000	-0.339055
363.395000	-0.168015
363.568000	-0.204035
363.742000	-0.213146
363.916000	-0.162281
364.090000	-0.264602
364.263000	-0.274596
364.437000	-0.345760
364.611000	-0.019691
364.785000	-0.057345
364.959000	-0.231703
365.132000	-0.211664
365.306000	-0.249151
365.480000	-0.088245
365.656000	-0.179843
365.831000	-0.204000
366.007000	-0.188090
366.183000	-0.169116
366.358000	-0.275386
366.534000	-0.154918
366.710000	-0.331341
366.886000	-0.248706
367.061000	-0.075919
367.237000	-0.030629
367.413000	-0.163387
367.588000	-0.321960
367.764000	-0.307107
367.940000	-0.348886
368.115000	-0.326152
368.291000	-0.366850
368.467000	-0.205606
368.643000	0.106877
368.818000	-0.255567
368.994000	-0.353414
369.170000	-0.275571
369.345000	-0.200493
369.521000	-0.236563
369.697000	-0.153940
369.872000	-0.252375
370.048000	-0.352551
370.224000	-0.271496
370.399000	-0.449435
370.575000	-0.362088
370.751000	-0.478586
370.927000	-0.423854
371.102000	-0.403376
371.278000	-0.397726
371.454000	-0.271482
371.629000	0.020223
371.805000	0.018400
371.981000	0.171945
372.156000	0.283119
372.332000	0.081968
372.508000	-0.001444
372.683000	-0.026559
372.859000	-0.146030
373.035000	-0.204226
373.211000	0.247815
373.386000	0.057053
373.562000	-0.393159
373.738000	-0.462172
373.913000	-0.590542
374.089000	-0.443114
374.265000	-0.017884
374.440000	-0.012520
374.616000	0.042622
374.792000	-0.190879
374.968000	0.200820
375.143000	-0.042882
375.319000	-0.284455
375.495000	-0.334621
375.670000	-0.197130
375.846000	-0.110089
376.022000	-0.259439
376.197000	-0.195608
376.373000	-0.360084
376.549000	-0.435312
376.724000	-0.491054
376.900000	-0.336883
377.076000	-0.199106
377.252000	0.061453
377.427000	0.191848
377.603000	-0.207724
377.779000	-0.229150
377.954000	-0.379848
378.130000	-0.237365
378.306000	-0.160250
378.481000	-0.150804
378.657000	-0.232224
378.833000	-0.282459
379.009000	-0.151890
379.184000	-0.015508
379.360000	-0.053802
379.536000	-0.100043
379.711000	-0.167957
379.887000	-0.234294
380.063000	-0.301629
380.238000	-0.340665
380.414000	-0.060823
380.590000	-0.303183
380.765000	-0.325115
380.941000	-0.116207
381.117000	-0.061882
381.293000	-0.151411
381.468000	-0.298084
381.644000	-0.236763
381.820000	-0.096659
381.995000	0.017842
382.171000	0.225308
382.347000	0.182907
382.522000	-0.277184
382.698000	0.059395
382.874000	0.106127
383.050000	-0.298150
383.225000	0.070061
383.401000	0.257383
383.577000	-0.105305
383.752000	-0.256974
383.928000	-0.189196
384.104000	-0.105623
384.279000	-0.218840
384.455000	-0.119899
384.631000	-0.128675
384.806000	-0.405569
384.982000	-0.185661
385.158000	-0.227218
385.334000	-0.107424
385.509000	-0.166273
385.685000	-0.451539
385.861000	-0.221255
386.036000	-0.369644
386.212000	-0.575517
386.388000	-0.339226
386.563000	-0.241503
386.739000	-0.328393
386.915000	-0.552774
387.090000	-0.231765
387.266000	-0.061796
387.442000	0.043458
387.618000	-0.044141
387.793000	-0.351680
387.969000	-0.501551
388.145000	-0.398646
388.320000	-0.339807
388.496000	-0.318463
388.672000	-0.556406
388.847000	-0.122252
389.023000	-0.076771
389.199000	-0.394125
389.375000	-0.154180
389.550000	-0.265914
389.726000	-0.163534
389.902000	-0.370830
390.077000	-0.203454
390.253000	-0.147496
390.429000	-0.203057
390.604000	-0.121873
390.780000	-0.124645
390.956000	-0.246023
391.131000	-0.299080
391.307000	0.007030
391.483000	-0.172010
391.659000	-0.342124
391.834000	-0.135059
392.010000	-0.253393
392.186000	-0.290420
392.361000	-0.239134
392.537000	-0.384440
392.713000	0.064536
392.888000	0.255889
393.064000	-0.050964
393.240000	-0.215885
393.416000	-0.288374
393.591000	-0.386284
393.767000	-0.450493
393.943000	-0.331911
394.118000	-0.035481
394.294000	0.140202
394.470000	-0.030499
394.645000	0.060158
394.821000	0.301232
394.997000	-0.082112
395.172000	-0.136347
395.348000	-0.217166
395.524000	-0.521407
395.700000	-0.388933
395.875000	-0.127366
396.051000	-0.143139
396.227000	-0.222893
396.402000	-0.262822
396.578000	-0.168755
396.754000	-0.337601
396.929000	-0.275507
397.105000	0.008278
397.281000	-0.096762
397.457000	-0.212320
397.632000	-0.195952
397.808000	-0.423158
397.984000	-0.576526
398.159000	-0.517213
398.335000	-0.329158
398.511000	0.174237
398.686000	-0.034432
398.862000	-0.321284
399.038000	-0.448763
399.213000	-0.178785
399.389000	-0.445208
399.565000	-0.146734
399.741000	0.040940
399.916000	-0.032816
400.092000	0.221679
400.268000	-0.118024
400.443000	-0.267539
400.619000	0.105684
400.795000	-0.005998
400.970000	-0.208403
401.146000	-0.284274
401.322000	0.042819
401.497000	0.418753
401.673000	0.096768
401.849000	-0.228197
402.025000	-0.060888
402.200000	-0.179662
402.376000	-0.273442
402.552000	0.162105
402.727000	-0.023139
402.903000	-0.369442
403.079000	-0.254162
403.254000	0.006563
403.430000	-0.013659
403.606000	-0.080532
403.782000	-0.114591
403.957000	-0.365614
404.133000	-0.477401
404.309000	-0.285292
404.484000	-0.066559
404.660000	-0.101052
404.841000	-0.257154
405.023000	-0.021416
405.204000	-0.113310
405.385000	-0.415602
405.566000	-0.391941
405.748000	-0.219876
405.929000	0.012961
406.110000	-0.059058
406.292000	-0.196131
406.473000	-0.128389
406.654000	-0.323212
406.835000	-0.157004
407.017000	-0.184341
407.198000	-0.142391
407.379000	-0.120576
407.560000	-0.165467
407.742000	-0.211609
407.923000	-0.110125
408.104000	-0.272147
408.286000	-0.160362
408.467000	-0.113732
408.648000	-0.359874
408.829000	-0.406361
409.011000	-0.244923
409.192000	-0.425486
409.373000	-0.226991
409.555000	-0.098669
409.736000	-0.094935
409.917000	-0.177007
410.098000	-0.169709
410.280000	-0.100054
410.461000	-0.108984
410.642000	-0.119830
410.823000	0.111273
411.005000	0.064231
411.186000	-0.173327
411.367000	-0.300001
411.549000	-0.321110
411.730000	-0.030153
411.911000	0.096083
412.092000	-0.140663
412.274000	-0.183229
412.455000	-0.126325
412.636000	-0.066087
412.818000	-0.244662
412.999000	-0.377348
413.180000	-0.273007
413.361000	-0.228805
413.543000	-0.274059
413.724000	-0.346631
413.905000	-0.372064
414.087000	-0.390825
414.268000	-0.337631
414.449000	-0.347172
414.630000	-0.439453
414.812000	-0.533772
414.993000	-0.150143
415.174000	0.001771
415.355000	-0.189744
415.537000	-0.447577
415.718000	-0.141750
415.899000	-0.256397
416.081000	-0.359653
416.262000	-0.130194
416.443000	-0.295128
416.624000	-0.266723
416.806000	-0.119584
416.987000	-0.004113
417.168000	-0.103376
417.350000	-0.284364
417.531000	-0.307321
417.712000	-0.298591
417.893000	-0.047571
418.075000	0.010403
418.256000	-0.214177
418.437000	-0.108829
418.618000	-0.035953
418.800000	0.048054
418.981000	-0.168220
419.162000	-0.129932
419.344000	0.065104
419.525000	-0.054740
419.706000	-0.146134
419.887000	-0.004051
420.069000	0.153492
420.250000	0.036412
420.431000	-0.002595
420.613000	-0.064881
420.794000	-0.285555
420.975000	0.047675
421.156000	-0.124885
421.338000	-0.134846
421.519000	-0.143442
421.700000	-0.223154
421.882000	-0.228879
422.063000	-0.018403
422.244000	0.458047
422.425000	0.211374
422.607000	-0.189790
422.788000	-0.186021
422.969000	-0.216289
423.150000	-0.248130
423.332000	-0.317573
423.513000	-0.139040
423.694000	-0.083458
423.876000	-0.061612
424.057000	0.010366
424.238000	0.071102
424.419000	0.113341
424.601000	-0.022897
424.782000	0.019110
424.963000	0.179751
425.145000	0.053554
425.326000	0.083427
425.507000	0.139126
425.688000	0.020428
425.870000	-0.118148
426.051000	-0.200539
426.232000	-0.101552
426.413000	-0.105035
426.595000	-0.126014
426.776000	-0.128825
426.957000	-0.099124
427.139000	0.018938
427.320000	0.106923
427.501000	0.197031
427.682000	0.137046
427.864000	0.158550
428.045000	0.333608
428.226000	0.234883
428.408000	-0.064813
428.589000	0.124178
428.770000	0.136832
428.951000	0.017505
429.133000	-0.108439
429.314000	0.093144
429.495000	0.071477
429.677000	0.104594
429.858000	0.097555
430.039000	0.139201
430.220000	0.233762
430.402000	0.294429
430.583000	0.051810
430.764000	0.117178
430.945000	0.260237
431.127000	0.356229
431.308000	0.176733
431.489000	0.319654
431.671000	0.440683
431.852000	0.324480
432.033000	0.243811
432.214000	0.336597
432.396000	0.423089
432.577000	0.257351
432.758000	0.061180
432.940000	0.154485
433.121000	0.282923
433.302000	0.331285
433.483000	0.497910
433.665000	0.588194
433.846000	0.485423
434.027000	0.391552
434.208000	0.353359
434.390000	0.323847
434.571000	0.748582
434.752000	1.177040
434.934000	0.979693
435.115000	0.940536
435.296000	1.067779
435.477000	0.894623
435.659000	0.606189
435.840000	0.713682
436.026000	0.697891
436.211000	0.598747
436.397000	0.336489
436.582000	0.469908
436.768000	0.707546
436.953000	0.618297
437.139000	0.642702
437.325000	0.942141
437.510000	0.900181
437.696000	1.064653
437.881000	1.046850
438.067000	0.712248
438.252000	0.779621
438.438000	0.775062
438.624000	0.775098
438.809000	0.890346
438.995000	1.016881
439.180000	0.946179
439.366000	0.906814
439.551000	0.950539
439.737000	1.052812
439.923000	1.099092
440.108000	1.021146
440.294000	1.104807
440.479000	1.277776
440.665000	1.328054
440.850000	1.266309
441.036000	1.314609
441.222000	1.299326
441.407000	1.157249
441.593000	1.290610
441.778000	1.445010
441.964000	1.557410
442.149000	1.243044
442.335000	1.271465
442.521000	1.456043
442.706000	1.639203
442.892000	1.566836
443.077000	1.540111
443.263000	1.640694
443.448000	1.605416
443.634000	1.614164
443.820000	1.954370
444.005000	1.859867
444.191000	1.665518
444.376000	1.744389
444.562000	2.155841
444.747000	2.158312
444.933000	2.095817
445.119000	2.043338
445.304000	1.995912
445.490000	2.178773
445.675000	2.227618
445.861000	2.109826
446.046000	2.168816
446.232000	2.276662
446.418000	2.387325
446.603000	2.370891
446.789000	2.429213
446.974000	2.471443
447.160000	2.284988
447.345000	2.431103
447.531000	2.422806
447.717000	2.702110
447.902000	2.870486
448.088000	2.982582
448.273000	2.858733
448.459000	2.845773
448.644000	2.801781
448.830000	2.809781
449.016000	2.814844
449.201000	2.893417
449.387000	3.081460
449.572000	3.240916
449.758000	3.192041
449.943000	3.147313
450.129000	3.193675
450.315000	3.267294
450.500000	3.321629
450.686000	3.502140
450.871000	3.381325
451.057000	3.619784
451.243000	3.680582
451.428000	3.705178
451.614000	3.742944
451.799000	3.773760
451.985000	3.993549
452.170000	4.060637
452.356000	3.930700
452.542000	4.022229
452.727000	4.194867
452.913000	4.151726
453.098000	4.395488
453.284000	4.562232
453.469000	4.427111
453.655000	4.606064
453.841000	4.544024
454.026000	4.417434
454.212000	4.478529
454.397000	4.519678
454.583000	4.418636
454.768000	4.339900
454.954000	4.602283
455.140000	4.699319
455.325000	4.522648
455.511000	4.464866
455.696000	4.497916
455.882000	4.691605
456.067000	4.949579
456.253000	4.720699
456.439000	4.601793
456.624000	4.619113
456.810000	4.638778
456.995000	4.623432
457.181000	4.547768
457.366000	4.768833
457.552000	4.745701
457.738000	4.830469
457.923000	4.857967
458.109000	5.050133
458.294000	4.902324
458.480000	4.798798
458.665000	4.723966
458.851000	4.571029
459.037000	4.360467
459.222000	4.506803
459.408000	4.475118
459.593000	4.431251
459.779000	4.545561
459.964000	4.663566
460.150000	4.778517
460.336000	4.651863
460.521000	4.426642
460.707000	4.237660
460.892000	4.056884
461.078000	4.204513
461.263000	4.235394
461.449000	4.022056
461.635000	4.021219
461.820000	3.954209
462.006000	3.941975
462.191000	3.836877
462.377000	3.579719
462.562000	3.855019
462.748000	3.996291
462.934000	3.514095
463.119000	3.273228
463.305000	3.428472
463.490000	3.316926
463.676000	3.321970
463.861000	3.230676
464.047000	3.117238
464.233000	3.103517
464.418000	3.037125
464.604000	2.902436
464.789000	3.048440
464.975000	3.034276
465.160000	2.888997
465.346000	2.855954
465.532000	2.662414
465.717000	2.534734
465.903000	2.760227
466.088000	2.685246
466.274000	2.450156
466.459000	2.403980
466.645000	2.699549
466.831000	2.568440
467.016000	2.534349
467.202000	2.427886
467.387000	2.283601
467.573000	2.046973
467.758000	2.324151
467.944000	2.195630
468.130000	2.049030
468.315000	2.154014
468.501000	2.245441
468.686000	2.100478
468.872000	2.066032
469.057000	2.112719
469.243000	1.942969
469.429000	1.888757
469.614000	1.785536
469.800000	1.680310
469.985000	1.810642
470.171000	1.884480
470.356000	1.766852
470.542000	1.815330
470.728000	1.743456
470.913000	1.705398
471.099000	1.792319
471.284000	1.662702
471.470000	1.603698
471.655000	1.601748
471.841000	1.548558
472.027000	1.450006
472.212000	1.640646
472.398000	1.678796
472.583000	1.530809
472.769000	1.512857
472.954000	1.464570
473.140000	1.269917
473.326000	1.235568
473.511000	1.510533
473.697000	1.477449
473.882000	1.330394
474.068000	1.266075
474.253000	1.124238
474.439000	1.200349
474.625000	1.270163
474.810000	1.254692
474.996000	1.199009
475.181000	1.011834
475.367000	1.156612
475.552000	1.389886
475.738000	1.056476
475.924000	1.026110
476.109000	1.111881
476.295000	0.993497
476.480000	1.037133
476.666000	0.989737
476.851000	0.973945
477.037000	0.992194
477.223000	0.862739
477.408000	0.757043
477.594000	0.654860
477.779000	0.788493
477.965000	0.824861
478.151000	0.685821
478.336000	0.772916
478.522000	0.701192
478.707000	0.662909
478.893000	0.739766
479.078000	0.580379
479.264000	0.596983
479.450000	0.643315
479.635000	0.765189
479.821000	0.650157
480.006000	0.672701
480.192000	0.663296
480.377000	0.668035
480.563000	0.641045
480.749000	0.437230
480.934000	0.447730
481.120000	0.554277
481.305000	0.628813
481.491000	0.601788
481.676000	0.648171
481.862000	0.636458
482.048000	0.461137
482.233000	0.479181
482.419000	0.485744
482.604000	0.416027
482.790000	0.398482
482.975000	0.432894
483.161000	0.555319
483.347000	0.535846
483.532000	0.490033
483.718000	0.272263
483.903000	0.309994
484.089000	0.359655
484.274000	0.261712
484.460000	0.411336
484.646000	0.401503
484.831000	0.274518
485.017000	0.345844
485.202000	0.365929
485.388000	0.606789
485.573000	0.608860
485.759000	0.383356
485.945000	0.489339
486.130000	0.331870
486.316000	0.351643
486.501000	0.413846
486.687000	0.249131
486.872000	0.184080
487.058000	0.350769
487.244000	0.356433
487.429000	0.167489
487.615000	0.326132
487.800000	0.428180
487.986000	0.298867
488.171000	0.389577
488.357000	0.336376
488.543000	0.337305
488.728000	0.392358
488.914000	0.292357
489.099000	0.190909
489.285000	0.196156
489.470000	0.347086
489.656000	0.375287
489.842000	0.344942
490.027000	0.413274
490.213000	0.242905
490.398000	-0.022293
490.584000	0.236252
490.769000	0.242659
490.955000	0.294485
491.141000	0.291707
491.326000	0.256763
491.512000	0.394396
491.697000	0.286785
491.883000	0.143028
492.068000	0.104956
492.254000	0.106203
492.440000	0.152749
492.625000	0.104769
492.811000	0.112989
492.996000	0.226509
493.182000	0.182770
493.367000	-0.007155
493.553000	-0.070305
493.739000	0.005465
493.924000	0.131723
494.110000	0.144940
494.295000	0.019030
494.481000	0.083959
494.666000	0.102875
494.852000	0.277383
495.038000	0.157821
495.223000	0.014844
495.409000	0.052353
495.594000	0.039905
495.780000	0.054387
495.965000	-0.019608
496.151000	0.175214
496.337000	0.229168
496.522000	0.004354
496.708000	0.090728
496.893000	0.228057
497.079000	0.062474
497.264000	0.042675
497.450000	0.088284
497.636000	0.141259
497.821000	-0.039102
498.007000	0.195723
498.192000	0.258750
498.378000	0.089346
498.563000	0.030275
498.749000	0.084277
498.935000	0.069641
499.120000	0.125297
499.306000	-0.018428
499.491000	-0.056580
499.677000	0.033236
499.862000	0.107960
500.048000	0.134097
500.234000	0.051971
500.419000	0.017839
500.605000	0.152808
500.790000	0.061387
500.976000	-0.082881
501.161000	-0.125430
501.347000	0.047969
501.533000	0.124882
501.718000	0.027205
501.904000	-0.014363
502.089000	0.079424
502.275000	0.131198
502.460000	0.009536
502.646000	0.066623
502.832000	0.091578
503.017000	0.031420
503.203000	-0.138358
503.388000	-0.166887
503.574000	0.031457
503.759000	0.081433
503.945000	0.113908
504.131000	0.034631
504.316000	-0.017514
504.502000	0.013766
504.687000	-0.035343
504.873000	-0.163004
505.058000	-0.159845
505.244000	-0.161898
505.430000	-0.101430
505.615000	0.003357
505.801000	0.066427
505.986000	-0.131585
506.172000	-0.064681
506.358000	-0.040701
506.543000	-0.052212
506.729000	0.133441
506.914000	0.084320
507.100000	0.203819
507.285000	0.023460
507.471000	-0.104290
507.657000	0.118420
507.842000	-0.017707
508.028000	-0.183306
508.213000	-0.131955
508.399000	-0.060181
508.584000	0.050059
508.770000	-0.052723
508.956000	-0.091968
509.141000	-0.058011
509.327000	0.016124
509.512000	-0.040995
509.698000	-0.038941
509.883000	0.030985
510.069000	-0.048731
510.255000	-0.014690
510.440000	0.025792
510.626000	-0.034940
510.811000	-0.100063
510.997000	-0.014725
511.182000	0.234672
511.368000	0.121838
511.554000	-0.230368
511.739000	-0.151275
511.925000	0.035441
512.110000	0.018343
512.296000	0.143480
512.481000	0.162527
512.667000	0.069699
512.853000	-0.124881
513.038000	-0.051179
513.224000	-0.082249
513.409000	-0.192537
513.595000	-0.073792
513.780000	-0.238846
513.966000	-0.139882
514.152000	-0.143108
514.337000	-0.188106
514.523000	-0.114286
514.708000	-0.061915
514.894000	-0.043825
515.079000	-0.153859
515.265000	-0.142578
515.451000	-0.097526
515.636000	-0.158632
515.822000	-0.055666
516.007000	-0.173902
516.193000	-0.005154
516.378000	0.066901
516.564000	-0.051338
516.750000	-0.057802
516.935000	0.049662
517.121000	0.059325
517.306000	0.122845
517.492000	0.054081
517.677000	-0.168733
517.863000	-0.179527
518.049000	-0.041773
518.234000	-0.114898
518.420000	0.000215
518.605000	0.160657
518.791000	0.126137
518.976000	-0.018153
519.162000	-0.127052
519.348000	-0.010572
519.533000	-0.034255
519.719000	0.151177
519.904000	0.061748
520.090000	0.013143
520.275000	0.196420
520.461000	0.126597
520.647000	-0.067823
520.832000	-0.208783
521.018000	-0.106713
521.203000	-0.110670
521.389000	-0.265501
521.574000	-0.175316
521.760000	-0.045073
521.946000	-0.030068
522.131000	-0.106952
522.317000	-0.115434
522.502000	-0.153198
522.688000	-0.034371
522.873000	-0.071188
523.059000	-0.104800
523.245000	-0.098212
523.430000	-0.229381
523.616000	-0.171933
523.801000	-0.237209
523.987000	-0.183331
524.172000	-0.038878
524.358000	-0.007388
524.544000	-0.072455
524.729000	0.035915
524.915000	0.105400
525.100000	-0.044225
525.286000	-0.028007
525.471000	-0.009580
525.657000	0.014384
525.843000	-0.216893
526.028000	-0.056554
526.214000	-0.092548
526.399000	-0.212119
526.585000	-0.269089
526.770000	-0.283288
526.956000	-0.174260
527.142000	-0.209337
527.327000	-0.063489
527.513000	-0.185643
527.698000	-0.172639
527.884000	-0.123541
528.069000	-0.166302
528.255000	-0.066034
528.441000	-0.158980
528.626000	-0.121764
528.812000	0.122109
528.997000	-0.016433
529.183000	-0.126299
529.368000	-0.077826
529.554000	-0.085858
529.740000	-0.073768
529.925000	-0.137699
530.111000	-0.125503
530.296000	-0.067229
530.482000	0.028400
530.667000	-0.064039
530.853000	0.019454
531.039000	-0.056450
531.224000	-0.013447
531.410000	0.084534
531.595000	-0.010035
531.781000	0.032162
531.967000	-0.119046
532.152000	0.024390
532.338000	-0.057407
532.523000	-0.199572
532.709000	-0.243201
532.894000	-0.136061
533.080000	-0.061573
533.266000	-0.203998
533.451000	-0.242240
533.637000	-0.180743
533.822000	-0.023361
534.008000	-0.160085
534.193000	-0.126366
534.379000	-0.015199
534.565000	-0.096333
534.750000	-0.140966
534.936000	0.072312
535.121000	-0.059974
535.307000	-0.041982
535.492000	-0.034800
535.678000	-0.247730
535.864000	-0.106032
536.049000	0.158737
536.235000	-0.067403
536.420000	-0.087481
536.606000	-0.145972
536.791000	-0.211657
536.977000	-0.195941
537.163000	0.020323
537.348000	0.017918
537.534000	0.079011
537.719000	-0.109262
537.905000	-0.238806
538.090000	-0.048515
538.276000	0.058217
538.462000	0.050654
538.647000	0.057346
538.833000	-0.057138
539.018000	0.056619
539.204000	0.030427
539.389000	-0.146312
539.575000	0.182647
539.761000	0.126445
539.946000	-0.157201
540.132000	-0.013129
540.317000	-0.127366
540.503000	0.000269
540.688000	0.050402
540.874000	0.278871
541.060000	0.428221
541.245000	0.271897
541.431000	0.120845
541.616000	0.129419
541.802000	0.093779
541.987000	0.259525
542.173000	0.257748
542.359000	0.130550
542.544000	0.261828
542.730000	0.096145
542.915000	0.079664
543.101000	0.216278
543.286000	0.060326
543.472000	0.004497
543.658000	0.133868
543.843000	0.110234
544.029000	0.302915
544.214000	0.187193
544.400000	-0.159902
544.585000	0.025857
544.771000	0.134267
544.957000	0.365961
545.142000	0.454898
545.328000	0.510562
545.513000	0.557467
545.699000	0.494972
545.884000	0.300476
546.070000	0.228420
546.261000	0.195923
546.451000	0.014827
546.642000	-0.183182
546.833000	-0.043468
547.023000	-0.161582
547.214000	-0.150522
547.405000	0.001757
547.595000	0.262678
547.786000	0.237203
547.977000	-0.015935
548.167000	-0.179866
548.358000	-0.112431
548.549000	0.254867
548.740000	0.062823
548.930000	-0.237979
549.121000	-0.168468
549.312000	-0.206593
549.502000	-0.271714
549.693000	-0.145358
549.884000	-0.059783
550.074000	0.053060
550.265000	-0.174969
550.456000	-0.089060
550.646000	-0.017915
550.837000	-0.042221
551.028000	-0.148733
551.218000	-0.016420
551.409000	-0.138654
551.600000	-0.121961
551.790000	0.026391
551.981000	-0.219096
552.172000	-0.208744
552.362000	0.160101
552.553000	0.188712
552.744000	-0.016667
552.934000	-0.052207
553.125000	-0.142047
553.316000	-0.188587
553.506000	0.181839
553.697000	0.015884
553.888000	0.012747
554.079000	0.188562
554.269000	0.157604
554.460000	-0.216706
554.651000	-0.268504
554.841000	-0.397106
555.032000	-0.291156
555.223000	-0.164456
555.413000	-0.004374
555.604000	-0.084408
555.795000	-0.138113
555.985000	-0.065888
556.176000	-0.182200
556.367000	-0.400815
556.557000	-0.258526
556.748000	-0.178380
556.939000	-0.252315
557.129000	-0.302586
557.320000	-0.122814
557.511000	-0.190338
557.701000	-0.166440
557.892000	-0.084976
558.083000	0.098136
558.273000	-0.002840
558.464000	-0.219046
558.655000	-0.210973
558.845000	-0.117596
559.036000	-0.040590
559.227000	-0.067385
559.418000	0.047635
559.608000	0.063383
559.799000	-0.268965
559.990000	-0.355251
560.180000	-0.258475
560.371000	-0.373537
560.562000	-0.340030
560.752000	-0.184927
560.943000	-0.302804
561.134000	-0.441396
561.324000	-0.242177
561.515000	0.012805
561.706000	-0.138820
561.896000	-0.350664
562.087000	-0.244316
562.278000	-0.278487
562.468000	-0.408167
562.659000	-0.302879
562.850000	0.012758
563.040000	0.085881
563.231000	-0.350021
563.422000	-0.212302
563.612000	-0.335273
563.803000	-0.227657
563.994000	-0.262063
564.185000	-0.350988
564.375000	-0.158575
564.566000	-0.186115
564.757000	-0.186633
564.947000	-0.260481
565.138000	-0.142718
565.329000	-0.202288
565.519000	-0.344847
565.710000	-0.243848
565.901000	-0.065768
566.091000	0.004914
566.282000	-0.192722
566.473000	-0.172271
566.663000	-0.164444
566.854000	-0.330926
567.045000	-0.189129
567.235000	-0.117881
567.426000	-0.087546
567.617000	-0.084212
567.807000	-0.118974
567.998000	-0.094624
568.189000	-0.246745
568.379000	-0.189022
568.570000	-0.080725
568.761000	-0.126972
568.951000	-0.183577
569.142000	-0.228732
569.333000	-0.252679
569.524000	-0.357615
569.714000	-0.426176
569.905000	-0.471593
570.096000	-0.090490
570.286000	0.019620
570.477000	0.123327
570.668000	-0.073749
570.858000	-0.079669
571.049000	-0.216622
571.240000	-0.311219
571.430000	-0.119135
571.621000	-0.186296
571.812000	-0.099207
572.002000	-0.078861
572.193000	-0.230929
572.384000	-0.172318
572.574000	-0.096330
572.765000	-0.141455
572.956000	-0.173061
573.146000	0.044060
573.337000	-0.152592
573.528000	-0.155233
573.718000	-0.012757
573.909000	0.037928
574.100000	-0.021348
574.290000	-0.167942
574.481000	-0.160393
574.672000	-0.163449
574.863000	-0.006867
575.053000	-0.186762
575.244000	-0.117945
575.435000	-0.227410
575.625000	-0.210821
575.816000	-0.214805
576.007000	-0.127073
576.197000	-0.113100
576.388000	-0.091483
576.579000	0.039799
576.769000	0.031295
576.960000	-0.265944
577.155000	-0.412705
577.350000	-0.127391
577.545000	-0.013724
577.740000	-0.209154
577.935000	0.157726
578.130000	0.083944
578.326000	-0.211028
578.521000	0.043353
578.716000	0.077732
578.911000	-0.224925
579.106000	-0.104332
579.301000	0.035952
579.496000	-0.118733
579.691000	-0.383776
579.886000	-0.221922
580.081000	-0.086836
580.276000	-0.067615
580.471000	-0.174846
580.666000	-0.289729
580.861000	-0.323493
581.057000	-0.307437
581.252000	-0.158365
581.447000	-0.231062
581.642000	-0.200283
581.837000	-0.170242
582.032000	-0.157613
582.227000	0.057956
582.422000	0.027049
582.617000	-0.146364
582.812000	-0.262991
583.007000	-0.237600
583.202000	-0.275629
583.397000	-0.010310
583.592000	0.174433
583.788000	-0.108903
583.983000	-0.124567
584.178000	-0.056150
584.373000	-0.211631
584.568000	-0.216409
584.763000	-0.259734
584.958000	-0.317199
585.153000	-0.206168
585.348000	-0.211278
585.543000	-0.053331
585.738000	-0.063759
585.933000	-0.258500
586.128000	-0.066366
586.324000	-0.070469
586.519000	-0.056020
586.714000	0.057898
586.909000	0.148546
587.104000	0.131925
587.299000	-0.008927
587.494000	-0.029892
587.689000	-0.087752
587.884000	-0.053758
588.079000	-0.127553
588.274000	-0.107986
588.469000	-0.090643
588.664000	0.029287
588.859000	0.025365
589.055000	-0.006349
589.250000	-0.089718
589.445000	-0.238212
589.640000	-0.203929
589.835000	0.076025
590.030000	0.169013
590.225000	0.177018
590.420000	-0.023688
590.615000	-0.114285
590.810000	-0.075573
591.005000	-0.067866
591.200000	-0.146748
591.395000	-0.198842
591.591000	-0.042421
591.786000	0.062912
591.981000	-0.074595
592.176000	-0.023844
592.371000	0.023049
592.566000	-0.005089
592.761000	0.179681
592.956000	0.149138
593.151000	0.237775
593.346000	0.111951
593.541000	0.168290
593.736000	0.141842
593.931000	-0.019964
594.126000	0.024586
594.322000	0.105636
594.517000	0.005672
594.712000	-0.122685
594.907000	-0.094650
595.102000	0.046437
595.297000	0.201095
595.492000	0.295351
595.687000	0.129713
595.882000	0.079340
596.077000	0.192860
596.272000	0.349865
596.467000	0.415548
596.662000	0.277850
596.857000	0.281704
597.053000	0.297305
597.248000	0.363154
597.443000	0.417315
597.638000	0.361754
597.833000	0.161853
598.028000	0.393363
598.223000	0.507451
598.418000	0.389297
598.613000	0.340798
598.808000	0.497599
599.003000	0.484268
599.198000	0.340471
599.393000	0.436149
599.589000	0.559824
599.784000	0.376354
599.979000	0.494084
600.174000	0.705205
600.369000	0.510313
600.564000	0.599121
600.759000	0.830954
600.954000	0.956814
601.149000	0.837708
601.344000	0.553517
601.539000	0.781903
601.734000	0.709280
601.929000	0.523869
602.124000	0.572202
602.320000	0.831428
602.515000	1.120884
602.710000	1.076529
602.905000	0.797809
603.100000	0.788055
603.295000	0.854565
603.490000	1.014457
603.685000	1.096912
603.880000	1.105350
604.075000	0.954357
604.270000	1.003471
604.465000	1.143875
604.660000	0.947863
604.856000	1.116859
605.051000	1.350467
605.246000	1.339364
605.441000	1.154623
605.636000	1.137805
605.831000	1.298810
606.026000	1.241028
606.221000	1.267088
606.416000	1.459544
606.611000	1.666399
606.806000	1.707928
607.001000	1.885418
607.196000	1.667128
607.391000	1.522557
607.587000	1.809936
607.782000	1.835449
607.977000	1.697046
608.172000	2.097129
608.367000	2.141923
608.562000	1.989715
608.757000	1.990524
608.952000	1.977739
609.147000	2.519055
609.342000	2.456150
609.537000	2.233683
609.732000	2.307168
609.927000	2.337505
610.122000	2.517787
610.318000	2.950452
610.513000	3.141663
610.708000	2.988793
610.903000	3.135442
611.098000	3.257907
611.293000	3.225083
611.488000	3.334006
611.683000	3.356004
611.878000	3.333531
612.073000	3.388844
612.268000	3.470501
612.463000	3.569683
612.658000	3.621341
612.854000	3.642241
613.049000	3.626139
613.244000	3.802741
613.439000	3.894462
613.634000	3.674261
613.829000	3.908257
614.024000	3.887777
614.219000	3.936282
614.414000	4.316816
614.609000	4.128025
614.804000	3.962173
614.999000	4.052376
615.194000	4.285377
615.389000	4.418974
615.585000	4.365679
615.780000	4.690077
615.975000	4.709949
616.170000	4.785485
616.365000	5.097262
616.560000	5.314490
616.755000	5.333662
616.950000	5.332955
617.145000	5.567755
617.340000	5.535225
617.535000	5.361028
617.730000	5.739751
617.925000	5.635190
618.120000	5.708351
618.316000	6.212482
618.511000	6.186250
618.706000	6.146925
618.901000	6.368404
619.096000	6.679533
619.291000	6.669091
619.486000	6.816306
619.681000	6.553903
619.876000	6.666442
620.071000	7.024832
620.266000	7.453940
620.461000	7.680646
620.656000	7.741427
620.852000	7.770347
621.047000	7.762973
621.242000	7.836870
621.437000	8.327143
621.632000	8.585179
621.827000	8.547646
622.022000	8.376090
622.217000	8.769999
622.412000	9.075896
622.607000	9.166337
622.802000	9.042306
622.997000	9.255076
623.192000	9.509589
623.387000	9.610916
623.583000	9.535163
623.778000	10.150700
623.973000	10.304787
624.168000	10.386389
624.363000	10.613065
624.558000	10.866342
624.753000	10.633465
624.948000	11.078202
625.143000	11.292383
625.338000	11.369026
625.533000	11.476611
625.728000	11.814415
625.923000	12.147649
626.119000	12.100255
626.314000	12.060410
626.509000	12.254054
626.704000	12.568027
626.899000	12.763540
627.094000	13.003523
627.289000	13.236635
627.484000	13.434033
627.679000	13.555344
627.874000	13.726378
628.069000	14.325452
628.264000	14.382762
628.459000	14.444375
628.654000	14.606682
628.850000	14.669397
629.045000	14.926205
629.240000	15.086196
629.435000	15.203220
629.630000	15.432061
629.825000	15.567225
630.020000	15.719907
630.215000	15.659879
630.410000	15.880196
630.605000	15.961555
630.800000	16.009138
630.995000	16.258939
631.190000	16.675671
631.385000	16.461210
631.581000	16.339938
631.776000	16.365504
631.971000	16.209491
632.166000	16.370364
632.361000	16.085324
632.556000	16.205838
632.751000	16.266725
632.946000	15.859831
633.141000	15.671601
633.336000	15.558133
633.531000	15.450557
633.726000	15.245432
633.921000	14.935916
634.117000	14.567564
634.312000	14.199250
634.507000	13.948131
634.702000	13.816396
634.897000	13.644648
635.092000	13.412615
635.287000	13.185019
635.482000	12.717498
635.677000	12.537384
635.872000	12.218957
636.067000	11.963208
636.262000	11.574383
636.457000	10.858622
636.652000	10.464912
636.848000	10.057750
637.043000	9.841391
637.238000	9.648907
637.433000	9.092578
637.628000	8.828028
637.823000	8.816314
638.018000	8.582344
638.213000	8.093166
638.408000	7.747884
638.603000	7.325805
638.798000	7.039517
638.993000	6.841054
639.188000	6.626006
639.383000	6.324850
639.579000	6.476765
639.774000	6.008879
639.969000	5.594923
640.164000	5.344366
640.359000	5.088295
640.554000	5.139766
640.749000	4.961253
640.944000	4.878185
641.139000	4.709758
641.334000	4.382646
641.529000	3.847244
641.724000	3.866457
641.919000	3.863728
642.115000	4.034830
642.310000	3.854779
642.505000	3.608407
642.700000	3.500398
642.895000	3.219259
643.090000	3.231007
643.285000	3.329893
643.480000	3.194933
643.675000	3.084259
643.870000	3.262470
644.065000	3.053985
644.260000	2.557536
644.455000	2.540240
644.650000	2.387979
644.846000	2.430441
645.041000	2.086620
645.236000	1.821968
645.431000	1.809784
645.626000	1.555381
645.821000	1.732211
646.016000	1.791033
646.211000	2.143560
646.406000	1.954091
646.601000	1.835060
646.796000	1.635812
646.991000	1.336811
647.186000	1.427325
647.381000	1.629565
647.577000	1.515443
647.772000	1.565909
647.967000	1.466144
648.162000	1.386858
648.357000	1.272563
648.552000	1.421887
648.747000	1.368369
648.942000	1.275486
649.137000	1.155241
649.332000	0.959002
649.527000	0.975540
649.722000	1.174689
649.917000	1.229099
650.113000	0.871322
650.308000	0.687550
650.503000	0.755107
650.698000	0.923809
650.893000	0.754040
651.088000	0.851172
651.283000	0.946081
651.478000	0.611861
651.673000	0.825615
651.868000	0.623872
652.063000	0.794628
652.258000	0.957256
652.453000	1.139119
652.648000	0.699032
652.844000	0.600475
653.039000	0.643471
653.234000	0.200814
653.429000	0.048190
653.624000	0.244974
653.819000	0.488725
654.014000	0.404541
654.209000	0.211636
654.404000	0.437797
654.599000	0.317740
654.794000	0.286472
654.989000	0.570402
655.184000	0.480455
655.380000	0.164132
655.575000	0.129471
655.770000	0.125826
655.965000	0.259051
656.160000	0.181933
656.355000	0.274583
656.550000	0.267678
656.745000	0.322129
656.940000	0.180789
657.135000	0.227288
657.330000	0.223500
657.525000	0.000388
657.720000	0.224052
657.915000	0.340431
658.111000	0.220042
658.306000	0.473117
658.501000	0.257771
658.696000	-0.019101
658.891000	0.242187
659.086000	0.127087
659.281000	0.133152
659.476000	-0.093456
659.671000	-0.476620
659.866000	-0.177589
660.061000	0.174577
660.256000	0.217734
660.451000	0.172852
660.646000	-0.023156
660.842000	0.075049
661.037000	-0.101806
661.232000	-0.117697
661.427000	0.057425
661.622000	-0.076445
661.817000	-0.234001
662.012000	0.018167
662.207000	-0.124093
662.402000	-0.167987
662.597000	0.038061
662.792000	-0.308564
662.987000	-0.351847
663.182000	-0.061079
663.378000	-0.033342
663.573000	-0.381593
663.768000	-0.386758
663.963000	-0.158609
664.158000	-0.156478
664.353000	0.349330
664.548000	0.498697
664.743000	0.118130
664.938000	-0.205111
665.133000	-0.171460
665.328000	0.228552
665.523000	0.144779
665.718000	-0.029681
665.913000	-0.065879
666.109000	-0.066026
666.304000	0.113093
666.499000	-0.015686
666.694000	0.145612
666.889000	0.427915
667.084000	0.073245
667.279000	-0.094636
667.474000	-0.112898
667.669000	-0.003641
667.864000	-0.007696
668.059000	-0.060442
668.254000	-0.013810
668.449000	-0.162244
668.644000	-0.085062
668.840000	0.140637
669.035000	-0.170551
669.230000	-0.424355
669.425000	-0.028200
669.620000	-0.220274
669.815000	-0.239529
670.010000	-0.278236
670.205000	-0.122624
670.400000	-0.077373
670.595000	0.012729
670.790000	-0.094160
670.985000	-0.127188
671.180000	0.086946
671.376000	-0.265609
671.571000	-0.363335
671.766000	-0.310316
671.961000	-0.335302
672.156000	-0.319120
672.351000	-0.192596
672.546000	-0.242916
672.741000	-0.097120
672.936000	-0.022442
673.131000	0.506725
673.326000	0.150853
673.521000	-0.300712
673.716000	-0.426174
673.911000	-0.593888
674.107000	-0.014257
674.302000	0.287848
674.497000	0.010922
674.692000	-0.331681
674.887000	-0.389757
675.082000	-0.223478
675.277000	0.089263
675.472000	-0.027110
675.667000	-0.266853
675.862000	-0.337026
676.057000	-0.209827
676.252000	-0.163449
676.447000	-0.242787
676.643000	-0.025154
676.838000	0.169151
677.033000	-0.016682
677.228000	0.251291
677.423000	0.146318
677.618000	-0.296439
677.813000	-0.418814
678.008000	-0.180747
678.203000	-0.066502
678.398000	-0.313217
678.593000	-0.153200
678.788000	-0.001737
678.983000	-0.300947
679.178000	-0.214326
679.374000	-0.275466
679.569000	-0.143255
679.764000	-0.233207
679.959000	-0.474536
680.154000	-0.459307
680.349000	-0.581725
680.544000	-0.462475
680.739000	-0.344186
680.934000	-0.474172
681.129000	-0.442448
681.324000	-0.493735
681.519000	-0.262916
681.714000	-0.287361
681.909000	-0.344503
682.105000	-0.487387
682.300000	-0.032945
682.495000	0.120588
682.690000	0.067344
682.885000	0.024995
683.080000	-0.236772
683.275000	-0.281671
683.470000	0.090119
683.665000	0.267805
683.860000	0.515829
684.055000	0.212124
684.250000	-0.265527
684.445000	-0.319116
684.641000	0.120085
684.836000	-0.130685
685.031000	-0.176540
685.226000	-0.224496
685.421000	0.128059
685.616000	-0.138540
685.811000	-0.337587
686.006000	-0.088614
686.201000	-0.143619
686.396000	-0.456382
686.591000	-0.408992
686.786000	0.030412
686.981000	-0.105531
687.176000	-0.068831
687.372000	-0.182214
687.567000	0.092999
687.762000	0.009743
687.957000	-0.099283
688.152000	-0.231999
688.347000	-0.141593
688.542000	-0.426767
688.737000	-0.776616
688.932000	-0.820011
689.127000	-0.383423
689.322000	-0.008920
689.517000	-0.220146
689.712000	-0.491782
689.908000	-0.390900
690.103000	-0.368036
690.298000	-0.275955
690.493000	-0.269571
690.688000	-0.485732
690.883000	-0.320810
691.078000	0.095704
691.273000	0.100477
691.468000	-0.214226
691.663000	-0.150385
691.858000	0.005269
692.053000	-0.057001
692.248000	0.014864
692.443000	-0.049864
692.639000	-0.102819
692.834000	0.072730
693.029000	0.585912
693.224000	0.520916
693.419000	-0.147310
693.614000	-0.310228
693.809000	-0.427058
694.004000	-0.474106
694.199000	-0.491015
694.394000	-0.138673
694.589000	-0.444322
694.784000	-0.412969
694.979000	-0.126733
695.174000	-0.239882
695.370000	0.242904
695.565000	-0.001964
695.760000	-0.368539
695.955000	-0.014304
696.150000	0.096704
696.345000	-0.366027
696.540000	-0.088814
696.740000	-0.215186
696.940000	-0.103705
697.140000	0.017955
697.340000	-0.266797
697.539000	-0.026994
697.739000	-0.164528
697.939000	-0.187161
698.139000	-0.457870
698.339000	-0.756259
698.539000	-0.509579
698.739000	-0.556299
698.939000	-0.457511
699.138000	-0.526703
699.338000	0.144488
699.538000	0.281964
699.738000	-0.215653
699.938000	-0.317643
700.138000	-0.341127
700.338000	-0.528765
700.538000	-0.312204
700.737000	-0.214730
700.937000	-0.648411
701.137000	-0.631496
701.337000	0.003086
701.537000	0.008249
701.737000	-0.280099
701.937000	-0.296215
702.137000	-0.223979
702.337000	-0.413040
702.536000	-0.556333
702.736000	-0.507733
702.936000	-0.677284
703.136000	-0.119292
703.336000	-0.124473
703.536000	-0.281494
703.736000	-0.648826
703.936000	-0.558643
704.135000	-0.532247
704.335000	-0.127804
704.535000	-0.364500
704.735000	-0.643522
704.935000	-0.146374
705.135000	-0.189262
705.335000	-0.409411
705.535000	-0.192666
705.735000	-0.076206
705.934000	-0.121127
706.134000	-0.393664
706.334000	-0.360123
706.534000	-0.453590
706.734000	-0.445977
706.934000	-0.544284
707.134000	-0.605567
707.334000	-0.327137
707.533000	-0.279701
707.733000	-0.279499
707.933000	-0.423939
708.133000	-0.119455
708.333000	-0.034308
708.533000	-0.267987
708.733000	0.056918
708.933000	-0.249372
709.132000	-0.419480
709.332000	-0.341977
709.532000	-0.464365
709.732000	-0.288252
709.932000	-0.689350
710.132000	-0.634843
710.332000	-0.864266
710.532000	-0.288896
710.732000	-0.067268
710.931000	-0.355049
711.131000	-0.356437
711.331000	-0.225808
711.531000	-0.360049
711.731000	-0.311660
711.931000	-0.312177
712.131000	-0.328242
712.331000	-0.191307
712.530000	-0.316998
712.730000	-0.551129
712.930000	-0.394551
713.130000	-0.340866
713.330000	-0.476369
713.530000	-0.325942
713.730000	0.382562
713.930000	0.036528
714.129000	-0.519156
714.329000	-0.692766
714.529000	-0.331987
714.729000	0.089415
714.929000	-0.046653
715.129000	-0.436150
715.329000	-0.316836
715.529000	-0.354477
715.729000	0.179137
715.928000	0.022938
716.128000	-0.248555
716.328000	-0.193146
716.528000	-0.294546
716.728000	-0.151244
716.928000	-0.384615
717.128000	-0.236131
717.328000	-0.238910
717.527000	-0.428190
717.727000	-0.366491
717.927000	-0.277027
718.127000	-0.345206
718.327000	-0.854073
718.527000	-0.771345
718.727000	-0.289167
718.927000	-0.409210
719.127000	-0.696569
719.326000	-0.503091
719.526000	-0.087804
719.726000	-0.216542
719.926000	-0.653199
720.126000	-0.616023
720.326000	-0.386534
720.526000	-0.504193
720.726000	-0.453937
720.925000	-0.180769
721.125000	-0.600367
721.325000	-0.319730
721.525000	-0.329183
721.725000	-0.517262
721.925000	-0.483906
722.125000	-0.434622
722.325000	0.023789
722.524000	-0.272944
722.724000	-0.756919
722.924000	-0.850097
723.124000	-0.649887
723.324000	-0.171691
723.524000	-0.104628
723.724000	-0.724864
723.924000	-0.557194
724.124000	-0.284273
724.323000	-0.075865
724.523000	-0.202131
724.723000	0.189022
724.923000	-0.084820
725.123000	-0.117340
725.323000	0.047847
725.523000	-0.242058
725.723000	-0.513760
725.922000	-0.443314
726.122000	-0.301603
726.322000	-0.424215
726.522000	-0.513838
726.722000	0.193655
726.922000	-0.082515
727.122000	-0.276403
727.322000	0.015508
727.521000	-0.199705
727.721000	-0.418562
727.921000	-0.316781
728.121000	-0.376569
728.321000	-0.698146
728.521000	-0.540584
728.721000	-0.351766
728.921000	-0.119823
729.121000	0.612770
729.320000	0.091172
729.520000	-0.388874
729.720000	-0.525605
729.920000	-0.382255
730.120000	-0.199432
730.320000	-0.242457
730.520000	-0.500919
730.720000	-0.511644
730.919000	-0.478015
731.119000	-0.197909
731.319000	-0.650983
731.519000	-0.681481
731.719000	-0.271820
731.919000	-0.513916
732.119000	-1.027082
732.319000	-1.008765
732.519000	-0.384262
732.718000	-0.662241
732.918000	-0.560982
733.118000	-0.327283
733.318000	0.056462
733.518000	-0.356174
733.718000	-0.943868
733.918000	-0.922658
734.118000	-0.686159
734.317000	-0.320763
734.517000	-0.631912
734.717000	-0.534766
734.917000	-0.011925
735.117000	-0.112461
735.317000	-0.216072
735.517000	0.167533
735.717000	0.464922
735.916000	-0.416344
736.116000	-0.580103
736.316000	-0.389969
736.516000	-0.253337
736.716000	-0.336048
736.916000	-0.885963
737.116000	-0.637103
737.316000	-0.034606
737.516000	-0.066780
737.715000	-0.079672
737.915000	-0.700023
738.115000	-0.811870
738.315000	-0.480126
738.515000	-0.731663
738.715000	-0.463382
738.915000	0.127373
739.115000	-0.435478
739.314000	-0.487114
739.514000	0.016970
739.714000	0.141336
739.914000	-0.025594
740.114000	-0.354381
740.314000	-0.111196
740.514000	0.330147
740.714000	-0.491938
740.913000	-0.932999
741.113000	-0.649280
741.313000	-0.248040
741.513000	-0.361801
741.713000	-0.296087
741.913000	-0.324287
742.113000	-0.380658
742.313000	-0.911104
742.513000	-0.546233
742.712000	-0.409991
742.912000	-0.760267
743.112000	-0.614188
743.312000	-0.811480
743.512000	-0.525024
743.712000	-0.366790
743.912000	-0.963783
744.112000	-1.032604
744.311000	-1.059331
744.511000	-0.660453
744.711000	-0.291214
744.911000	-0.614901
745.111000	-0.677644
745.311000	-0.078659
745.511000	-0.438056
745.711000	-0.732396
745.911000	-0.362864
746.110000	-0.757945
746.310000	-0.880893
746.510000	-0.628645
746.710000	-0.152992
746.910000	-0.041254
747.110000	-0.636610
747.310000	-0.967460
747.510000	-0.721140
747.709000	-0.330555
747.909000	-0.278407
748.109000	-0.066646
748.309000	-0.397143
748.509000	-0.671720
748.709000	-0.834905
748.909000	-0.620452
749.109000	-0.583720
749.308000	-0.002871
749.508000	-0.265851
749.708000	-0.388460
749.908000	-0.092992
750.108000	-0.140264
750.308000	-0.920699
750.508000	-0.155661
750.708000	-0.610482
750.908000	-1.005571
751.107000	-0.379623
751.307000	0.263741
751.507000	-0.263391
751.707000	-0.241074
751.907000	-0.377558
752.107000	-0.297762
752.307000	-0.775750
752.507000	-0.629491
752.706000	-0.688339
752.906000	0.368290
753.106000	-0.472391
753.306000	-1.041851
753.506000	-0.055457
753.706000	-0.491099
753.906000	-0.247090
754.106000	-0.029329
754.305000	-0.183733
754.505000	-0.093617
754.705000	-0.264926
754.905000	-0.371749
755.105000	-0.136282
755.305000	-0.891259
755.505000	-0.714144
755.705000	-0.221248
755.905000	-0.317896
756.104000	-0.902252
756.304000	-1.351620
756.504000	-1.609226
756.704000	-0.492106
756.904000	-0.189283
757.104000	-0.425286
757.304000	-0.414062
757.504000	-0.014823
757.703000	-0.490616
757.903000	-0.057859
758.103000	0.306339
758.303000	-0.309557
758.503000	-0.601842
758.703000	-0.662467
758.903000	-0.816801
759.103000	-0.371508
759.303000	-0.389210
759.502000	-0.490244
759.702000	-0.067044
759.902000	-0.452448
760.102000	-0.537966
760.302000	-0.596257
760.502000	-0.208348
760.702000	-0.136145
760.902000	-0.431097
761.101000	-0.780472
761.301000	-1.053538
761.501000	-0.632001
761.701000	-0.734888
761.901000	-0.497652
762.101000	-0.183436
762.301000	-0.445493
762.501000	-0.753207
762.700000	-0.797844
762.900000	-0.847549
763.100000	-0.498059
763.300000	-0.123368
763.500000	-0.455006
763.703000	-0.606299
763.905000	-0.944414
764.108000	-0.140627
764.311000	-0.469373
764.513000	-0.499103
764.716000	-0.308706
764.919000	-0.363571
765.121000	-0.866540
765.324000	-1.003636
765.527000	-0.894908
765.729000	-0.776578
765.932000	0.000846
766.135000	-0.083770
766.337000	-0.350490
766.540000	-0.559738
766.743000	-0.332863
766.945000	-0.865950
767.148000	-1.283035
767.351000	-1.073182
767.553000	-0.192418
767.756000	-0.618285
767.958000	-1.005148
768.161000	-0.601547
768.364000	-0.949263
768.566000	-1.137454
768.769000	-0.528935
768.972000	-0.277023
769.174000	-0.743881
769.377000	-1.300714
769.580000	-1.325372
769.782000	-0.484556
769.985000	-0.889727
770.188000	-1.837336
770.390000	-0.891835
770.593000	0.632069
770.796000	0.159902
770.998000	-0.436672
771.201000	-0.857450
771.404000	-0.477624
771.606000	-0.759759
771.809000	-0.563853
772.012000	-0.458011
772.214000	-1.305555
772.417000	-1.341370
772.620000	-0.305854
772.822000	-0.720385
773.025000	-0.931115
773.228000	-0.901429
773.430000	-0.835481
773.633000	-0.620816
773.836000	-0.423165
774.038000	-0.207401
774.241000	-0.488030
774.444000	-0.662090
774.646000	0.255003
774.849000	-0.258307
775.052000	-0.449232
775.254000	-0.235996
775.457000	-0.704613
775.659000	-0.615048
775.862000	-0.733852
776.065000	-0.593351
776.267000	0.005495
776.470000	0.272295
776.673000	-0.440945
776.875000	0.079400
777.078000	-0.095866
777.281000	-0.878098
777.483000	-0.203283
777.686000	-0.180414
777.889000	-0.338874
778.091000	-0.055116
778.294000	-1.146470
778.497000	-1.073220
778.699000	-0.798313
778.902000	-0.815110
779.105000	-0.636936
779.307000	0.231090
779.510000	-0.700468
779.713000	-0.410196
779.915000	-0.691291
780.118000	0.385376
780.321000	0.409608
780.523000	-0.427707
780.726000	-0.890077
780.929000	-1.061229
781.131000	-0.910215
781.334000	-1.401995
781.537000	-1.391512
781.739000	-0.287400
781.942000	-0.884060
782.145000	-1.425292
782.347000	-1.392326
782.550000	-1.034991
782.753000	-1.140387
782.955000	-0.924334
783.158000	-0.782641
783.361000	-0.628439
783.563000	-0.691982
783.766000	-0.772059
783.968000	1.088815
784.171000	0.960899
784.374000	-0.343631
784.576000	-0.545315
784.779000	-0.254539
784.982000	0.218445
785.184000	-0.466092
785.387000	-0.058724
785.590000	0.533205
785.792000	0.375458
785.995000	0.136012
786.198000	-0.059101
786.400000	-0.537174
786.603000	-0.609132
786.806000	-0.672601
787.008000	-0.421213
787.211000	-0.256263
787.414000	-0.955671
787.616000	-0.817016
787.819000	-0.742548
788.022000	-1.406524
788.224000	-0.714725
788.427000	-1.313629
788.630000	-0.671439
788.832000	-0.363046
789.035000	-1.002418
789.238000	-1.577781
789.440000	-1.271451
789.643000	-0.076397
789.846000	-0.744408
790.048000	-0.284370
790.251000	-0.092391
790.454000	-0.454812
790.656000	0.245403
790.859000	-0.535716
791.062000	-0.949073
791.264000	-0.238898
791.467000	-1.078019
791.669000	-1.672373
791.872000	-0.715944
792.075000	-1.162724
792.277000	-0.978574
792.480000	-0.597325
792.683000	-1.049858
792.885000	-1.336322
793.088000	-1.171448
793.291000	-1.371171
793.493000	-1.288416
793.696000	-0.452028
793.899000	-0.250156
794.101000	-0.615055
794.304000	-0.654033
794.507000	-0.316208
794.709000	-0.263160
794.912000	-0.832722
795.115000	-1.186931
795.317000	-0.882903
795.520000	-0.581735
795.723000	-0.704396
795.925000	-1.181916
796.128000	-1.442953
796.331000	-0.964765
796.533000	-1.478646
796.736000	-0.750777
796.939000	-0.630655
797.141000	-0.860131
797.344000	-0.193547
797.547000	-0.054528
797.749000	-0.154905
797.952000	-0.754933
798.155000	-1.233866
798.357000	-1.471790
798.560000	-1.186114
798.763000	-0.303848
798.965000	-0.580037
799.168000	-0.666611
799.371000	-0.446437
799.573000	-0.828777
799.776000	-1.479005
799.978000	-1.592680
800.181000	-0.731471
800.384000	0.895403
800.586000	0.230984
800.789000	-1.434702
800.992000	-1.422251
801.194000	-1.580702
801.397000	-1.463679
801.600000	-1.115693
801.802000	0.273544
802.005000	-0.144184
802.208000	-1.654691
802.410000	-0.674591
802.613000	-0.548842
802.816000	-0.754513
803.018000	-1.384999
803.221000	-1.122778
803.424000	0.242949
803.626000	-0.051973
803.829000	-0.508348
804.032000	0.375437
804.234000	1.052325
804.437000	-0.487874
804.640000	-0.636445
804.842000	-0.655819
805.045000	-1.163298
805.248000	-0.985060
805.450000	-0.851925
805.653000	-0.827095
805.856000	-0.983217
806.058000	-0.029078
806.261000	-1.122151
806.464000	-1.080726
806.666000	-0.400587
806.869000	-0.770772
807.072000	-2.075591
807.274000	-2.266994
807.477000	-1.031477
807.679000	-0.761640
807.882000	-1.318358
808.085000	-0.998229
808.287000	-0.359171
808.490000	-1.449401
808.693000	-1.157597
808.895000	-0.747234
809.098000	-0.672711
809.301000	-0.587304
809.503000	-0.866541
809.706000	-0.112544
809.909000	0.171949
810.111000	-0.043048
810.314000	-0.398465
810.517000	-0.934740
810.719000	-1.207128
810.922000	-0.873732
811.125000	0.058633
811.327000	0.193571
811.530000	-0.346206
811.735000	-0.885412
811.940000	-1.248017
812.146000	-1.033397
812.351000	-0.283268
812.556000	-0.498285
812.761000	-1.209311
812.967000	-0.103281
813.172000	-0.063993
813.377000	-0.568548
813.582000	0.080250
813.788000	-0.343087
813.993000	-1.498397
814.198000	-0.745965
814.403000	-1.465984
814.609000	-0.530756
814.814000	-0.486382
815.019000	0.521504
815.224000	0.214626
815.429000	-0.897759
815.635000	-0.442885
815.840000	-0.281652
816.045000	-0.391236
816.250000	-0.188476
816.456000	-1.445189
816.661000	-2.345559
816.866000	-1.591758
817.071000	-1.583922
817.277000	-2.350630
817.482000	-1.472888
817.687000	-0.790365
817.892000	-0.760221
818.097000	-0.179185
818.303000	0.300027
818.508000	0.729196
818.713000	7.478417
818.918000	4.017522
819.124000	0.399157
819.329000	-0.923641
819.534000	-1.179430
819.739000	-1.284968
819.945000	-1.170967
820.150000	-0.829591
820.355000	-0.760039
820.560000	-0.417322
820.766000	-0.532239
820.971000	-0.506683
821.176000	-2.007264
821.381000	-2.702489
821.586000	-1.624880
821.792000	0.030329
821.997000	-0.490059
822.202000	-0.779946
822.407000	-1.399161
822.613000	-1.562090
822.818000	-0.807875
823.023000	-0.275947
823.228000	-0.711221
823.434000	-0.086630
823.639000	0.170688
823.844000	-0.898474
824.049000	0.119590
824.255000	0.253285
824.460000	-0.556553
824.665000	-1.049087
824.870000	-0.005981
825.075000	-0.238042
825.281000	-0.246267
825.486000	0.719015
825.691000	-1.715538
825.896000	-2.711733
826.102000	-0.802347
826.307000	-0.538228
826.512000	-0.929397
826.717000	-0.878685
826.923000	-1.057740
827.128000	-0.798505
827.333000	-1.546942
827.538000	-0.433647
827.744000	0.118413
827.949000	-1.226985
828.154000	-0.943094
828.359000	0.040576
828.564000	-0.516024
828.770000	-0.770149
828.975000	0.127860
829.180000	-0.529898
829.385000	-1.949091
829.591000	-1.495439
829.796000	-0.950723
830.001000	-0.904431
830.206000	-1.550752
830.412000	-1.267941
830.617000	-1.303222
830.822000	-0.225033
831.027000	-0.725287
831.232000	-1.501627
831.438000	-1.405853
831.643000	-0.841149
831.848000	-0.933438
832.053000	-0.829962
832.259000	-0.971137
832.464000	-2.693418
832.669000	-2.379570
832.874000	-1.886977
833.080000	-1.795479
833.285000	-0.148338
833.490000	-0.398630
833.695000	-1.534506
833.901000	-1.271839
834.106000	-1.696120
834.311000	-1.271984
834.516000	-0.857227
834.721000	-1.597553
834.927000	-0.204384
835.132000	-0.445707
835.337000	1.173663
835.542000	-0.162967
835.748000	-1.815113
835.953000	0.062507
836.158000	-0.163613
836.363000	-0.653586
836.569000	-0.473737
836.774000	-1.436057
836.979000	-1.861725
837.184000	-2.034455
837.390000	-1.656787
837.595000	-1.056497
837.800000	-0.996528
838.005000	-0.742557
838.210000	-1.119702
838.416000	-1.385236
838.621000	-1.262529
838.826000	-1.514470
839.031000	-1.231948
839.237000	-1.661576
839.442000	-2.405723
839.647000	-2.667206
839.852000	-1.779073
840.058000	-1.813141
840.263000	-1.747981
840.468000	-2.277998
840.673000	-1.342096
840.878000	-0.962990
841.084000	-1.650014
841.289000	-0.952455
841.494000	1.801365
841.699000	1.523750
841.905000	0.437856
842.110000	0.525980
842.315000	-1.439974
842.520000	-0.847091
842.726000	-1.375032
842.931000	-1.861189
843.136000	-0.777576
843.341000	-2.412175
843.547000	-1.449373
843.752000	-0.976396
843.957000	-2.156288
844.162000	-1.980091
844.367000	-1.060055
844.573000	-0.541197
844.778000	-0.431420
844.983000	-0.363361
845.188000	-0.176657
845.394000	-1.890685
845.599000	-1.416531
845.804000	-1.411339
846.009000	-0.563190
846.215000	-1.843411
846.420000	-1.655210
846.625000	-0.752779
846.830000	0.154486
847.036000	-1.009026
847.241000	-1.874820
847.446000	0.032816
847.651000	-0.615823
847.856000	-2.200881
848.062000	-2.082344
848.267000	-0.300246
848.472000	-1.378810
848.677000	-2.599570
848.883000	-0.783046
849.088000	0.509693
849.293000	-0.762246
849.498000	-1.291410
849.704000	-0.667715
849.909000	-1.085185
850.114000	-1.799460
850.319000	-0.574807
850.524000	-0.792827
850.730000	-0.710894
850.935000	-1.039166
851.140000	0.078306
851.345000	-0.117443
851.551000	0.056717
851.756000	0.276336
851.961000	-1.262212
852.166000	-1.636888
852.372000	-0.913211
852.577000	-0.897664
852.782000	-1.329843
852.987000	0.191988
853.193000	-0.636293
853.398000	-0.681305
853.603000	-1.884513
853.808000	-2.649591
854.013000	-1.399940
854.219000	0.047580
854.424000	1.799142
854.629000	1.426990
854.834000	-1.133609
855.040000	-0.655885
855.245000	-0.101276
855.450000	-2.648030
855.655000	-3.859582
855.861000	-3.350441
856.066000	-2.465404
856.271000	-2.668516
856.476000	-0.397307
856.682000	-1.189428
856.887000	-3.817441
857.092000	-2.454989
857.297000	-0.021351
857.502000	-0.354175
857.708000	-0.819287
857.913000	0.133604
858.118000	-0.719924
858.323000	-0.939376
858.529000	-0.889701
858.734000	-1.387745
858.939000	-1.270596
859.144000	-2.077787
859.350000	-3.075754
859.555000	-2.902299
859.760000	-0.574299
859.965000	0.812127
860.171000	-1.303542
860.376000	-0.764605
860.581000	-2.677077
860.786000	-4.743802
860.991000	-3.801081
861.197000	-2.773422
861.402000	-1.101013
861.607000	-1.729117
861.812000	-2.996761
862.018000	-2.843802
862.223000	-1.543716
862.428000	-0.762384
862.633000	0.346927
862.839000	-0.652001
863.044000	-1.899881
863.249000	-2.759485
863.454000	-0.875953
863.659000	-1.241462
863.865000	-1.976939
864.070000	-1.864608
864.275000	-2.730963
864.480000	-2.428118
864.686000	-3.940488
864.891000	-3.178246
865.096000	-0.753127
865.301000	-0.209888
865.507000	-0.344746
865.712000	-0.077496
865.917000	-1.032747
866.122000	-0.334398
866.328000	-3.468714
866.533000	-3.127524
866.738000	0.301211
866.943000	-0.024474
867.148000	0.563332
867.354000	-1.761139
867.559000	-3.071168
867.764000	-1.257742
867.969000	-0.512331
868.175000	-1.925856
868.380000	-2.712339
868.585000	-3.385081
868.790000	-1.284279
868.996000	-1.715241
869.201000	-3.117547
869.406000	-3.981807
869.611000	-2.979222
869.817000	-2.436899
870.022000	2.081627
870.227000	-0.339702
870.432000	-2.593295
870.637000	-0.987958
870.843000	-1.788078
871.048000	-2.309151
871.253000	-0.286281
871.458000	-1.363102
871.664000	-3.653173
871.869000	-3.542360
872.074000	-2.549683
872.279000	-1.457103
872.485000	-2.149273
872.690000	-2.352387
872.895000	-2.302234
873.100000	-3.099251
873.306000	-2.841520
873.511000	-1.239702
873.716000	0.443504
873.921000	-1.708792
874.126000	-2.743274
874.332000	-1.682407
874.537000	-0.551258
874.742000	-0.534130
874.947000	-0.952565
875.153000	0.718792
875.358000	-0.901377
875.563000	-1.477012
875.768000	-4.049102
875.974000	-4.285680
876.179000	-0.957029
876.384000	-0.676972
876.589000	-2.374910
876.794000	-2.058042
877.000000	-2.891311
877.205000	-3.909822
877.410000	-1.023999
877.615000	-2.800819
877.821000	-4.636150
878.026000	-3.085818
878.231000	-3.812740
878.436000	-4.272644
878.642000	-2.915959
878.847000	-1.402384
879.052000	-0.208915
879.257000	-2.350973
879.463000	-3.491762
879.668000	-2.635283
879.873000	-0.327824
880.078000	-2.967602
880.283000	-4.761987
880.489000	-4.611929
880.694000	-3.845471
880.899000	-2.019855
881.104000	-0.589118
881.310000	1.391503
881.515000	-0.199524
881.720000	0.901712
881.925000	2.679483
882.131000	3.958111
882.336000	0.295449
882.541000	-3.684071
882.746000	-3.267299
882.952000	-3.558918
883.157000	-3.410903
883.362000	-3.206778
883.567000	-4.061168
883.772000	-4.364117
883.978000	-3.466085
884.183000	-1.806176
884.388000	-1.996664
884.593000	-4.104731
884.799000	0.768411
885.004000	0.147916
885.209000	-1.891249
885.414000	-1.525079
885.620000	-4.452547
885.825000	-1.382947
886.030000	-1.598751
886.235000	-2.927671
886.440000	-2.139220
886.646000	-4.611452
886.851000	-4.560133
887.056000	-0.183139
887.261000	-1.024905
887.467000	-3.958564
887.672000	-0.847021
887.877000	-2.105550
888.082000	-4.540523
888.288000	-4.885415
888.493000	-7.243481
888.698000	-5.325598
888.903000	-2.137253
889.109000	-3.769020
889.314000	-0.285052
889.519000	-1.914868
889.724000	0.195989
889.929000	-1.188852
890.135000	-1.905737
890.340000	-1.764497
890.545000	-3.842053
890.750000	-5.485749
890.956000	-3.472723
891.161000	-1.127297
891.366000	-3.614417
891.571000	-2.583865
891.777000	-2.056462
891.982000	-0.193242
892.187000	-0.807966
892.392000	0.102731
892.598000	0.162924
892.803000	-0.457013
893.008000	-3.280021
893.213000	-3.530989
893.418000	-3.656438
893.624000	-4.038623
893.829000	-5.981690
894.034000	-3.218112
894.239000	-1.258549
894.445000	-3.592171
894.650000	-3.814478
894.855000	-4.228147
895.060000	-4.384382
895.266000	-3.816683
895.471000	-5.093284
895.676000	-1.728440
895.881000	-1.119219
896.087000	-2.284646
896.292000	-3.304757
896.497000	0.446165
896.702000	-1.882314
896.907000	-3.669667
897.113000	1.226336
897.318000	1.204656
897.523000	0.257614
897.728000	-2.200272
897.934000	-3.080595
898.139000	-2.919592
898.344000	0.111209
898.549000	-1.350707
898.755000	-3.549550
898.960000	-3.853199
899.165000	-5.762883
899.370000	-2.260021
899.575000	1.466869
899.781000	-3.169728
899.986000	-3.739072
900.191000	-1.736071
900.396000	-2.576250
900.602000	-1.637574
900.807000	-2.386571
901.012000	-1.749855
901.217000	-0.333704
901.423000	-2.984050
901.628000	-4.775133
901.833000	-0.063442
902.038000	-0.337942
902.244000	-3.821011
902.449000	-3.110541
902.654000	-3.004445
902.859000	-1.865876
903.064000	0.213470
903.270000	0.586824
903.475000	-3.840586
903.680000	-6.444111
903.885000	-4.993634
904.091000	-4.146608
904.296000	-5.986516
904.501000	-5.011729
904.706000	-4.526979
904.912000	-0.525572
905.117000	-2.004573
905.322000	-4.681139
905.527000	-3.979222
905.733000	-3.106707
905.938000	-3.370762
906.143000	-3.856862
906.348000	-5.990613
906.553000	-1.417318
906.759000	-0.019950
906.964000	-1.749256
907.169000	-3.094823
907.374000	-5.577346
907.580000	-4.317781
907.785000	-3.929310
907.990000	22.882811
908.195000	15.616845
908.401000	-0.332704
908.606000	-8.201267
908.811000	-9.315819
909.016000	-2.237217
909.221000	-1.878097
909.427000	-2.862123
909.632000	-5.089844
909.837000	-5.071871
910.042000	-6.265744
910.248000	-7.481890
910.453000	-3.052631
910.658000	-4.302990
910.863000	-5.006750
911.069000	-6.501326
911.274000	-2.638355
911.479000	-0.548653
911.684000	-7.054185
911.890000	-4.428293
912.095000	-3.931187
912.300000	-6.489971
912.506000	-5.339883
912.711000	-5.463394
912.917000	-3.044898
913.123000	-2.705189
913.328000	-3.382281
913.534000	-2.312240
913.740000	6.950364
913.946000	2.205214
914.151000	-5.226087
914.357000	-6.521438
914.563000	-1.813857
914.768000	-5.466553
914.974000	-7.467516
915.180000	-6.574241
915.385000	-5.024686
915.591000	-8.371381
915.797000	-2.601236
916.002000	0.561979
916.208000	-3.805490
916.414000	-5.525420
916.620000	-6.627244
916.825000	-3.242776
917.031000	-3.714212
917.237000	-9.723868
917.442000	-5.133346
917.648000	-6.676481
917.854000	-8.237837
918.059000	-1.184008
918.265000	-0.636250
918.471000	-3.869127
918.676000	-7.305173
918.882000	-9.456229
919.088000	-7.037676
919.294000	-11.470445
919.499000	-8.243137
919.705000	-2.176108
919.911000	-2.981945
920.116000	-1.248130
920.322000	-7.963394
920.528000	-5.711724
920.733000	-7.909431
920.939000	-8.848517
921.145000	-6.915294
921.350000	-6.651655
921.556000	-4.859272
921.762000	-5.378551
921.968000	-5.784761
922.173000	-6.753569
922.379000	-8.655176
922.585000	-4.499775
922.790000	-5.527273
922.996000	-6.964738
923.202000	-8.534457
923.407000	-7.877828
923.613000	-5.755404
923.819000	-3.974811
924.024000	-4.211641
924.230000	-1.983845
924.436000	-4.189406
924.642000	6.438832
924.847000	2.560484
925.053000	-5.633353
925.259000	-11.212408
925.464000	-4.860048
925.670000	-5.634334
925.876000	-6.957132
926.081000	-7.746101
926.287000	-3.124158
926.493000	-2.453036
926.698000	-4.033246
926.904000	-1.558419
927.110000	-5.002302
927.316000	-5.266863
927.521000	1.032956
927.727000	-5.275727
927.933000	-6.719373
928.138000	-5.657558
928.344000	-11.539871
928.550000	-6.241933
928.755000	-1.582704
928.961000	-6.472779
929.167000	-6.339500
929.372000	0.702366
929.578000	-0.866352
929.784000	-5.280233
929.990000	-8.359723
930.195000	-8.248660
930.401000	-7.057731
930.607000	-5.057232
930.812000	-3.929592
931.018000	-7.173516
931.224000	-12.889980
931.429000	-8.875766
931.635000	-11.904185
931.841000	-11.694256
932.046000	-6.398258
932.252000	-2.200819
932.458000	4.185187
932.664000	-1.046078
932.869000	-6.186959
933.075000	-9.566106
933.281000	-9.064593
933.486000	-1.232513
933.692000	-4.632773
933.898000	-9.604706
934.103000	-3.161696
934.309000	-6.106703
934.515000	-4.012669
934.720000	-1.614777
934.926000	0.750719
935.132000	0.116402
935.338000	-2.823920
935.543000	-9.428758
935.749000	-10.667144
935.955000	-13.411785
936.160000	-12.732436
936.366000	-3.181223
936.572000	-2.787026
936.777000	-1.561907
936.983000	-0.046734
937.189000	-4.344978
937.394000	-9.237032
937.600000	-0.527540
937.806000	3.031298
938.012000	-6.857579
938.217000	4.399788
938.423000	0.945980
938.629000	-9.386483
938.834000	-16.412323
939.040000	-14.397820
939.246000	-6.630728
939.451000	-9.689836
939.657000	-6.258104
939.863000	-11.580200
940.068000	-3.531845
940.274000	-10.021440
940.480000	-6.333076
940.686000	-4.155558
940.891000	-8.323902
941.097000	18.438495
941.303000	5.427914
941.508000	-8.118780
941.714000	-4.536545
941.920000	-15.185512
942.125000	-5.488210
942.331000	-4.640872
942.537000	0.596024
942.742000	-0.058739
942.948000	-8.136597
943.154000	-12.454058
943.360000	-23.324015
943.565000	-9.122660
943.771000	2.661516
943.977000	4.070126
944.182000	-15.877789
944.388000	-17.226667
944.594000	0.091558
944.799000	7.491418
945.005000	-3.319240
945.211000	1.687346
945.416000	-0.601998
945.622000	-12.209797
945.828000	-10.464493
946.034000	-1.653365
946.239000	-1.023135
946.445000	-8.011569
946.651000	-19.566659
946.856000	-17.025115
947.062000	-0.535896
947.268000	1.126923
947.473000	-16.717544
947.679000	-19.545056
947.885000	-3.924364
948.090000	0.097093
948.296000	13.592625
948.502000	1.313739
948.708000	-9.636397
948.913000	-12.979066
949.119000	-0.397173
949.325000	-6.938372
949.530000	-20.861896
949.736000	-24.175266
949.942000	-13.964779
950.147000	-15.971761
950.353000	-14.521961
950.559000	-9.682129
950.764000	12.294409
950.970000	5.696327
951.176000	-10.122268
951.382000	-14.476870
951.587000	-2.849222
951.793000	1.591421
951.999000	1.396400
952.204000	-12.516383
952.410000	-26.120925
952.616000	-12.308279
952.821000	-6.443911
953.027000	-14.826042
953.233000	-18.079383
953.438000	-17.855710
953.644000	-0.601426
953.850000	-6.620099
954.056000	-11.430492
954.261000	-11.141543
954.467000	-0.793823
954.673000	7.039443
954.878000	-5.040290
955.084000	-5.498714
955.290000	-20.412744
955.495000	-22.931282
955.701000	-16.875537
955.907000	0.665928
956.112000	-2.016490
956.318000	7.810880
956.524000	6.417134
956.730000	-9.777103
956.935000	-12.263074
957.141000	-16.683823
957.347000	-6.074805
957.552000	-9.968243
957.758000	-24.062049
957.964000	-32.959930
958.169000	2.434705
958.375000	3.411392
958.581000	-10.206255
958.786000	-24.506543
958.992000	-30.586061
959.198000	-9.836746
959.404000	-2.857212
959.609000	-11.764937
959.815000	-14.501050
960.021000	1.232497
960.226000	-6.502416
960.432000	-31.564508
960.638000	-21.051904
960.843000	-12.789531
961.049000	-14.742710
961.255000	-3.637317
961.460000	-15.348821
961.666000	-36.054592
961.872000	-22.175065
962.078000	-17.427474
962.283000	-26.203499
962.489000	-25.348389
962.695000	-15.465388
962.900000	-14.910831
963.106000	-13.212753
963.312000	-18.481153
963.517000	-22.959914
963.723000	-22.893368
963.929000	0.134823
964.134000	10.450724
964.340000	-16.078211
964.546000	-19.139601
964.752000	-23.897731
964.957000	-29.671469
965.163000	-4.185629
965.369000	-5.188184
965.574000	-2.489249
965.780000	-8.959195
966.000000	-17.717218
966.220000	-13.843729
966.440000	-13.553298
966.661000	-0.463453
966.881000	-19.426969
967.101000	-35.326648
967.321000	-37.718373
967.541000	-13.856989
967.761000	-18.656441
967.981000	-12.880174
968.202000	-10.490829
968.422000	3.502401
968.642000	-2.284962
968.862000	-4.429541
969.082000	-12.118834
969.302000	-2.971589
969.522000	-10.557394
969.743000	4.853291
969.963000	-13.840845
970.183000	-27.038891
970.403000	-25.852129
970.623000	-24.747787
970.843000	-0.936730
971.063000	-1.790470
971.284000	-23.051613
971.504000	-32.302129
971.724000	-11.693974
971.944000	-25.101310
972.164000	-35.378985
972.384000	-28.743835
972.604000	-42.434012
972.825000	-46.585621
973.045000	-30.681447
973.265000	24.970489
973.485000	9.707387
973.705000	-10.765365
973.925000	-15.404471
974.145000	-50.456781
974.365000	-20.045486
974.586000	-16.028601
974.806000	-31.443963
975.026000	-2.043513
975.246000	-14.267863
975.466000	-30.147853
975.686000	-13.633221
975.906000	-24.462305
976.127000	-46.682811
976.347000	-36.613209
976.567000	-4.780567
976.787000	-7.958902
977.007000	-23.317943
977.227000	-24.683696
977.447000	-29.626002
977.668000	-52.612569
977.888000	-34.562210
978.108000	-33.964123
978.328000	-21.118600
978.548000	6.392086
978.768000	8.309921
978.988000	-3.908478
979.209000	-21.099731
979.429000	-25.360023
979.649000	-10.262321
979.869000	-31.697183
980.089000	-43.922147
980.309000	-50.454138
980.529000	-53.668876
980.750000	-32.968513
980.970000	-47.793858
981.190000	-31.833642
981.410000	-34.136350
981.630000	-48.542961
981.850000	-31.874435
982.070000	-20.067019
982.291000	-48.124078
982.511000	-47.163417
982.731000	-11.367013
982.951000	-32.851950
983.171000	-31.476146
983.391000	-27.116705
983.611000	2.446303
983.832000	-28.521135
984.052000	-52.443285
984.272000	-24.074644
984.492000	-13.773775
984.712000	-32.756442
984.932000	-57.989750
985.152000	-62.358702
985.373000	-47.486765
985.593000	-20.716589
985.813000	-27.607379
986.033000	-36.526988
986.253000	7.762914
986.473000	6.435371
986.693000	-31.620669
986.914000	-39.468784
987.134000	10.503971
987.354000	-24.847872
987.574000	189.466852
987.794000	114.785887
988.014000	-40.262718
988.234000	-23.669007
988.455000	-10.686194
988.675000	-13.230857
988.895000	-33.171031
989.115000	-53.587639
989.335000	-30.960702
989.555000	-4.447166
989.775000	-42.221372
989.995000	-43.232414
990.216000	-27.994473
990.436000	-27.619522
990.656000	5.244665
990.876000	-34.761371
991.096000	-23.674530
991.316000	5.486702
991.536000	-18.651907
991.757000	-27.106740
991.977000	-74.846648
992.197000	-17.651066
992.417000	-37.207062
992.637000	-90.507264
992.857000	-91.799337
993.077000	-81.374486
993.298000	-35.929336
993.518000	-38.358560
993.738000	-99.315087
993.958000	-46.400074
994.178000	-44.664863
994.398000	-40.613265
994.618000	-76.132764
994.839000	-128.623217
995.059000	-36.896725
995.279000	31.442623
995.499000	-5.700443
995.719000	-4.378962
995.939000	-36.742797
996.159000	-36.459416
996.380000	-27.252434
996.600000	-76.690742
996.820000	-38.520104
997.040000	6.962230
997.260000	-61.925766
997.480000	-46.686787
997.700000	-102.026062
997.921000	-55.210422
998.141000	38.477985
998.361000	-1.980111
998.581000	-54.769472
998.801000	-83.567942
999.021000	-57.797814
999.241000	-33.564570
999.462000	-58.622295
999.682000	-111.146394
999.902000	-60.827068
1000.122000	-80.588093
1000.342000	-129.273633
1000.562000	-67.162997
1000.782000	-74.783733
1001.003000	-1027.301642
