Wavelength	Irradiance
(nm)	(mW/cm2/nm)

294.396000	0.000000
294.577000	0.000000
294.757000	0.000000
294.938000	-0.000000
295.118000	0.000000
295.299000	0.000000
295.479000	-0.000000
295.660000	-0.000000
295.840000	-0.000000
296.021000	-0.000000
296.202000	-0.000000
296.382000	-0.000000
296.563000	-0.000000
296.743000	-0.000000
296.924000	-0.000000
297.104000	-0.000000
297.285000	-0.000000
297.465000	-0.000000
297.646000	-0.000000
297.826000	-0.000000
298.007000	0.000000
298.187000	0.000000
298.368000	-0.000000
298.548000	0.000000
298.729000	0.000000
298.909000	-0.000000
299.090000	-0.000000
299.270000	-0.000000
299.451000	-0.000000
299.631000	-0.000000
299.812000	-0.000000
299.992000	0.000000
300.173000	0.000000
300.353000	-0.000000
300.534000	-0.000000
300.714000	0.000000
300.895000	0.000000
301.075000	-0.000000
301.256000	0.000000
301.436000	-0.000000
301.617000	-0.000000
301.797000	-0.000000
301.978000	-0.000000
302.159000	0.000000
302.339000	0.000000
302.520000	-0.000000
302.700000	-0.000000
302.881000	0.000000
303.061000	0.000000
303.242000	0.000000
303.422000	0.000000
303.603000	-0.000000
303.783000	-0.000000
303.964000	-0.000000
304.144000	-0.000000
304.325000	-0.000000
304.505000	0.000000
304.686000	-0.000000
304.866000	0.000000
305.047000	-0.000000
305.227000	-0.000000
305.408000	-0.000000
305.588000	-0.000000
305.769000	-0.000000
305.949000	-0.000000
306.130000	-0.000000
306.310000	-0.000000
306.491000	-0.000000
306.671000	0.000000
306.852000	-0.000000
307.032000	-0.000000
307.213000	0.000000
307.393000	-0.000000
307.574000	0.000000
307.755000	0.000000
307.935000	0.000000
308.116000	-0.000000
308.296000	-0.000000
308.477000	0.000000
308.657000	0.000000
308.838000	0.000000
309.018000	0.000000
309.199000	-0.000000
309.379000	-0.000000
309.560000	0.000000
309.740000	-0.000000
309.921000	0.000000
310.101000	-0.000000
310.282000	-0.000000
310.462000	-0.000000
310.643000	-0.000000
310.823000	-0.000000
311.004000	-0.000000
311.184000	-0.000000
311.365000	0.000000
311.545000	0.000000
311.726000	-0.000000
311.906000	-0.000000
312.087000	0.000000
312.267000	-0.000000
312.448000	-0.000000
312.628000	-0.000000
312.809000	-0.000000
312.989000	-0.000000
313.170000	-0.000000
313.344000	-0.000000
313.518000	-0.000000
313.691000	-0.000000
313.865000	-0.000000
314.039000	-0.000000
314.213000	-0.000000
314.387000	-0.000000
314.560000	-0.000000
314.734000	-0.000000
314.908000	-0.000000
315.082000	-0.000000
315.255000	0.000000
315.429000	0.000000
315.603000	0.000000
315.777000	-0.000000
315.951000	0.000000
316.124000	-0.000000
316.298000	-0.000000
316.472000	-0.000000
316.646000	-0.000000
316.820000	-0.000000
316.993000	-0.000000
317.167000	-0.000000
317.341000	-0.000000
317.515000	-0.000000
317.688000	-0.000000
317.862000	-0.000000
318.036000	-0.000000
318.210000	-0.000000
318.384000	-0.000000
318.557000	-0.000000
318.731000	-0.000000
318.905000	-0.000000
319.079000	0.000000
319.253000	-0.000000
319.426000	0.000000
319.600000	0.000000
319.774000	-0.000000
319.948000	-0.000000
320.122000	0.000000
320.295000	0.000000
320.469000	-0.000000
320.643000	-0.000000
320.817000	-0.000000
320.990000	-0.000000
321.164000	-0.000000
321.338000	-0.000000
321.512000	-0.000000
321.686000	-0.000000
321.859000	-0.000000
322.033000	0.000000
322.207000	-0.000000
322.381000	-0.000000
322.555000	0.000000
322.728000	0.000000
322.902000	-0.000000
323.076000	-0.000000
323.250000	-0.000000
323.423000	-0.000000
323.597000	-0.000000
323.771000	-0.000000
323.945000	-0.000000
324.119000	-0.000000
324.292000	0.000000
324.466000	-0.000000
324.640000	0.000000
324.814000	0.000000
324.988000	-0.000000
325.161000	-0.000000
325.335000	-0.000000
325.509000	-0.000000
325.683000	-0.000000
325.856000	-0.000000
326.030000	-0.000000
326.204000	-0.000000
326.378000	-0.000000
326.552000	-0.000000
326.725000	-0.000000
326.899000	-0.000000
327.073000	-0.000000
327.247000	-0.000000
327.421000	0.000000
327.594000	-0.000000
327.768000	-0.000000
327.942000	-0.000000
328.116000	0.000000
328.289000	0.000000
328.463000	-0.000000
328.637000	0.000000
328.811000	-0.000000
328.985000	-0.000000
329.158000	-0.000000
329.332000	-0.000000
329.506000	0.000000
329.680000	-0.000000
329.854000	-0.000000
330.027000	-0.000000
330.201000	0.000000
330.375000	0.000000
330.549000	0.000000
330.723000	-0.000000
330.896000	-0.000000
331.070000	-0.000000
331.244000	-0.000000
331.418000	-0.000000
331.591000	-0.000000
331.765000	-0.000000
331.939000	-0.000000
332.113000	-0.000000
332.287000	-0.000000
332.460000	0.000000
332.634000	0.000000
332.808000	-0.000000
332.982000	-0.000000
333.156000	-0.000000
333.329000	-0.000000
333.503000	-0.000000
333.677000	-0.000000
333.851000	-0.000000
334.024000	-0.000000
334.198000	-0.000000
334.372000	-0.000000
334.546000	-0.000000
334.720000	-0.000000
334.893000	-0.000000
335.067000	-0.000000
335.241000	-0.000000
335.415000	-0.000000
335.589000	-0.000000
335.762000	-0.000000
335.936000	-0.000000
336.110000	-0.000000
336.284000	-0.000000
336.458000	-0.000000
336.631000	-0.000000
336.805000	-0.000000
336.979000	-0.000000
337.153000	-0.000000
337.326000	-0.000000
337.500000	-0.000000
337.674000	-0.000000
337.848000	-0.000000
338.022000	-0.000000
338.195000	-0.000000
338.369000	-0.000000
338.543000	-0.000000
338.717000	-0.000000
338.891000	0.000000
339.064000	0.000000
339.238000	-0.000000
339.412000	-0.000000
339.586000	-0.000000
339.759000	-0.000000
339.933000	-0.000000
340.107000	0.000000
340.281000	-0.000000
340.455000	-0.000000
340.628000	-0.000000
340.802000	-0.000000
340.976000	-0.000000
341.150000	-0.000000
341.324000	-0.000000
341.497000	-0.000000
341.671000	-0.000000
341.845000	-0.000000
342.019000	-0.000000
342.192000	-0.000000
342.366000	-0.000000
342.540000	-0.000000
342.714000	-0.000000
342.888000	-0.000000
343.061000	-0.000000
343.235000	-0.000000
343.409000	-0.000000
343.583000	-0.000000
343.757000	-0.000000
343.930000	-0.000000
344.104000	-0.000000
344.278000	0.000000
344.452000	0.000000
344.626000	-0.000000
344.799000	-0.000000
344.973000	-0.000000
345.147000	-0.000000
345.321000	-0.000000
345.494000	-0.000000
345.668000	0.000000
345.842000	0.000000
346.016000	-0.000000
346.190000	0.000000
346.363000	0.000000
346.537000	-0.000000
346.711000	-0.000000
346.885000	-0.000000
347.059000	-0.000000
347.232000	-0.000000
347.406000	0.000000
347.580000	-0.000000
347.754000	-0.000000
347.927000	-0.000000
348.101000	0.000000
348.275000	-0.000000
348.449000	-0.000000
348.623000	-0.000000
348.796000	0.000000
348.970000	0.000000
349.144000	-0.000000
349.318000	-0.000000
349.492000	-0.000000
349.665000	-0.000000
349.839000	-0.000000
350.013000	-0.000000
350.187000	-0.000000
350.361000	-0.000000
350.534000	-0.000000
350.708000	-0.000000
350.882000	-0.000000
351.056000	0.000000
351.229000	-0.000000
351.403000	-0.000000
351.577000	-0.000000
351.751000	-0.000000
351.925000	-0.000000
352.098000	-0.000000
352.272000	-0.000000
352.446000	-0.000000
352.620000	-0.000000
352.794000	-0.000000
352.967000	-0.000000
353.141000	0.000000
353.315000	0.000000
353.489000	-0.000000
353.662000	-0.000000
353.836000	-0.000000
354.010000	-0.000000
354.184000	-0.000000
354.358000	-0.000000
354.531000	-0.000000
354.705000	-0.000000
354.879000	-0.000000
355.053000	-0.000000
355.227000	0.000000
355.400000	-0.000000
355.574000	0.000000
355.748000	0.000000
355.922000	-0.000000
356.095000	-0.000000
356.269000	-0.000000
356.443000	-0.000000
356.617000	-0.000000
356.791000	-0.000000
356.964000	-0.000000
357.138000	-0.000000
357.312000	-0.000000
357.486000	-0.000000
357.660000	-0.000000
357.833000	-0.000000
358.007000	-0.000000
358.181000	-0.000000
358.355000	-0.000000
358.529000	-0.000000
358.702000	-0.000000
358.876000	-0.000000
359.050000	-0.000000
359.224000	-0.000000
359.397000	-0.000000
359.571000	-0.000000
359.745000	-0.000000
359.919000	-0.000000
360.093000	-0.033175
360.266000	-0.002398
360.440000	0.054383
360.614000	0.117646
360.788000	0.018147
360.962000	-0.164520
361.135000	-0.053991
361.309000	-0.212945
361.483000	-0.376619
361.657000	-0.252563
361.830000	-0.222469
362.004000	-0.056107
362.178000	-0.354249
362.352000	-0.230869
362.526000	-0.063524
362.699000	-0.074365
362.873000	-0.409125
363.047000	-0.423963
363.221000	-0.365680
363.395000	-0.180744
363.568000	-0.223709
363.742000	-0.249345
363.916000	-0.227880
364.090000	-0.296216
364.263000	-0.286508
364.437000	-0.341434
364.611000	-0.048983
364.785000	-0.028659
364.959000	-0.234533
365.132000	-0.303085
365.306000	-0.282891
365.480000	-0.113855
365.656000	-0.164469
365.831000	-0.201895
366.007000	-0.173622
366.183000	-0.168078
366.358000	-0.297163
366.534000	-0.193959
366.710000	-0.340754
366.886000	-0.289862
367.061000	-0.086879
367.237000	0.056705
367.413000	-0.093546
367.588000	-0.334587
367.764000	-0.351210
367.940000	-0.387806
368.115000	-0.297840
368.291000	-0.298279
368.467000	-0.194583
368.643000	0.134926
368.818000	-0.188661
368.994000	-0.346121
369.170000	-0.303671
369.345000	-0.271319
369.521000	-0.328550
369.697000	-0.168909
369.872000	-0.238753
370.048000	-0.381941
370.224000	-0.258041
370.399000	-0.444280
370.575000	-0.388308
370.751000	-0.464466
370.927000	-0.459650
371.102000	-0.468470
371.278000	-0.395657
371.454000	-0.240694
371.629000	0.047003
371.805000	0.014487
371.981000	0.138499
372.156000	0.278072
372.332000	0.014248
372.508000	-0.042993
372.683000	-0.047707
372.859000	-0.215708
373.035000	-0.261022
373.211000	0.202527
373.386000	0.007089
373.562000	-0.361235
373.738000	-0.462199
373.913000	-0.617898
374.089000	-0.483686
374.265000	-0.063676
374.440000	-0.074438
374.616000	-0.008140
374.792000	-0.215790
374.968000	0.195285
375.143000	-0.007983
375.319000	-0.293753
375.495000	-0.359585
375.670000	-0.226712
375.846000	-0.130870
376.022000	-0.307037
376.197000	-0.274359
376.373000	-0.385916
376.549000	-0.399364
376.724000	-0.482337
376.900000	-0.295404
377.076000	-0.168173
377.252000	0.011603
377.427000	0.111411
377.603000	-0.244278
377.779000	-0.261612
377.954000	-0.405617
378.130000	-0.266703
378.306000	-0.142221
378.481000	-0.153806
378.657000	-0.252293
378.833000	-0.302629
379.009000	-0.169620
379.184000	-0.061489
379.360000	-0.094812
379.536000	-0.076089
379.711000	-0.203796
379.887000	-0.359584
380.063000	-0.343682
380.238000	-0.350968
380.414000	-0.082765
380.590000	-0.332803
380.765000	-0.356132
380.941000	-0.108874
381.117000	-0.084246
381.293000	-0.162846
381.468000	-0.312146
381.644000	-0.249704
381.820000	-0.127599
381.995000	-0.015016
382.171000	0.255022
382.347000	0.181800
382.522000	-0.271169
382.698000	0.030780
382.874000	0.081156
383.050000	-0.297774
383.225000	0.055019
383.401000	0.244040
383.577000	-0.076073
383.752000	-0.227642
383.928000	-0.188958
384.104000	-0.090977
384.279000	-0.215875
384.455000	-0.133667
384.631000	-0.200556
384.806000	-0.360933
384.982000	-0.150712
385.158000	-0.236198
385.334000	-0.083371
385.509000	-0.157447
385.685000	-0.507800
385.861000	-0.314568
386.036000	-0.403161
386.212000	-0.565948
386.388000	-0.354872
386.563000	-0.290527
386.739000	-0.319814
386.915000	-0.582154
387.090000	-0.290686
387.266000	-0.091300
387.442000	0.004298
387.618000	-0.095231
387.793000	-0.416217
387.969000	-0.533020
388.145000	-0.388618
388.320000	-0.391773
388.496000	-0.357361
388.672000	-0.580399
388.847000	-0.172572
389.023000	-0.161819
389.199000	-0.417870
389.375000	-0.202664
389.550000	-0.320124
389.726000	-0.196959
389.902000	-0.398115
390.077000	-0.206307
390.253000	-0.198107
390.429000	-0.310501
390.604000	-0.193190
390.780000	-0.145459
390.956000	-0.283564
391.131000	-0.387244
391.307000	-0.009734
391.483000	-0.176540
391.659000	-0.321230
391.834000	-0.095354
392.010000	-0.307862
392.186000	-0.356771
392.361000	-0.283343
392.537000	-0.406919
392.713000	-0.030090
392.888000	0.246098
393.064000	-0.011914
393.240000	-0.249556
393.416000	-0.357041
393.591000	-0.419099
393.767000	-0.447969
393.943000	-0.331307
394.118000	0.017578
394.294000	0.186469
394.470000	0.073677
394.645000	0.111508
394.821000	0.287819
394.997000	-0.065352
395.172000	-0.136248
395.348000	-0.214589
395.524000	-0.503874
395.700000	-0.346289
395.875000	-0.104309
396.051000	-0.146106
396.227000	-0.251700
396.402000	-0.246330
396.578000	-0.129762
396.754000	-0.295370
396.929000	-0.254314
397.105000	-0.013667
397.281000	-0.115027
397.457000	-0.294861
397.632000	-0.302624
397.808000	-0.518962
397.984000	-0.595079
398.159000	-0.510399
398.335000	-0.349165
398.511000	0.130915
398.686000	-0.116344
398.862000	-0.391420
399.038000	-0.433742
399.213000	-0.172939
399.389000	-0.450059
399.565000	-0.128227
399.741000	0.096928
399.916000	-0.011359
400.092000	0.156079
400.268000	-0.200931
400.443000	-0.323316
400.619000	0.099732
400.795000	0.012676
400.970000	-0.237661
401.146000	-0.290553
401.322000	0.017002
401.497000	0.441720
401.673000	0.106839
401.849000	-0.216462
402.025000	-0.041719
402.200000	-0.173787
402.376000	-0.282010
402.552000	0.164860
402.727000	-0.009092
402.903000	-0.350384
403.079000	-0.257669
403.254000	-0.009087
403.430000	-0.011175
403.606000	-0.097298
403.782000	-0.183173
403.957000	-0.349708
404.133000	-0.465176
404.309000	-0.302964
404.484000	-0.060721
404.660000	-0.058731
404.841000	-0.201364
405.023000	0.027504
405.204000	-0.049998
405.385000	-0.355488
405.566000	-0.338803
405.748000	-0.211673
405.929000	0.034579
406.110000	-0.019902
406.292000	-0.203889
406.473000	-0.155012
406.654000	-0.309891
406.835000	-0.164336
407.017000	-0.183052
407.198000	-0.121523
407.379000	-0.104239
407.560000	-0.168324
407.742000	-0.186764
407.923000	-0.069348
408.104000	-0.240495
408.286000	-0.212200
408.467000	-0.096448
408.648000	-0.323630
408.829000	-0.373680
409.011000	-0.179813
409.192000	-0.362742
409.373000	-0.212385
409.555000	-0.096789
409.736000	-0.032330
409.917000	-0.141331
410.098000	-0.157361
410.280000	-0.038319
410.461000	-0.080284
410.642000	-0.080432
410.823000	0.161648
411.005000	0.104952
411.186000	-0.122737
411.367000	-0.251595
411.549000	-0.285160
411.730000	-0.000422
411.911000	0.125881
412.092000	-0.052888
412.274000	-0.110812
412.455000	-0.052599
412.636000	-0.029666
412.818000	-0.193935
412.999000	-0.287695
413.180000	-0.210421
413.361000	-0.181987
413.543000	-0.214228
413.724000	-0.315136
413.905000	-0.311005
414.087000	-0.317880
414.268000	-0.310291
414.449000	-0.323207
414.630000	-0.376064
414.812000	-0.476234
414.993000	-0.112726
415.174000	0.042497
415.355000	-0.134034
415.537000	-0.358571
415.718000	-0.080311
415.899000	-0.165862
416.081000	-0.228242
416.262000	-0.024767
416.443000	-0.170502
416.624000	-0.164047
416.806000	-0.057082
416.987000	0.080948
417.168000	0.011726
417.350000	-0.154017
417.531000	-0.245509
417.712000	-0.183213
417.893000	0.079925
418.075000	0.125641
418.256000	-0.118782
418.437000	-0.012490
418.618000	0.124050
418.800000	0.198008
418.981000	-0.056236
419.162000	0.057062
419.344000	0.276814
419.525000	0.123916
419.706000	0.045767
419.887000	0.157861
420.069000	0.257755
420.250000	0.143648
420.431000	0.107375
420.613000	0.097857
420.794000	-0.100855
420.975000	0.228256
421.156000	0.079287
421.338000	0.059317
421.519000	0.091147
421.700000	0.017565
421.882000	0.035523
422.063000	0.172798
422.244000	0.653234
422.425000	0.502632
422.607000	0.146260
422.788000	0.087589
422.969000	0.037335
423.150000	0.075155
423.332000	-0.012291
423.513000	0.238260
423.694000	0.263503
423.876000	0.272670
424.057000	0.360427
424.238000	0.405802
424.419000	0.469194
424.601000	0.308611
424.782000	0.328345
424.963000	0.506520
425.145000	0.432156
425.326000	0.491829
425.507000	0.530742
425.688000	0.447787
425.870000	0.327579
426.051000	0.194249
426.232000	0.261758
426.413000	0.357190
426.595000	0.377180
426.776000	0.357143
426.957000	0.424515
427.139000	0.510124
427.320000	0.562261
427.501000	0.690643
427.682000	0.707200
427.864000	0.730705
428.045000	0.904658
428.226000	0.805637
428.408000	0.532440
428.589000	0.715679
428.770000	0.763808
428.951000	0.698936
429.133000	0.564137
429.314000	0.757193
429.495000	0.784251
429.677000	0.864189
429.858000	0.878989
430.039000	0.915714
430.220000	1.050737
430.402000	1.130487
430.583000	0.901274
430.764000	0.950979
430.945000	1.128842
431.127000	1.299467
431.308000	1.133234
431.489000	1.310497
431.671000	1.479660
431.852000	1.356072
432.033000	1.250358
432.214000	1.402478
432.396000	1.519764
432.577000	1.378393
432.758000	1.231060
432.940000	1.353151
433.121000	1.523910
433.302000	1.550069
433.483000	1.786404
433.665000	1.950951
433.846000	1.917462
434.027000	1.768080
434.208000	1.719388
434.390000	1.731549
434.571000	2.170785
434.752000	2.607366
434.934000	2.409210
435.115000	2.367224
435.296000	2.504673
435.477000	2.351863
435.659000	2.185083
435.840000	2.341834
436.026000	2.365207
436.211000	2.302072
436.397000	2.193462
436.582000	2.389581
436.768000	2.670104
436.953000	2.658959
437.139000	2.748877
437.325000	3.086190
437.510000	3.061464
437.696000	3.247121
437.881000	3.349888
438.067000	3.084710
438.252000	3.198074
438.438000	3.227257
438.624000	3.316192
438.809000	3.413190
438.995000	3.558247
439.180000	3.572951
439.366000	3.615039
439.551000	3.741968
439.737000	3.858573
439.923000	4.015394
440.108000	3.966282
440.294000	4.070671
440.479000	4.328367
440.665000	4.478691
440.850000	4.421558
441.036000	4.476554
441.222000	4.529782
441.407000	4.550283
441.593000	4.770579
441.778000	4.998920
441.964000	5.222963
442.149000	4.974359
442.335000	5.048919
442.521000	5.260013
442.706000	5.558840
442.892000	5.585684
443.077000	5.634499
443.263000	5.819171
443.448000	5.842136
443.634000	5.888432
443.820000	6.322265
444.005000	6.248376
444.191000	6.243888
444.376000	6.421565
444.562000	6.793832
444.747000	6.933608
444.933000	6.957142
445.119000	6.964674
445.304000	7.015588
445.490000	7.292928
445.675000	7.505269
445.861000	7.526986
446.046000	7.684940
446.232000	7.886442
446.418000	8.037847
446.603000	8.173006
446.789000	8.312133
446.974000	8.492531
447.160000	8.398368
447.345000	8.597159
447.531000	8.649446
447.717000	9.035918
447.902000	9.399904
448.088000	9.586833
448.273000	9.525606
448.459000	9.543080
448.644000	9.641913
448.830000	9.854071
449.016000	9.895409
449.201000	10.145851
449.387000	10.505515
449.572000	10.711031
449.758000	10.809662
449.943000	10.901882
450.129000	10.948480
450.315000	11.148390
450.500000	11.283706
450.686000	11.568016
450.871000	11.676156
451.057000	11.938276
451.243000	12.111220
451.428000	12.392685
451.614000	12.482044
451.799000	12.533921
451.985000	12.846897
452.170000	13.168059
452.356000	13.106191
452.542000	13.235326
452.727000	13.546459
452.913000	13.634744
453.098000	13.903848
453.284000	14.184125
453.469000	14.106158
453.655000	14.427943
453.841000	14.435625
454.026000	14.318718
454.212000	14.406595
454.397000	14.622151
454.583000	14.675216
454.768000	14.581786
454.954000	14.829911
455.140000	14.998298
455.325000	14.992345
455.511000	14.996565
455.696000	15.110089
455.882000	15.340017
456.067000	15.637973
456.253000	15.415182
456.439000	15.429595
456.624000	15.393812
456.810000	15.303331
456.995000	15.338952
457.181000	15.271936
457.366000	15.471328
457.552000	15.463679
457.738000	15.451347
457.923000	15.452249
458.109000	15.634349
458.294000	15.475377
458.480000	15.433447
458.665000	15.274100
458.851000	15.091272
459.037000	14.814806
459.222000	14.833820
459.408000	14.742873
459.593000	14.663597
459.779000	14.728253
459.964000	14.689373
460.150000	14.768994
460.336000	14.570742
460.521000	14.072257
460.707000	13.848346
460.892000	13.481531
461.078000	13.622385
461.263000	13.580647
461.449000	13.327256
461.635000	13.154170
461.820000	13.025397
462.006000	12.815311
462.191000	12.668164
462.377000	12.266716
462.562000	12.472679
462.748000	12.482227
462.934000	11.862450
463.119000	11.466675
463.305000	11.397354
463.490000	11.182499
463.676000	11.050959
463.861000	10.948042
464.047000	10.685683
464.233000	10.531220
464.418000	10.396701
464.604000	10.087795
464.789000	10.112336
464.975000	9.920430
465.160000	9.617017
465.346000	9.504409
465.532000	9.284949
465.717000	9.004360
465.903000	9.079923
466.088000	8.856574
466.274000	8.466366
466.459000	8.368202
466.645000	8.623805
466.831000	8.431559
467.016000	8.267572
467.202000	8.058387
467.387000	7.716457
467.573000	7.425477
467.758000	7.575261
467.944000	7.348159
468.130000	7.144487
468.315000	7.182006
468.501000	7.180810
468.686000	6.991487
468.872000	6.832598
469.057000	6.750162
469.243000	6.614926
469.429000	6.485188
469.614000	6.240376
469.800000	6.147939
469.985000	6.205999
470.171000	6.111947
470.356000	5.937867
470.542000	6.035096
470.728000	5.885582
470.913000	5.686033
471.099000	5.692700
471.284000	5.572476
471.470000	5.462121
471.655000	5.428018
471.841000	5.274547
472.027000	5.109306
472.212000	5.341243
472.398000	5.357267
472.583000	5.128352
472.769000	4.980203
472.954000	4.867969
473.140000	4.678271
473.326000	4.571055
473.511000	4.846535
473.697000	4.782851
473.882000	4.589004
474.068000	4.482418
474.253000	4.236554
474.439000	4.250854
474.625000	4.297467
474.810000	4.206809
474.996000	4.122145
475.181000	3.887019
475.367000	3.976970
475.552000	4.104257
475.738000	3.729856
475.924000	3.697441
476.109000	3.753353
476.295000	3.566432
476.480000	3.542873
476.666000	3.487645
476.851000	3.481261
477.037000	3.479744
477.223000	3.240826
477.408000	3.061775
477.594000	2.895731
477.779000	3.033370
477.965000	3.026861
478.151000	2.799134
478.336000	2.860816
478.522000	2.801074
478.707000	2.737295
478.893000	2.747501
479.078000	2.517406
479.264000	2.460334
479.450000	2.523622
479.635000	2.614283
479.821000	2.488140
480.006000	2.436125
480.192000	2.418642
480.377000	2.378280
480.563000	2.350120
480.749000	2.129676
480.934000	2.100060
481.120000	2.169530
481.305000	2.217910
481.491000	2.169289
481.676000	2.154407
481.862000	2.154811
482.048000	1.909733
482.233000	1.890815
482.419000	1.846530
482.604000	1.757277
482.790000	1.698071
482.975000	1.682917
483.161000	1.811289
483.347000	1.744816
483.532000	1.696723
483.718000	1.463870
483.903000	1.484180
484.089000	1.489703
484.274000	1.349498
484.460000	1.444803
484.646000	1.428224
484.831000	1.324429
485.017000	1.389939
485.202000	1.357070
485.388000	1.575203
485.573000	1.558533
485.759000	1.287404
485.945000	1.378374
486.130000	1.236847
486.316000	1.222213
486.501000	1.246109
486.687000	1.035154
486.872000	0.965291
487.058000	1.092554
487.244000	1.102281
487.429000	0.915602
487.615000	1.057166
487.800000	1.132188
487.986000	1.006521
488.171000	1.094447
488.357000	1.035370
488.543000	1.018179
488.728000	1.015527
488.914000	0.937076
489.099000	0.851483
489.285000	0.828514
489.470000	1.007851
489.656000	1.024972
489.842000	1.000287
490.027000	1.047505
490.213000	0.827204
490.398000	0.560658
490.584000	0.782007
490.769000	0.801229
490.955000	0.814611
491.141000	0.815759
491.326000	0.735108
491.512000	0.868281
491.697000	0.774261
491.883000	0.613451
492.068000	0.563718
492.254000	0.598477
492.440000	0.655322
492.625000	0.594881
492.811000	0.545518
492.996000	0.632212
493.182000	0.598237
493.367000	0.416375
493.553000	0.355284
493.739000	0.437690
493.924000	0.537250
494.110000	0.579113
494.295000	0.454297
494.481000	0.495443
494.666000	0.491443
494.852000	0.625342
495.038000	0.499768
495.223000	0.386169
495.409000	0.441579
495.594000	0.364204
495.780000	0.394994
495.965000	0.327520
496.151000	0.537710
496.337000	0.599171
496.522000	0.341345
496.708000	0.388685
496.893000	0.535601
497.079000	0.369003
497.264000	0.338180
497.450000	0.351224
497.636000	0.424781
497.821000	0.290472
498.007000	0.491010
498.192000	0.520151
498.378000	0.325493
498.563000	0.258123
498.749000	0.338863
498.935000	0.355570
499.120000	0.421984
499.306000	0.267773
499.491000	0.217013
499.677000	0.295550
499.862000	0.342577
500.048000	0.380544
500.234000	0.282107
500.419000	0.256772
500.605000	0.407924
500.790000	0.304096
500.976000	0.144958
501.161000	0.093162
501.347000	0.268549
501.533000	0.321948
501.718000	0.195240
501.904000	0.175520
502.089000	0.284022
502.275000	0.320710
502.460000	0.192032
502.646000	0.256912
502.832000	0.317431
503.017000	0.259010
503.203000	0.074725
503.388000	0.015617
503.574000	0.201625
503.759000	0.244826
503.945000	0.275574
504.131000	0.210580
504.316000	0.151271
504.502000	0.158548
504.687000	0.144493
504.873000	0.041721
505.058000	-0.030707
505.244000	-0.040837
505.430000	0.035981
505.615000	0.114471
505.801000	0.158337
505.986000	0.033021
506.172000	0.124338
506.358000	0.118812
506.543000	0.078100
506.729000	0.274242
506.914000	0.206425
507.100000	0.318145
507.285000	0.107983
507.471000	-0.019293
507.657000	0.243758
507.842000	0.107701
508.028000	-0.082072
508.213000	-0.039821
508.399000	0.043718
508.584000	0.172988
508.770000	0.056877
508.956000	-0.025233
509.141000	0.053939
509.327000	0.162739
509.512000	0.069929
509.698000	0.046593
509.883000	0.130470
510.069000	0.080733
510.255000	0.095507
510.440000	0.079393
510.626000	-0.020944
510.811000	-0.057901
510.997000	0.072096
511.182000	0.294828
511.368000	0.203561
511.554000	-0.108196
511.739000	-0.029838
511.925000	0.135686
512.110000	0.113408
512.296000	0.261728
512.481000	0.277674
512.667000	0.137359
512.853000	-0.062474
513.038000	0.030836
513.224000	0.017498
513.409000	-0.078880
513.595000	0.011584
513.780000	-0.153183
513.966000	-0.080257
514.152000	-0.062496
514.337000	-0.127708
514.523000	-0.035856
514.708000	0.050132
514.894000	0.044321
515.079000	-0.114370
515.265000	-0.105843
515.451000	-0.037477
515.636000	-0.119184
515.822000	-0.025593
516.007000	-0.113399
516.193000	0.053224
516.378000	0.138203
516.564000	0.036880
516.750000	0.048794
516.935000	0.114306
517.121000	0.088987
517.306000	0.165029
517.492000	0.114560
517.677000	-0.094167
517.863000	-0.112068
518.049000	0.013118
518.234000	-0.056903
518.420000	0.048920
518.605000	0.233780
518.791000	0.166604
518.976000	0.007181
519.162000	-0.043606
519.348000	0.031069
519.533000	-0.009247
519.719000	0.175878
519.904000	0.086394
520.090000	0.066827
520.275000	0.247486
520.461000	0.186655
520.647000	-0.007776
520.832000	-0.193723
521.018000	-0.090030
521.203000	-0.039054
521.389000	-0.208833
521.574000	-0.133003
521.760000	0.001194
521.946000	-0.009285
522.131000	-0.066250
522.317000	-0.057168
522.502000	-0.110997
522.688000	0.016163
522.873000	-0.034753
523.059000	-0.058763
523.245000	-0.051219
523.430000	-0.171248
523.616000	-0.123228
523.801000	-0.187939
523.987000	-0.129628
524.172000	0.020750
524.358000	0.056862
524.544000	-0.025831
524.729000	0.058116
524.915000	0.122817
525.100000	-0.000300
525.286000	0.020742
525.471000	0.026830
525.657000	0.066088
525.843000	-0.142302
526.028000	-0.038095
526.214000	-0.078881
526.399000	-0.153369
526.585000	-0.183716
526.770000	-0.229163
526.956000	-0.134012
527.142000	-0.208426
527.327000	-0.044410
527.513000	-0.100808
527.698000	-0.134459
527.884000	-0.093638
528.069000	-0.139258
528.255000	-0.030885
528.441000	-0.119707
528.626000	-0.112397
528.812000	0.123967
528.997000	-0.012606
529.183000	-0.138610
529.368000	-0.060518
529.554000	-0.059130
529.740000	-0.065506
529.925000	-0.104335
530.111000	-0.095125
530.296000	-0.045453
530.482000	0.024655
530.667000	-0.039339
530.853000	0.049801
531.039000	-0.042690
531.224000	-0.017673
531.410000	0.062782
531.595000	-0.011368
531.781000	0.075484
531.967000	-0.078129
532.152000	0.018797
532.338000	-0.043414
532.523000	-0.189018
532.709000	-0.245893
532.894000	-0.140649
533.080000	-0.081057
533.266000	-0.176456
533.451000	-0.216037
533.637000	-0.180942
533.822000	0.050316
534.008000	-0.094995
534.193000	-0.110092
534.379000	-0.034856
534.565000	-0.102679
534.750000	-0.142826
534.936000	0.119418
535.121000	-0.030348
535.307000	0.014699
535.492000	0.019742
535.678000	-0.210721
535.864000	-0.089983
536.049000	0.205501
536.235000	0.016690
536.420000	-0.014029
536.606000	-0.096425
536.791000	-0.195375
536.977000	-0.190674
537.163000	0.003127
537.348000	0.022363
537.534000	0.085831
537.719000	-0.092041
537.905000	-0.230467
538.090000	0.006753
538.276000	0.081679
538.462000	0.022901
538.647000	0.028384
538.833000	-0.045518
539.018000	0.070410
539.204000	0.005085
539.389000	-0.188690
539.575000	0.102110
539.761000	0.027218
539.946000	-0.214706
540.132000	-0.063438
540.317000	-0.156634
540.503000	-0.063758
540.688000	0.009005
540.874000	0.251774
541.060000	0.360794
541.245000	0.167825
541.431000	-0.015556
541.616000	0.012936
541.802000	0.009139
541.987000	0.102724
542.173000	0.068616
542.359000	-0.056032
542.544000	0.066681
542.730000	-0.081182
542.915000	-0.108376
543.101000	0.088372
543.286000	-0.087396
543.472000	-0.206623
543.658000	-0.060747
543.843000	-0.049186
544.029000	0.152338
544.214000	0.042741
544.400000	-0.304626
544.585000	-0.145959
544.771000	-0.053681
544.957000	0.124207
545.142000	0.231199
545.328000	0.215930
545.513000	0.275983
545.699000	0.275177
545.884000	0.103511
546.070000	0.073571
546.261000	0.067819
546.451000	-0.086949
546.642000	-0.312913
546.833000	-0.180155
547.023000	-0.244729
547.214000	-0.168678
547.405000	0.027973
547.595000	0.220823
547.786000	0.138138
547.977000	-0.067827
548.167000	-0.221238
548.358000	-0.205784
548.549000	0.166552
548.740000	0.005772
548.930000	-0.299404
549.121000	-0.196867
549.312000	-0.228758
549.502000	-0.350001
549.693000	-0.220809
549.884000	-0.094007
550.074000	-0.021289
550.265000	-0.199167
550.456000	-0.094792
550.646000	0.003784
550.837000	-0.021449
551.028000	-0.164666
551.218000	-0.053050
551.409000	-0.171685
551.600000	-0.152786
551.790000	-0.000425
551.981000	-0.178874
552.172000	-0.172822
552.362000	0.125093
552.553000	0.206982
552.744000	-0.002564
552.934000	-0.083836
553.125000	-0.176112
553.316000	-0.208382
553.506000	0.177877
553.697000	-0.004744
553.888000	-0.015498
554.079000	0.180519
554.269000	0.150512
554.460000	-0.188507
554.651000	-0.227653
554.841000	-0.394723
555.032000	-0.275992
555.223000	-0.132975
555.413000	-0.037207
555.604000	-0.109052
555.795000	-0.120228
555.985000	-0.020079
556.176000	-0.152934
556.367000	-0.412093
556.557000	-0.275790
556.748000	-0.171227
556.939000	-0.240922
557.129000	-0.336832
557.320000	-0.114096
557.511000	-0.105156
557.701000	-0.142020
557.892000	-0.090103
558.083000	0.130638
558.273000	0.019228
558.464000	-0.188357
558.655000	-0.142347
558.845000	-0.061386
559.036000	-0.033111
559.227000	-0.072375
559.418000	0.076003
559.608000	0.150199
559.799000	-0.211935
559.990000	-0.286717
560.180000	-0.189368
560.371000	-0.372352
560.562000	-0.324008
560.752000	-0.143894
560.943000	-0.272263
561.134000	-0.458048
561.324000	-0.238711
561.515000	0.066594
561.706000	-0.037230
561.896000	-0.341689
562.087000	-0.229118
562.278000	-0.231186
562.468000	-0.380367
562.659000	-0.286757
562.850000	0.055579
563.040000	0.079275
563.231000	-0.356154
563.422000	-0.236799
563.612000	-0.284385
563.803000	-0.202272
563.994000	-0.267548
564.185000	-0.371635
564.375000	-0.102948
564.566000	-0.130555
564.757000	-0.152311
564.947000	-0.250415
565.138000	-0.134579
565.329000	-0.202312
565.519000	-0.365757
565.710000	-0.302341
565.901000	-0.087659
566.091000	0.027214
566.282000	-0.151029
566.473000	-0.142103
566.663000	-0.171508
566.854000	-0.313886
567.045000	-0.189269
567.235000	-0.101121
567.426000	-0.094792
567.617000	-0.092361
567.807000	-0.140483
567.998000	-0.115162
568.189000	-0.200650
568.379000	-0.175175
568.570000	-0.081441
568.761000	-0.128953
568.951000	-0.168076
569.142000	-0.168302
569.333000	-0.211824
569.524000	-0.345248
569.714000	-0.417482
569.905000	-0.509518
570.096000	-0.076660
570.286000	0.032516
570.477000	0.106315
570.668000	-0.072177
570.858000	-0.107030
571.049000	-0.200640
571.240000	-0.280465
571.430000	-0.080028
571.621000	-0.144842
571.812000	-0.055107
572.002000	-0.049116
572.193000	-0.231402
572.384000	-0.172566
572.574000	-0.099731
572.765000	-0.127876
572.956000	-0.202106
573.146000	-0.012524
573.337000	-0.149590
573.528000	-0.153355
573.718000	0.015657
573.909000	0.043696
574.100000	-0.084284
574.290000	-0.225368
574.481000	-0.179176
574.672000	-0.179381
574.863000	-0.051896
575.053000	-0.146695
575.244000	-0.104928
575.435000	-0.238816
575.625000	-0.263265
575.816000	-0.255102
576.007000	-0.180649
576.197000	-0.139723
576.388000	-0.111813
576.579000	0.038692
576.769000	0.050358
576.960000	-0.248088
577.155000	-0.381606
577.350000	-0.091691
577.545000	0.009307
577.740000	-0.195643
577.935000	0.132732
578.130000	0.047882
578.326000	-0.248691
578.521000	-0.000385
578.716000	0.055155
578.911000	-0.243332
579.106000	-0.133787
579.301000	-0.019380
579.496000	-0.161369
579.691000	-0.426166
579.886000	-0.262733
580.081000	-0.081413
580.276000	-0.024815
580.471000	-0.124430
580.666000	-0.276199
580.861000	-0.334247
581.057000	-0.296926
581.252000	-0.122403
581.447000	-0.208293
581.642000	-0.206767
581.837000	-0.206489
582.032000	-0.170401
582.227000	0.034922
582.422000	0.038566
582.617000	-0.192322
582.812000	-0.318854
583.007000	-0.234043
583.202000	-0.323604
583.397000	-0.091874
583.592000	0.176848
583.788000	-0.147875
583.983000	-0.145915
584.178000	0.008719
584.373000	-0.190522
584.568000	-0.256992
584.763000	-0.302467
584.958000	-0.325962
585.153000	-0.235534
585.348000	-0.235406
585.543000	-0.043799
585.738000	-0.105287
585.933000	-0.286266
586.128000	-0.070908
586.324000	-0.054771
586.519000	-0.051107
586.714000	0.028657
586.909000	0.105020
587.104000	0.096255
587.299000	-0.042173
587.494000	-0.031224
587.689000	-0.065844
587.884000	-0.056921
588.079000	-0.133554
588.274000	-0.161217
588.469000	-0.128059
588.664000	-0.020458
588.859000	0.010610
589.055000	-0.038825
589.250000	-0.088313
589.445000	-0.198486
589.640000	-0.167436
589.835000	0.113731
590.030000	0.189128
590.225000	0.167081
590.420000	-0.020638
590.615000	-0.107338
590.810000	-0.075900
591.005000	-0.083610
591.200000	-0.152115
591.395000	-0.159493
591.591000	-0.057629
591.786000	0.025468
591.981000	-0.037390
592.176000	0.003339
592.371000	0.016328
592.566000	0.031150
592.761000	0.223948
592.956000	0.179758
593.151000	0.241161
593.346000	0.137496
593.541000	0.172716
593.736000	0.117241
593.931000	-0.033992
594.126000	0.076315
594.322000	0.145517
594.517000	0.085647
594.712000	-0.013470
594.907000	-0.015396
595.102000	0.133106
595.297000	0.255143
595.492000	0.351710
595.687000	0.207147
595.882000	0.169501
596.077000	0.283302
596.272000	0.464763
596.467000	0.497069
596.662000	0.334732
596.857000	0.362680
597.053000	0.428028
597.248000	0.484939
597.443000	0.527509
597.638000	0.435174
597.833000	0.244374
598.028000	0.503788
598.223000	0.638715
598.418000	0.582349
598.613000	0.488357
598.808000	0.642182
599.003000	0.652475
599.198000	0.476420
599.393000	0.551235
599.589000	0.708844
599.784000	0.537691
599.979000	0.667892
600.174000	0.948605
600.369000	0.759988
600.564000	0.821029
600.759000	1.064435
600.954000	1.213676
601.149000	1.153300
601.344000	0.876450
601.539000	0.968961
601.734000	0.907432
601.929000	0.775247
602.124000	0.851964
602.320000	1.099627
602.515000	1.422237
602.710000	1.382094
602.905000	1.080381
603.100000	1.049320
603.295000	1.131543
603.490000	1.289937
603.685000	1.388372
603.880000	1.431364
604.075000	1.322601
604.270000	1.406413
604.465000	1.537627
604.660000	1.345226
604.856000	1.490345
605.051000	1.728627
605.246000	1.776624
605.441000	1.605830
605.636000	1.560779
605.831000	1.728179
606.026000	1.683868
606.221000	1.749667
606.416000	1.940643
606.611000	2.199135
606.806000	2.244814
607.001000	2.388952
607.196000	2.227883
607.391000	2.069471
607.587000	2.375387
607.782000	2.368524
607.977000	2.191269
608.172000	2.710696
608.367000	2.834792
608.562000	2.633812
608.757000	2.610904
608.952000	2.631059
609.147000	3.125719
609.342000	3.084308
609.537000	2.912688
609.732000	2.967743
609.927000	2.907494
610.122000	3.031485
610.318000	3.454444
610.513000	3.575432
610.708000	3.439775
610.903000	3.627874
611.098000	3.718813
611.293000	3.709681
611.488000	3.821827
611.683000	3.887496
611.878000	3.957848
612.073000	4.105460
612.268000	4.183259
612.463000	4.386561
612.658000	4.417250
612.854000	4.467438
613.049000	4.532890
613.244000	4.766897
613.439000	4.850681
613.634000	4.665607
613.829000	4.973045
614.024000	4.925117
614.219000	5.064405
614.414000	5.481851
614.609000	5.331130
614.804000	5.270621
614.999000	5.397776
615.194000	5.655753
615.389000	5.701732
615.585000	5.687308
615.780000	6.044864
615.975000	6.117230
616.170000	6.267305
616.365000	6.604895
616.560000	6.880216
616.755000	6.825837
616.950000	6.887383
617.145000	7.232976
617.340000	7.225211
617.535000	7.059486
617.730000	7.512008
617.925000	7.404368
618.120000	7.505543
618.316000	8.059380
618.511000	8.064747
618.706000	7.978890
618.901000	8.287944
619.096000	8.625385
619.291000	8.683627
619.486000	8.943200
619.681000	8.781891
619.876000	8.897377
620.071000	9.254765
620.266000	9.713153
620.461000	10.043089
620.656000	10.117567
620.852000	10.203346
621.047000	10.181043
621.242000	10.276164
621.437000	10.835105
621.632000	11.154184
621.827000	11.172888
622.022000	11.110065
622.217000	11.484969
622.412000	11.857863
622.607000	12.034566
622.802000	11.971225
622.997000	12.163531
623.192000	12.472348
623.387000	12.723810
623.583000	12.696493
623.778000	13.275454
623.973000	13.418071
624.168000	13.577435
624.363000	13.877159
624.558000	14.195655
624.753000	14.055866
624.948000	14.692514
625.143000	14.964264
625.338000	15.040441
625.533000	15.167018
625.728000	15.529647
625.923000	15.943873
626.119000	15.976394
626.314000	16.029660
626.509000	16.304666
626.704000	16.755577
626.899000	16.918068
627.094000	17.094325
627.289000	17.403748
627.484000	17.756127
627.679000	17.984321
627.874000	18.231430
628.069000	18.744985
628.264000	18.845688
628.459000	18.982921
628.654000	19.131818
628.850000	19.230770
629.045000	19.740227
629.240000	19.835270
629.435000	19.973075
629.630000	20.196291
629.825000	20.381186
630.020000	20.661539
630.215000	20.585918
630.410000	20.914311
630.605000	20.984525
630.800000	21.318363
630.995000	21.597556
631.190000	21.908280
631.385000	21.650061
631.581000	21.508083
631.776000	21.498584
631.971000	21.376797
632.166000	21.563700
632.361000	21.179677
632.556000	21.263107
632.751000	21.421089
632.946000	20.953632
633.141000	20.734702
633.336000	20.594957
633.531000	20.435985
633.726000	20.207513
633.921000	19.802576
634.117000	19.302482
634.312000	18.855837
634.507000	18.612002
634.702000	18.387805
634.897000	17.972222
635.092000	17.775420
635.287000	17.494667
635.482000	16.866983
635.677000	16.494634
635.872000	16.200440
636.067000	15.868789
636.262000	15.296224
636.457000	14.653002
636.652000	14.104879
636.848000	13.574162
637.043000	13.234239
637.238000	12.769301
637.433000	12.159513
637.628000	11.776159
637.823000	11.737301
638.018000	11.400202
638.213000	10.775755
638.408000	10.348823
638.603000	9.837610
638.798000	9.327522
638.993000	9.071653
639.188000	8.783626
639.383000	8.398413
639.579000	8.505523
639.774000	7.945448
639.969000	7.555262
640.164000	7.202938
640.359000	6.900312
640.554000	6.874422
640.749000	6.594172
640.944000	6.413591
641.139000	6.240925
641.334000	5.812479
641.529000	5.208310
641.724000	5.162089
641.919000	5.097634
642.115000	5.245828
642.310000	5.077456
642.505000	4.691183
642.700000	4.515904
642.895000	4.272087
643.090000	4.298510
643.285000	4.341993
643.480000	4.197530
643.675000	4.008639
643.870000	4.201601
644.065000	3.876720
644.260000	3.301260
644.455000	3.325248
644.650000	3.116501
644.846000	3.165080
645.041000	2.877939
645.236000	2.544724
645.431000	2.515077
645.626000	2.257548
645.821000	2.341120
646.016000	2.422398
646.211000	2.761258
646.406000	2.552630
646.601000	2.413707
646.796000	2.124986
646.991000	1.808761
647.186000	1.895305
647.381000	2.025578
647.577000	1.931929
647.772000	1.947540
647.967000	1.871101
648.162000	1.743058
648.357000	1.688333
648.552000	1.775832
648.747000	1.711996
648.942000	1.733862
649.137000	1.582896
649.332000	1.243359
649.527000	1.193309
649.722000	1.422203
649.917000	1.468194
650.113000	1.124484
650.308000	0.948332
650.503000	1.005300
650.698000	1.186369
650.893000	1.050872
651.088000	1.151260
651.283000	1.161661
651.478000	0.801441
651.673000	0.952983
651.868000	0.786442
652.063000	0.972612
652.258000	1.081565
652.453000	1.249790
652.648000	0.877216
652.844000	0.764427
653.039000	0.744580
653.234000	0.300781
653.429000	0.163633
653.624000	0.398990
653.819000	0.625254
654.014000	0.553769
654.209000	0.377063
654.404000	0.501520
654.599000	0.369642
654.794000	0.371663
654.989000	0.722061
655.184000	0.608118
655.380000	0.215524
655.575000	0.191539
655.770000	0.237283
655.965000	0.373653
656.160000	0.261535
656.355000	0.429921
656.550000	0.382968
656.745000	0.412748
656.940000	0.249248
657.135000	0.313632
657.330000	0.372859
657.525000	0.088174
657.720000	0.360314
657.915000	0.451456
658.111000	0.282066
658.306000	0.543570
658.501000	0.326136
658.696000	0.066928
658.891000	0.369356
659.086000	0.234263
659.281000	0.229239
659.476000	0.004873
659.671000	-0.382210
659.866000	-0.141361
660.061000	0.232508
660.256000	0.322082
660.451000	0.292519
660.646000	0.083687
660.842000	0.127307
661.037000	-0.087625
661.232000	-0.057774
661.427000	0.168282
661.622000	0.013095
661.817000	-0.150546
662.012000	0.081477
662.207000	-0.096308
662.402000	-0.214494
662.597000	-0.008783
662.792000	-0.329619
662.987000	-0.266328
663.182000	0.079079
663.378000	0.051662
663.573000	-0.284289
663.768000	-0.346927
663.963000	-0.132648
664.158000	-0.127028
664.353000	0.341783
664.548000	0.443777
664.743000	0.101676
664.938000	-0.163548
665.133000	-0.169339
665.328000	0.259927
665.523000	0.152153
665.718000	-0.047761
665.913000	-0.061738
666.109000	-0.042366
666.304000	0.155476
666.499000	0.005012
666.694000	0.113933
666.889000	0.435019
667.084000	0.080685
667.279000	-0.112555
667.474000	-0.076199
667.669000	0.019045
667.864000	-0.051034
668.059000	-0.037070
668.254000	0.010685
668.449000	-0.130058
668.644000	-0.090729
668.840000	0.103555
669.035000	-0.180915
669.230000	-0.413391
669.425000	-0.136381
669.620000	-0.263688
669.815000	-0.179457
670.010000	-0.170781
670.205000	-0.077228
670.400000	-0.048748
670.595000	0.044916
670.790000	-0.131515
670.985000	-0.123103
671.180000	0.122099
671.376000	-0.231853
671.571000	-0.349694
671.766000	-0.293139
671.961000	-0.356376
672.156000	-0.376931
672.351000	-0.147129
672.546000	-0.196393
672.741000	-0.190218
672.936000	-0.095521
673.131000	0.484094
673.326000	0.123820
673.521000	-0.333560
673.716000	-0.379879
673.911000	-0.542409
674.107000	0.034255
674.302000	0.304438
674.497000	0.025593
674.692000	-0.279974
674.887000	-0.339334
675.082000	-0.222860
675.277000	0.034560
675.472000	-0.070969
675.667000	-0.253179
675.862000	-0.285633
676.057000	-0.212310
676.252000	-0.165610
676.447000	-0.251682
676.643000	-0.086187
676.838000	0.153183
677.033000	-0.003554
677.228000	0.308159
677.423000	0.240023
677.618000	-0.295479
677.813000	-0.509642
678.008000	-0.275351
678.203000	-0.078328
678.398000	-0.312085
678.593000	-0.141415
678.788000	0.008416
678.983000	-0.285803
679.178000	-0.177815
679.374000	-0.286362
679.569000	-0.247791
679.764000	-0.336205
679.959000	-0.458238
680.154000	-0.494706
680.349000	-0.672844
680.544000	-0.489679
680.739000	-0.331893
680.934000	-0.453923
681.129000	-0.464346
681.324000	-0.544340
681.519000	-0.193663
681.714000	-0.255039
681.909000	-0.407811
682.105000	-0.519488
682.300000	-0.031438
682.495000	0.101043
682.690000	0.039521
682.885000	-0.074780
683.080000	-0.282597
683.275000	-0.273439
683.470000	0.008691
683.665000	0.207802
683.860000	0.432524
684.055000	0.170864
684.250000	-0.331449
684.445000	-0.408823
684.641000	0.136893
684.836000	-0.107066
685.031000	-0.248839
685.226000	-0.274345
685.421000	0.062469
685.616000	-0.202551
685.811000	-0.323215
686.006000	0.018341
686.201000	-0.114627
686.396000	-0.515575
686.591000	-0.462465
686.786000	-0.051679
686.981000	-0.217584
687.176000	-0.096584
687.372000	-0.183139
687.567000	0.092252
687.762000	0.060385
687.957000	-0.068092
688.152000	-0.264579
688.347000	-0.200566
688.542000	-0.446737
688.737000	-0.866584
688.932000	-0.877766
689.127000	-0.447921
689.322000	0.015602
689.517000	-0.231376
689.712000	-0.444169
689.908000	-0.353214
690.103000	-0.386607
690.298000	-0.262361
690.493000	-0.249928
690.688000	-0.532656
690.883000	-0.386203
691.078000	0.038897
691.273000	0.045495
691.468000	-0.179030
691.663000	-0.285813
691.858000	-0.116733
692.053000	-0.120044
692.248000	-0.043818
692.443000	-0.053774
692.639000	-0.133716
692.834000	-0.014005
693.029000	0.429649
693.224000	0.461853
693.419000	-0.111377
693.614000	-0.289725
693.809000	-0.417752
694.004000	-0.546596
694.199000	-0.570037
694.394000	-0.271112
694.589000	-0.528585
694.784000	-0.491860
694.979000	-0.193769
695.174000	-0.190864
695.370000	0.243432
695.565000	0.029908
695.760000	-0.276603
695.955000	0.019805
696.150000	0.094958
696.345000	-0.377876
696.540000	-0.179308
696.740000	-0.234104
696.940000	-0.035039
697.140000	0.140879
697.340000	-0.135589
697.539000	-0.035300
697.739000	-0.215344
697.939000	-0.198171
698.139000	-0.399528
698.339000	-0.763066
698.539000	-0.484297
698.739000	-0.537926
698.939000	-0.463195
699.138000	-0.460451
699.338000	0.188169
699.538000	0.266126
699.738000	-0.247187
699.938000	-0.296733
700.138000	-0.360778
700.338000	-0.549456
700.538000	-0.320130
700.737000	-0.249066
700.937000	-0.655132
701.137000	-0.649053
701.337000	0.027778
701.537000	-0.007852
701.737000	-0.285882
701.937000	-0.225793
702.137000	-0.393729
702.337000	-0.559017
702.536000	-0.524296
702.736000	-0.499794
702.936000	-0.687512
703.136000	-0.112520
703.336000	-0.202634
703.536000	-0.318896
703.736000	-0.689552
703.936000	-0.673652
704.135000	-0.590145
704.335000	-0.182036
704.535000	-0.404335
704.735000	-0.619499
704.935000	-0.178700
705.135000	-0.197819
705.335000	-0.469467
705.535000	-0.264570
705.735000	-0.172930
705.934000	-0.180165
706.134000	-0.389024
706.334000	-0.496429
706.534000	-0.511851
706.734000	-0.482818
706.934000	-0.585825
707.134000	-0.593339
707.334000	-0.340088
707.533000	-0.233550
707.733000	-0.303543
707.933000	-0.462793
708.133000	-0.159492
708.333000	-0.078676
708.533000	-0.387418
708.733000	-0.082527
708.933000	-0.317007
709.132000	-0.455559
709.332000	-0.415252
709.532000	-0.491020
709.732000	-0.269816
709.932000	-0.708746
710.132000	-0.708302
710.332000	-0.962429
710.532000	-0.367799
710.732000	-0.068353
710.931000	-0.357806
711.131000	-0.491265
711.331000	-0.419898
711.531000	-0.507607
711.731000	-0.448213
711.931000	-0.407176
712.131000	-0.418069
712.331000	-0.224660
712.530000	-0.387372
712.730000	-0.662014
712.930000	-0.437649
713.130000	-0.321000
713.330000	-0.481713
713.530000	-0.295762
713.730000	0.355690
713.930000	0.006897
714.129000	-0.448600
714.329000	-0.626677
714.529000	-0.388306
714.729000	-0.008459
714.929000	-0.046909
715.129000	-0.409019
715.329000	-0.393979
715.529000	-0.314307
715.729000	0.277399
715.928000	-0.031760
716.128000	-0.438718
716.328000	-0.307858
716.528000	-0.339342
716.728000	-0.210972
716.928000	-0.339457
717.128000	-0.242677
717.328000	-0.285547
717.527000	-0.414780
717.727000	-0.469918
717.927000	-0.357690
718.127000	-0.408910
718.327000	-0.849967
718.527000	-0.735588
718.727000	-0.327230
718.927000	-0.449969
719.127000	-0.685184
719.326000	-0.453886
719.526000	-0.036314
719.726000	-0.202522
719.926000	-0.687653
720.126000	-0.624229
720.326000	-0.342242
720.526000	-0.513062
720.726000	-0.474781
720.925000	-0.144279
721.125000	-0.556852
721.325000	-0.300463
721.525000	-0.257134
721.725000	-0.505512
721.925000	-0.579241
722.125000	-0.539116
722.325000	-0.040972
722.524000	-0.315070
722.724000	-0.759205
722.924000	-0.819665
723.124000	-0.642976
723.324000	-0.247429
723.524000	-0.174814
723.724000	-0.766312
723.924000	-0.557691
724.124000	-0.309845
724.323000	-0.041529
724.523000	-0.033357
724.723000	0.292705
724.923000	0.064431
725.123000	-0.033474
725.323000	-0.000818
725.523000	-0.267142
725.723000	-0.586114
725.922000	-0.496628
726.122000	-0.251055
726.322000	-0.408036
726.522000	-0.564892
726.722000	0.147229
726.922000	-0.041919
727.122000	-0.198779
727.322000	0.069372
727.521000	-0.174685
727.721000	-0.477567
727.921000	-0.415403
728.121000	-0.415299
728.321000	-0.802231
728.521000	-0.596137
728.721000	-0.472049
728.921000	-0.080037
729.121000	0.663061
729.320000	0.078585
729.520000	-0.410520
729.720000	-0.641501
729.920000	-0.530959
730.120000	-0.349158
730.320000	-0.354220
730.520000	-0.598465
730.720000	-0.537022
730.919000	-0.524259
731.119000	-0.224973
731.319000	-0.623498
731.519000	-0.763172
731.719000	-0.399253
731.919000	-0.581813
732.119000	-0.960819
732.319000	-0.938269
732.519000	-0.418652
732.718000	-0.773516
732.918000	-0.624643
733.118000	-0.382060
733.318000	-0.086769
733.518000	-0.387486
733.718000	-0.930054
733.918000	-0.857423
734.118000	-0.590349
734.317000	-0.350813
734.517000	-0.643705
734.717000	-0.573108
734.917000	0.003476
735.117000	-0.153106
735.317000	-0.400931
735.517000	0.147379
735.717000	0.405835
735.916000	-0.495123
736.116000	-0.638905
736.316000	-0.475760
736.516000	-0.374511
736.716000	-0.348313
736.916000	-0.839891
737.116000	-0.613240
737.316000	0.101155
737.516000	-0.023116
737.715000	-0.165474
737.915000	-0.721829
738.115000	-0.782157
738.315000	-0.541482
738.515000	-0.840653
738.715000	-0.584994
738.915000	0.111577
739.115000	-0.347902
739.314000	-0.572710
739.514000	-0.082239
739.714000	0.089694
739.914000	-0.173552
740.114000	-0.460639
740.314000	-0.205893
740.514000	0.277378
740.714000	-0.472407
740.913000	-0.904016
741.113000	-0.680450
741.313000	-0.345277
741.513000	-0.484379
741.713000	-0.407196
741.913000	-0.344181
742.113000	-0.552075
742.313000	-0.984902
742.513000	-0.544478
742.712000	-0.401757
742.912000	-0.770160
743.112000	-0.566943
743.312000	-0.839645
743.512000	-0.489333
743.712000	-0.302457
743.912000	-0.944698
744.112000	-1.148340
744.311000	-1.118302
744.511000	-0.669728
744.711000	-0.310022
744.911000	-0.681882
745.111000	-0.716103
745.311000	-0.201583
745.511000	-0.570185
745.711000	-0.814908
745.911000	-0.537905
746.110000	-0.921877
746.310000	-1.091359
746.510000	-0.742370
746.710000	-0.126714
746.910000	-0.025172
747.110000	-0.665217
747.310000	-0.904373
747.510000	-0.673793
747.709000	-0.523077
747.909000	-0.514634
748.109000	-0.246406
748.309000	-0.473162
748.509000	-0.877855
748.709000	-0.920664
748.909000	-0.589201
749.109000	-0.601703
749.308000	-0.075538
749.508000	-0.340169
749.708000	-0.489968
749.908000	-0.135744
750.108000	-0.146159
750.308000	-0.965403
750.508000	-0.207473
750.708000	-0.610538
750.908000	-1.066207
751.107000	-0.492210
751.307000	0.130494
751.507000	-0.321013
751.707000	-0.345969
751.907000	-0.382417
752.107000	-0.256148
752.307000	-0.681945
752.507000	-0.591335
752.706000	-0.631970
752.906000	0.302263
753.106000	-0.589084
753.306000	-1.134182
753.506000	-0.167063
753.706000	-0.484514
753.906000	-0.271412
754.106000	-0.042692
754.305000	-0.167862
754.505000	-0.131714
754.705000	-0.374178
754.905000	-0.411573
755.105000	-0.153910
755.305000	-1.003920
755.505000	-0.826835
755.705000	-0.255462
755.905000	-0.426342
756.104000	-0.894922
756.304000	-1.377464
756.504000	-1.610177
756.704000	-0.522318
756.904000	-0.285715
757.104000	-0.623181
757.304000	-0.532519
757.504000	-0.114500
757.703000	-0.422277
757.903000	0.047634
758.103000	0.156213
758.303000	-0.354643
758.503000	-0.688253
758.703000	-0.706258
758.903000	-0.843295
759.103000	-0.456266
759.303000	-0.414374
759.502000	-0.443320
759.702000	-0.139244
759.902000	-0.495397
760.102000	-0.607926
760.302000	-0.515014
760.502000	-0.095789
760.702000	-0.252087
760.902000	-0.604728
761.101000	-0.925954
761.301000	-1.174632
761.501000	-0.826776
761.701000	-0.828437
761.901000	-0.634746
762.101000	-0.103183
762.301000	-0.386657
762.501000	-0.999779
762.700000	-0.947381
762.900000	-0.919208
763.100000	-0.600563
763.300000	-0.230430
763.500000	-0.483121
763.703000	-0.618753
763.905000	-0.971266
764.108000	-0.312234
764.311000	-0.421745
764.513000	-0.526087
764.716000	-0.395005
764.919000	-0.430331
765.121000	-1.022288
765.324000	-1.246494
765.527000	-0.913825
765.729000	-0.755842
765.932000	-0.036330
766.135000	-0.200344
766.337000	-0.499360
766.540000	-0.642127
766.743000	-0.374397
766.945000	-0.870285
767.148000	-1.198166
767.351000	-1.156525
767.553000	-0.286645
767.756000	-0.673916
767.958000	-1.102442
768.161000	-0.716137
768.364000	-0.922088
768.566000	-1.223752
768.769000	-0.746803
768.972000	-0.283770
769.174000	-0.640427
769.377000	-1.259120
769.580000	-1.298167
769.782000	-0.661235
769.985000	-1.118942
770.188000	-1.870556
770.390000	-0.961934
770.593000	0.548817
770.796000	0.133331
770.998000	-0.405122
771.201000	-0.834375
771.404000	-0.510411
771.606000	-0.771119
771.809000	-0.672354
772.012000	-0.568778
772.214000	-1.452080
772.417000	-1.452237
772.620000	-0.327467
772.822000	-0.633955
773.025000	-0.907056
773.228000	-0.896318
773.430000	-0.816872
773.633000	-0.531475
773.836000	-0.276095
774.038000	-0.158006
774.241000	-0.471384
774.444000	-0.812365
774.646000	0.055287
774.849000	-0.347581
775.052000	-0.542689
775.254000	-0.423910
775.457000	-0.839486
775.659000	-0.765687
775.862000	-0.955440
776.065000	-0.722823
776.267000	-0.140755
776.470000	0.227998
776.673000	-0.485627
776.875000	0.049856
777.078000	-0.116145
777.281000	-0.968562
777.483000	-0.431843
777.686000	-0.316763
777.889000	-0.400891
778.091000	-0.091837
778.294000	-1.034600
778.497000	-0.945399
778.699000	-0.661402
778.902000	-0.670155
779.105000	-0.650718
779.307000	0.135272
779.510000	-0.744356
779.713000	-0.511691
779.915000	-0.730025
780.118000	0.261542
780.321000	0.419770
780.523000	-0.410194
780.726000	-0.938165
780.929000	-1.063135
781.131000	-0.978910
781.334000	-1.579233
781.537000	-1.670081
781.739000	-0.427218
781.942000	-0.847135
782.145000	-1.467391
782.347000	-1.521906
782.550000	-1.087199
782.753000	-1.184920
782.955000	-1.039792
783.158000	-1.059396
783.361000	-0.852582
783.563000	-0.785153
783.766000	-0.766865
783.968000	1.274191
784.171000	0.918791
784.374000	-0.539873
784.576000	-0.621487
784.779000	-0.171456
784.982000	0.197079
785.184000	-0.792594
785.387000	-0.214988
785.590000	0.639111
785.792000	0.261315
785.995000	0.171707
786.198000	-0.188631
786.400000	-0.683887
786.603000	-0.629768
786.806000	-0.760070
787.008000	-0.196262
787.211000	-0.134108
787.414000	-0.954581
787.616000	-0.697888
787.819000	-0.762998
788.022000	-1.441908
788.224000	-0.808402
788.427000	-1.297574
788.630000	-0.719297
788.832000	-0.533918
789.035000	-1.192315
789.238000	-1.696143
789.440000	-1.304954
789.643000	-0.244440
789.846000	-0.811387
790.048000	-0.339137
790.251000	-0.109240
790.454000	-0.388746
790.656000	0.344107
790.859000	-0.448808
791.062000	-0.912209
791.264000	-0.304782
791.467000	-1.270703
791.669000	-1.853637
791.872000	-0.702237
792.075000	-1.087866
792.277000	-0.883852
792.480000	-0.595370
792.683000	-1.156777
792.885000	-1.348196
793.088000	-1.257641
793.291000	-1.474355
793.493000	-1.491798
793.696000	-0.569792
793.899000	-0.230913
794.101000	-0.639452
794.304000	-0.953168
794.507000	-0.619510
794.709000	-0.449495
794.912000	-1.103521
795.115000	-1.203289
795.317000	-0.669812
795.520000	-0.536986
795.723000	-0.834472
795.925000	-1.222446
796.128000	-1.470808
796.331000	-1.103312
796.533000	-1.433453
796.736000	-0.858881
796.939000	-0.630740
797.141000	-0.801661
797.344000	-0.232565
797.547000	-0.117103
797.749000	-0.371874
797.952000	-0.908815
798.155000	-1.193115
798.357000	-1.394901
798.560000	-1.214904
798.763000	-0.439480
798.965000	-0.720315
799.168000	-0.730251
799.371000	-0.425170
799.573000	-0.859473
799.776000	-1.625355
799.978000	-1.567720
800.181000	-0.635580
800.384000	0.935000
800.586000	0.054100
800.789000	-1.401214
800.992000	-1.344636
801.194000	-1.634330
801.397000	-1.638554
801.600000	-1.395774
801.802000	-0.017654
802.005000	-0.122360
802.208000	-1.696939
802.410000	-0.735624
802.613000	-0.601143
802.816000	-0.772177
803.018000	-1.278460
803.221000	-1.199368
803.424000	0.194323
803.626000	-0.083410
803.829000	-0.813794
804.032000	0.047706
804.234000	0.861740
804.437000	-0.472367
804.640000	-0.653497
804.842000	-0.588832
805.045000	-1.107058
805.248000	-1.000881
805.450000	-0.875125
805.653000	-0.880672
805.856000	-1.080405
806.058000	-0.253316
806.261000	-1.094686
806.464000	-1.011620
806.666000	-0.524313
806.869000	-0.917913
807.072000	-1.842415
807.274000	-2.276520
807.477000	-1.201798
807.679000	-0.870580
807.882000	-1.393398
808.085000	-1.101948
808.287000	-0.449131
808.490000	-1.389632
808.693000	-1.295719
808.895000	-1.029450
809.098000	-0.831216
809.301000	-0.799319
809.503000	-1.046582
809.706000	0.050776
809.909000	0.217076
810.111000	0.094666
810.314000	-0.449811
810.517000	-0.982513
810.719000	-1.172979
810.922000	-0.868426
811.125000	0.086479
811.327000	0.113599
811.530000	-0.536386
811.735000	-0.784683
811.940000	-1.187682
812.146000	-1.246404
812.351000	-0.655487
812.556000	-0.963031
812.761000	-1.470760
812.967000	-0.481507
813.172000	-0.273049
813.377000	-0.636669
813.582000	0.007286
813.788000	-0.231102
813.993000	-1.191034
814.198000	-0.661113
814.403000	-1.402025
814.609000	-0.637276
814.814000	-0.566143
815.019000	0.506012
815.224000	0.339629
815.429000	-0.772958
815.635000	-0.402604
815.840000	-0.514997
816.045000	-0.470483
816.250000	-0.302271
816.456000	-1.431188
816.661000	-2.335167
816.866000	-1.753332
817.071000	-1.581925
817.277000	-2.372954
817.482000	-1.489952
817.687000	-0.764521
817.892000	-0.893475
818.097000	-0.242332
818.303000	0.488505
818.508000	0.679502
818.713000	7.403941
818.918000	4.036155
819.124000	0.423205
819.329000	-0.991672
819.534000	-1.082216
819.739000	-1.160170
819.945000	-1.273210
820.150000	-1.034585
820.355000	-0.701575
820.560000	-0.414702
820.766000	-0.543843
820.971000	-0.586616
821.176000	-2.227007
821.381000	-2.705901
821.586000	-1.636062
821.792000	-0.171977
821.997000	-0.882707
822.202000	-1.023825
822.407000	-1.549438
822.613000	-1.673524
822.818000	-0.971199
823.023000	-0.729793
823.228000	-0.978664
823.434000	-0.154510
823.639000	-0.032598
823.844000	-0.951926
824.049000	-0.278021
824.255000	-0.186631
824.460000	-0.764430
824.665000	-1.157526
824.870000	0.060039
825.075000	-0.271554
825.281000	-0.386728
825.486000	0.614905
825.691000	-1.667361
825.896000	-2.929889
826.102000	-1.073140
826.307000	-0.812604
826.512000	-1.206560
826.717000	-1.051313
826.923000	-0.894892
827.128000	-0.566658
827.333000	-1.524430
827.538000	-0.497134
827.744000	0.138069
827.949000	-1.164900
828.154000	-0.780467
828.359000	-0.077791
828.564000	-0.697121
828.770000	-1.005301
828.975000	0.008743
829.180000	-0.331705
829.385000	-1.923595
829.591000	-1.622968
829.796000	-0.955155
830.001000	-1.012489
830.206000	-1.672763
830.412000	-1.259412
830.617000	-1.061710
830.822000	0.065007
831.027000	-0.796237
831.232000	-1.509878
831.438000	-1.724490
831.643000	-1.044575
831.848000	-1.103922
832.053000	-0.857324
832.259000	-0.869800
832.464000	-2.554913
832.669000	-2.093133
832.874000	-1.780057
833.080000	-1.845527
833.285000	-0.348473
833.490000	-0.510379
833.695000	-1.803903
833.901000	-1.345279
834.106000	-1.686503
834.311000	-1.048730
834.516000	-0.567559
834.721000	-1.186520
834.927000	-0.311530
835.132000	-1.074622
835.337000	0.570326
835.542000	-0.398482
835.748000	-2.122712
835.953000	-0.122610
836.158000	-0.050610
836.363000	-0.413768
836.569000	-0.343821
836.774000	-1.529152
836.979000	-1.873410
837.184000	-2.331512
837.390000	-1.930508
837.595000	-1.270751
837.800000	-0.952783
838.005000	-0.933785
838.210000	-1.219912
838.416000	-1.361818
838.621000	-0.965341
838.826000	-1.452125
839.031000	-1.459580
839.237000	-1.761549
839.442000	-2.246018
839.647000	-2.521098
839.852000	-1.883725
840.058000	-1.584373
840.263000	-1.476782
840.468000	-1.953058
840.673000	-1.196080
840.878000	-1.120135
841.084000	-2.083049
841.289000	-1.375784
841.494000	1.210573
841.699000	1.070609
841.905000	0.443543
842.110000	0.617454
842.315000	-1.483459
842.520000	-0.940430
842.726000	-1.485511
842.931000	-2.066388
843.136000	-1.148598
843.341000	-2.593550
843.547000	-1.704059
843.752000	-1.303650
843.957000	-2.112116
844.162000	-1.931936
844.367000	-1.323442
844.573000	-0.618077
844.778000	-0.398234
844.983000	-0.590614
845.188000	-0.167649
845.394000	-2.027187
845.599000	-1.828566
845.804000	-1.265764
846.009000	-0.729491
846.215000	-1.771808
846.420000	-1.382418
846.625000	-0.511268
846.830000	0.208275
847.036000	-1.091671
847.241000	-1.692734
847.446000	-0.159030
847.651000	-0.801346
847.856000	-2.146687
848.062000	-2.441667
848.267000	-0.407065
848.472000	-1.306546
848.677000	-2.748214
848.883000	-0.843603
849.088000	0.699872
849.293000	-0.590916
849.498000	-1.089306
849.704000	-0.429877
849.909000	-1.124709
850.114000	-2.143214
850.319000	-1.497097
850.524000	-1.252458
850.730000	-0.721033
850.935000	-1.204545
851.140000	-0.439719
851.345000	-0.153579
851.551000	-0.108735
851.756000	-0.261153
851.961000	-1.616755
852.166000	-1.602363
852.372000	-1.163656
852.577000	-1.049098
852.782000	-1.351542
852.987000	0.027819
853.193000	-0.452919
853.398000	-0.577179
853.603000	-2.024638
853.808000	-2.803619
854.013000	-1.662810
854.219000	-0.348225
854.424000	1.351062
854.629000	1.085761
854.834000	-1.051704
855.040000	-0.818613
855.245000	-0.481240
855.450000	-2.846782
855.655000	-3.945777
855.861000	-3.472879
856.066000	-2.416103
856.271000	-2.614630
856.476000	-0.540351
856.682000	-1.506391
856.887000	-4.100570
857.092000	-2.342481
857.297000	0.390890
857.502000	-0.348873
857.708000	-1.272900
857.913000	-0.482295
858.118000	-0.870132
858.323000	-0.906125
858.529000	-1.054955
858.734000	-1.359105
858.939000	-1.228814
859.144000	-2.125699
859.350000	-3.237852
859.555000	-2.757907
859.760000	-0.683042
859.965000	-0.105314
860.171000	-1.726430
860.376000	-0.551612
860.581000	-2.562756
860.786000	-4.988352
860.991000	-4.369116
861.197000	-2.756301
861.402000	-0.645907
861.607000	-1.706145
861.812000	-2.952363
862.018000	-3.033752
862.223000	-2.056728
862.428000	-1.168584
862.633000	-0.144815
862.839000	-0.892108
863.044000	-2.064343
863.249000	-2.434034
863.454000	-0.289798
863.659000	-1.600522
863.865000	-2.618288
864.070000	-2.498599
864.275000	-3.082294
864.480000	-2.168569
864.686000	-3.473034
864.891000	-3.256626
865.096000	-1.068494
865.301000	-0.794592
865.507000	-0.780765
865.712000	-0.484708
865.917000	-1.716694
866.122000	-0.582500
866.328000	-3.383389
866.533000	-3.118351
866.738000	0.259255
866.943000	-0.210853
867.148000	0.658834
867.354000	-2.236246
867.559000	-3.801954
867.764000	-1.940955
867.969000	-0.929135
868.175000	-2.616620
868.380000	-3.435516
868.585000	-3.671639
868.790000	-1.495420
868.996000	-1.797785
869.201000	-3.327382
869.406000	-4.676857
869.611000	-3.543082
869.817000	-2.400019
870.022000	2.144932
870.227000	-0.537550
870.432000	-2.784393
870.637000	-1.137300
870.843000	-1.983840
871.048000	-2.645064
871.253000	-0.884867
871.458000	-1.674087
871.664000	-3.770393
871.869000	-3.731563
872.074000	-2.946028
872.279000	-1.760231
872.485000	-2.223716
872.690000	-2.233358
872.895000	-2.636388
873.100000	-3.158275
873.306000	-2.921635
873.511000	-1.515062
873.716000	0.143006
873.921000	-2.080755
874.126000	-2.777355
874.332000	-1.595423
874.537000	-0.686526
874.742000	-1.364370
874.947000	-1.946392
875.153000	0.168029
875.358000	-0.868028
875.563000	-1.535977
875.768000	-4.185340
875.974000	-4.550575
876.179000	-0.788968
876.384000	-0.836603
876.589000	-2.899394
876.794000	-2.438087
877.000000	-2.905089
877.205000	-4.007126
877.410000	-1.804529
877.615000	-2.822019
877.821000	-4.615260
878.026000	-3.206742
878.231000	-3.340345
878.436000	-3.592639
878.642000	-2.736817
878.847000	-1.815027
879.052000	-0.750287
879.257000	-2.671629
879.463000	-3.862319
879.668000	-2.835968
879.873000	-0.531854
880.078000	-3.336829
880.283000	-5.656862
880.489000	-5.633669
880.694000	-4.175259
880.899000	-2.525921
881.104000	-1.082915
881.310000	1.214147
881.515000	0.229439
881.720000	1.121795
881.925000	2.024953
882.131000	3.205196
882.336000	0.233082
882.541000	-3.912061
882.746000	-3.040057
882.952000	-3.373380
883.157000	-3.647016
883.362000	-3.555989
883.567000	-3.910495
883.772000	-4.314062
883.978000	-3.093250
884.183000	-1.429764
884.388000	-2.308745
884.593000	-4.393781
884.799000	-0.128068
885.004000	-0.679359
885.209000	-2.328802
885.414000	-1.947298
885.620000	-4.444465
885.825000	-1.520764
886.030000	-1.769916
886.235000	-3.099887
886.440000	-2.537393
886.646000	-5.266158
886.851000	-5.215266
887.056000	-0.445054
887.261000	-1.066914
887.467000	-3.827401
887.672000	-1.471234
887.877000	-3.110087
888.082000	-5.425009
888.288000	-5.773991
888.493000	-7.339386
888.698000	-5.466493
888.903000	-2.515916
889.109000	-4.403063
889.314000	-0.778708
889.519000	-1.679015
889.724000	-0.430999
889.929000	-1.603485
890.135000	-2.195366
890.340000	-2.480819
890.545000	-3.932001
890.750000	-5.315340
890.956000	-3.575189
891.161000	-1.220613
891.366000	-2.821845
891.571000	-2.149853
891.777000	-2.885447
891.982000	-0.879145
892.187000	-1.184530
892.392000	-0.661977
892.598000	-0.638246
892.803000	-1.004688
893.008000	-3.554511
893.213000	-3.462164
893.418000	-3.152390
893.624000	-3.755948
893.829000	-6.305555
894.034000	-3.905881
894.239000	-2.092256
894.445000	-4.084797
894.650000	-3.935743
894.855000	-3.884032
895.060000	-4.244956
895.266000	-3.788556
895.471000	-5.014546
895.676000	-1.833473
895.881000	-1.157945
896.087000	-3.203690
896.292000	-4.558419
896.497000	0.402132
896.702000	-1.224778
896.907000	-3.755579
897.113000	1.044477
897.318000	0.985628
897.523000	-0.473647
897.728000	-2.441920
897.934000	-3.692033
898.139000	-3.291509
898.344000	-0.598157
898.549000	-1.792781
898.755000	-3.972368
898.960000	-4.146932
899.165000	-5.529726
899.370000	-2.508231
899.575000	1.112241
899.781000	-3.340136
899.986000	-4.279962
900.191000	-3.056597
900.396000	-3.457171
900.602000	-2.709832
900.807000	-2.481457
901.012000	-1.376493
901.217000	-0.786736
901.423000	-4.144206
901.628000	-5.281886
901.833000	-0.602348
902.038000	0.214990
902.244000	-3.506067
902.449000	-3.019272
902.654000	-3.563883
902.859000	-2.500388
903.064000	-0.456211
903.270000	-0.264393
903.475000	-4.588482
903.680000	-6.775772
903.885000	-5.497619
904.091000	-4.872727
904.296000	-5.974129
904.501000	-5.043185
904.706000	-4.266816
904.912000	-0.540779
905.117000	-2.654886
905.322000	-5.684053
905.527000	-4.850412
905.733000	-3.810176
905.938000	-4.104977
906.143000	-4.942664
906.348000	-7.313602
906.553000	-2.183561
906.759000	-0.801059
906.964000	-2.991124
907.169000	-2.903287
907.374000	-5.577733
907.580000	-4.522352
907.785000	-3.460894
907.990000	25.806176
908.195000	17.035692
908.401000	-0.798969
908.606000	-8.728396
908.811000	-10.780353
909.016000	-3.292644
909.221000	-2.651148
909.427000	-3.540420
909.632000	-4.967773
909.837000	-4.928393
910.042000	-6.278526
910.248000	-7.950518
910.453000	-3.567232
910.658000	-4.651609
910.863000	-4.986215
911.069000	-6.707844
911.274000	-2.524381
911.479000	-0.007673
911.684000	-7.137667
911.890000	-4.100526
912.095000	-3.989605
912.300000	-7.522172
912.506000	-6.357477
912.711000	-5.963413
912.917000	-3.521239
913.123000	-3.089763
913.328000	-3.307630
913.534000	-3.177492
913.740000	6.577326
913.946000	2.428082
914.151000	-5.112208
914.357000	-6.116084
914.563000	-2.893502
914.768000	-6.233836
914.974000	-7.789911
915.180000	-7.238770
915.385000	-5.715190
915.591000	-8.009657
915.797000	-3.703646
916.002000	1.445088
916.208000	-2.562215
916.414000	-5.086044
916.620000	-5.873103
916.825000	-3.642175
917.031000	-4.424155
917.237000	-9.265610
917.442000	-4.840974
917.648000	-5.808715
917.854000	-6.910993
918.059000	-1.345373
918.265000	-1.254702
918.471000	-4.793802
918.676000	-8.234703
918.882000	-10.609255
919.088000	-7.802872
919.294000	-12.409943
919.499000	-8.194836
919.705000	-2.241206
919.911000	-3.357012
920.116000	-0.760775
920.322000	-7.225063
920.528000	-7.026653
920.733000	-8.086241
920.939000	-7.685128
921.145000	-6.848935
921.350000	-6.839194
921.556000	-5.567506
921.762000	-5.847886
921.968000	-6.405767
922.173000	-7.934563
922.379000	-11.154499
922.585000	-5.847975
922.790000	-6.513746
922.996000	-7.885504
923.202000	-8.546456
923.407000	-7.823784
923.613000	-6.176251
923.819000	-2.923454
924.024000	-4.197855
924.230000	-2.247433
924.436000	-5.298126
924.642000	4.388748
924.847000	0.846156
925.053000	-7.339944
925.259000	-10.885625
925.464000	-3.839150
925.670000	-5.506227
925.876000	-9.654747
926.081000	-9.816070
926.287000	-5.445624
926.493000	-3.754039
926.698000	-5.439007
926.904000	-2.847421
927.110000	-5.885647
927.316000	-6.416122
927.521000	0.726475
927.727000	-4.908308
927.933000	-7.417540
928.138000	-6.113417
928.344000	-11.651566
928.550000	-6.958885
928.755000	-1.322008
928.961000	-6.727675
929.167000	-6.708894
929.372000	-0.612319
929.578000	-2.738398
929.784000	-7.945778
929.990000	-10.557284
930.195000	-8.433754
930.401000	-6.948325
930.607000	-4.047441
930.812000	-4.212367
931.018000	-8.195306
931.224000	-13.471861
931.429000	-10.713286
931.635000	-14.270529
931.841000	-13.441724
932.046000	-7.654597
932.252000	-2.487316
932.458000	5.045877
932.664000	-0.079729
932.869000	-7.795036
933.075000	-10.660588
933.281000	-10.472729
933.486000	-3.316775
933.692000	-4.783307
933.898000	-9.826581
934.103000	-3.569107
934.309000	-7.558647
934.515000	-4.138065
934.720000	-1.103404
934.926000	0.644170
935.132000	0.205128
935.338000	-3.347234
935.543000	-12.033622
935.749000	-13.283804
935.955000	-15.172997
936.160000	-12.343751
936.366000	-2.962363
936.572000	-3.811513
936.777000	-1.307268
936.983000	-0.420602
937.189000	-6.130251
937.394000	-12.161817
937.600000	-1.261670
937.806000	4.247347
938.012000	-5.877116
938.217000	6.143351
938.423000	0.499799
938.629000	-7.342945
938.834000	-15.120903
939.040000	-15.625556
939.246000	-9.304837
939.451000	-11.482113
939.657000	-7.073155
939.863000	-11.759580
940.068000	-3.445402
940.274000	-10.183077
940.480000	-5.310460
940.686000	-2.713354
940.891000	-9.082933
941.097000	16.179488
941.303000	4.166665
941.508000	-9.126283
941.714000	-6.025389
941.920000	-15.879289
942.125000	-5.734383
942.331000	-4.048873
942.537000	0.382440
942.742000	-0.121997
942.948000	-12.425200
943.154000	-15.659819
943.360000	-27.646297
943.565000	-10.183917
943.771000	3.747991
943.977000	1.850792
944.182000	-17.977989
944.388000	-19.724024
944.594000	-3.296083
944.799000	5.527855
945.005000	-3.063914
945.211000	3.136149
945.416000	0.619809
945.622000	-12.770469
945.828000	-13.882871
946.034000	-5.525076
946.239000	-2.346325
946.445000	-10.700657
946.651000	-22.255161
946.856000	-18.941225
947.062000	-1.440372
947.268000	-1.450471
947.473000	-18.005961
947.679000	-22.000676
947.885000	-4.253456
948.090000	-2.711148
948.296000	10.914100
948.502000	-1.145311
948.708000	-14.180870
948.913000	-19.736025
949.119000	-5.063951
949.325000	-8.964983
949.530000	-22.392729
949.736000	-25.402321
949.942000	-15.623548
950.147000	-16.425475
950.353000	-15.717382
950.559000	-11.744497
950.764000	10.889224
950.970000	6.337533
951.176000	-10.669523
951.382000	-18.085267
951.587000	-5.195955
951.793000	0.702216
951.999000	2.005088
952.204000	-10.629619
952.410000	-26.420860
952.616000	-14.600856
952.821000	-7.419377
953.027000	-15.438096
953.233000	-20.216148
953.438000	-20.361798
953.644000	0.220432
953.850000	-5.293900
954.056000	-14.761806
954.261000	-15.601206
954.467000	-3.397341
954.673000	1.844686
954.878000	-9.405206
955.084000	-6.536680
955.290000	-22.279116
955.495000	-25.496638
955.701000	-18.889087
955.907000	2.663713
956.112000	-0.922149
956.318000	4.544358
956.524000	4.725110
956.730000	-9.546696
956.935000	-13.630806
957.141000	-17.565870
957.347000	-7.145623
957.552000	-10.430657
957.758000	-26.911656
957.964000	-38.101691
958.169000	-1.632055
958.375000	0.375730
958.581000	-13.241761
958.786000	-24.637921
958.992000	-29.058822
959.198000	-10.780289
959.404000	-2.912159
959.609000	-11.041243
959.815000	-16.667271
960.021000	0.391664
960.226000	-2.991707
960.432000	-27.781502
960.638000	-18.824676
960.843000	-12.330207
961.049000	-13.754671
961.255000	-1.765594
961.460000	-13.002040
961.666000	-34.701341
961.872000	-19.776423
962.078000	-18.938122
962.283000	-28.634140
962.489000	-30.729640
962.695000	-22.531109
962.900000	-14.712730
963.106000	-10.631453
963.312000	-17.980004
963.517000	-22.892975
963.723000	-27.071903
963.929000	-1.275629
964.134000	6.645129
964.340000	-16.516057
964.546000	-20.454645
964.752000	-25.350314
964.957000	-29.262810
965.163000	-1.813113
965.369000	-4.625083
965.574000	-7.821251
965.780000	-11.973848
966.000000	-21.278366
966.220000	-15.227730
966.440000	-16.483287
966.661000	-2.397945
966.881000	-22.223760
967.101000	-40.966177
967.321000	-37.701406
967.541000	-15.651323
967.761000	-24.859824
967.981000	-15.821680
968.202000	-11.577992
968.422000	-0.927106
968.642000	0.142193
968.862000	-8.201808
969.082000	-16.853039
969.302000	-6.643608
969.522000	-14.135613
969.743000	-0.216772
969.963000	-17.761085
970.183000	-27.909359
970.403000	-22.978734
970.623000	-21.175305
970.843000	-1.945516
971.063000	-3.718668
971.284000	-23.616699
971.504000	-34.813554
971.724000	-14.885239
971.944000	-29.133421
972.164000	-36.958050
972.384000	-25.735991
972.604000	-41.055614
972.825000	-45.624192
973.045000	-33.090821
973.265000	17.225594
973.485000	5.192161
973.705000	-12.674218
973.925000	-17.567794
974.145000	-53.767506
974.365000	-24.121710
974.586000	-20.299959
974.806000	-35.602121
975.026000	-4.686326
975.246000	-18.045459
975.466000	-30.882803
975.686000	-22.264905
975.906000	-28.453304
976.127000	-46.760171
976.347000	-43.210322
976.567000	-10.618374
976.787000	-8.115160
977.007000	-14.859635
977.227000	-21.535776
977.447000	-30.362103
977.668000	-54.900770
977.888000	-32.146746
978.108000	-27.094506
978.328000	-19.411350
978.548000	6.307872
978.768000	10.908328
978.988000	1.248863
979.209000	-15.591700
979.429000	-27.142923
979.649000	-11.000800
979.869000	-31.400253
980.089000	-48.745467
980.309000	-52.555402
980.529000	-59.275534
980.750000	-36.780129
980.970000	-50.412075
981.190000	-43.373412
981.410000	-35.047758
981.630000	-46.653273
981.850000	-35.413129
982.070000	-24.971422
982.291000	-54.207275
982.511000	-52.112421
982.731000	-13.175402
982.951000	-31.823141
983.171000	-32.948015
983.391000	-26.324129
983.611000	-1.875051
983.832000	-32.198291
984.052000	-58.329101
984.272000	-32.189058
984.492000	-23.901961
984.712000	-36.649927
984.932000	-58.625967
985.152000	-63.702110
985.373000	-48.112024
985.593000	-20.974321
985.813000	-28.194770
986.033000	-45.201287
986.253000	-4.892014
986.473000	2.227628
986.693000	-33.460866
986.914000	-37.138784
987.134000	13.343730
987.354000	-29.879696
987.574000	179.695897
987.794000	110.920685
988.014000	-46.408336
988.234000	-26.504925
988.455000	-9.991295
988.675000	-5.825495
988.895000	-21.497049
989.115000	-43.041420
989.335000	-32.483360
989.555000	-10.210728
989.775000	-56.986570
989.995000	-49.129014
990.216000	-23.225561
990.436000	-19.640155
990.656000	11.314967
990.876000	-25.884227
991.096000	-19.044491
991.316000	17.447992
991.536000	-12.825016
991.757000	-35.939052
991.977000	-79.773113
992.197000	-14.360693
992.417000	-32.887214
992.637000	-84.702302
992.857000	-85.195398
993.077000	-80.374192
993.298000	-58.957446
993.518000	-50.300639
993.738000	-90.736167
993.958000	-54.248279
994.178000	-52.505169
994.398000	-40.538373
994.618000	-87.862406
994.839000	-127.621358
995.059000	-36.670365
995.279000	23.727617
995.499000	-18.239049
995.719000	-8.837853
995.939000	-30.998517
996.159000	-44.653161
996.380000	-41.678103
996.600000	-77.557237
996.820000	-40.332239
997.040000	-3.474888
997.260000	-63.631224
997.480000	-51.457889
997.700000	-104.262852
997.921000	-71.001031
998.141000	18.550876
998.361000	-9.824399
998.581000	-51.123212
998.801000	-85.924079
999.021000	-71.893383
999.241000	-41.058348
999.462000	-54.994205
999.682000	-105.542433
999.902000	-77.970314
1000.122000	-95.870983
1000.342000	-147.452850
1000.562000	-73.477467
1000.782000	-82.162062
1001.003000	-1079.759712
