Wavelength	Irradiance
(nm)	(mW/cm2/nm)

294.396000	0.000000
294.577000	0.000000
294.757000	0.000000
294.938000	-0.000000
295.118000	0.000000
295.299000	0.000000
295.479000	-0.000000
295.660000	-0.000000
295.840000	-0.000000
296.021000	0.000000
296.202000	-0.000000
296.382000	-0.000000
296.563000	-0.000000
296.743000	-0.000000
296.924000	0.000000
297.104000	0.000000
297.285000	-0.000000
297.465000	-0.000000
297.646000	-0.000000
297.826000	-0.000000
298.007000	0.000000
298.187000	0.000000
298.368000	-0.000000
298.548000	0.000000
298.729000	0.000000
298.909000	-0.000000
299.090000	-0.000000
299.270000	-0.000000
299.451000	-0.000000
299.631000	-0.000000
299.812000	-0.000000
299.992000	0.000000
300.173000	0.000000
300.353000	-0.000000
300.534000	0.000000
300.714000	0.000000
300.895000	0.000000
301.075000	-0.000000
301.256000	0.000000
301.436000	-0.000000
301.617000	-0.000000
301.797000	-0.000000
301.978000	-0.000000
302.159000	0.000000
302.339000	0.000000
302.520000	-0.000000
302.700000	-0.000000
302.881000	0.000000
303.061000	0.000000
303.242000	0.000000
303.422000	0.000000
303.603000	0.000000
303.783000	-0.000000
303.964000	-0.000000
304.144000	-0.000000
304.325000	-0.000000
304.505000	0.000000
304.686000	-0.000000
304.866000	0.000000
305.047000	-0.000000
305.227000	-0.000000
305.408000	-0.000000
305.588000	-0.000000
305.769000	-0.000000
305.949000	-0.000000
306.130000	-0.000000
306.310000	-0.000000
306.491000	-0.000000
306.671000	0.000000
306.852000	-0.000000
307.032000	-0.000000
307.213000	-0.000000
307.393000	-0.000000
307.574000	0.000000
307.755000	0.000000
307.935000	0.000000
308.116000	-0.000000
308.296000	-0.000000
308.477000	0.000000
308.657000	0.000000
308.838000	0.000000
309.018000	0.000000
309.199000	-0.000000
309.379000	-0.000000
309.560000	0.000000
309.740000	0.000000
309.921000	0.000000
310.101000	-0.000000
310.282000	-0.000000
310.462000	-0.000000
310.643000	-0.000000
310.823000	-0.000000
311.004000	-0.000000
311.184000	-0.000000
311.365000	0.000000
311.545000	0.000000
311.726000	0.000000
311.906000	-0.000000
312.087000	0.000000
312.267000	-0.000000
312.448000	-0.000000
312.628000	-0.000000
312.809000	-0.000000
312.989000	-0.000000
313.170000	-0.000000
313.344000	-0.000000
313.518000	-0.000000
313.691000	-0.000000
313.865000	-0.000000
314.039000	-0.000000
314.213000	-0.000000
314.387000	-0.000000
314.560000	-0.000000
314.734000	-0.000000
314.908000	-0.000000
315.082000	-0.000000
315.255000	0.000000
315.429000	0.000000
315.603000	0.000000
315.777000	-0.000000
315.951000	0.000000
316.124000	-0.000000
316.298000	-0.000000
316.472000	-0.000000
316.646000	-0.000000
316.820000	-0.000000
316.993000	0.000000
317.167000	-0.000000
317.341000	-0.000000
317.515000	-0.000000
317.688000	-0.000000
317.862000	-0.000000
318.036000	-0.000000
318.210000	-0.000000
318.384000	-0.000000
318.557000	-0.000000
318.731000	-0.000000
318.905000	-0.000000
319.079000	-0.000000
319.253000	-0.000000
319.426000	0.000000
319.600000	0.000000
319.774000	-0.000000
319.948000	-0.000000
320.122000	0.000000
320.295000	0.000000
320.469000	-0.000000
320.643000	-0.000000
320.817000	-0.000000
320.990000	-0.000000
321.164000	-0.000000
321.338000	-0.000000
321.512000	-0.000000
321.686000	-0.000000
321.859000	-0.000000
322.033000	-0.000000
322.207000	-0.000000
322.381000	-0.000000
322.555000	0.000000
322.728000	0.000000
322.902000	-0.000000
323.076000	-0.000000
323.250000	-0.000000
323.423000	-0.000000
323.597000	-0.000000
323.771000	-0.000000
323.945000	-0.000000
324.119000	-0.000000
324.292000	-0.000000
324.466000	-0.000000
324.640000	0.000000
324.814000	0.000000
324.988000	-0.000000
325.161000	-0.000000
325.335000	-0.000000
325.509000	-0.000000
325.683000	-0.000000
325.856000	-0.000000
326.030000	-0.000000
326.204000	-0.000000
326.378000	0.000000
326.552000	-0.000000
326.725000	-0.000000
326.899000	-0.000000
327.073000	-0.000000
327.247000	-0.000000
327.421000	0.000000
327.594000	0.000000
327.768000	-0.000000
327.942000	-0.000000
328.116000	0.000000
328.289000	0.000000
328.463000	-0.000000
328.637000	0.000000
328.811000	-0.000000
328.985000	-0.000000
329.158000	-0.000000
329.332000	-0.000000
329.506000	0.000000
329.680000	-0.000000
329.854000	-0.000000
330.027000	0.000000
330.201000	0.000000
330.375000	0.000000
330.549000	0.000000
330.723000	-0.000000
330.896000	-0.000000
331.070000	-0.000000
331.244000	-0.000000
331.418000	-0.000000
331.591000	0.000000
331.765000	-0.000000
331.939000	-0.000000
332.113000	-0.000000
332.287000	-0.000000
332.460000	0.000000
332.634000	0.000000
332.808000	-0.000000
332.982000	-0.000000
333.156000	-0.000000
333.329000	-0.000000
333.503000	-0.000000
333.677000	-0.000000
333.851000	-0.000000
334.024000	-0.000000
334.198000	-0.000000
334.372000	-0.000000
334.546000	-0.000000
334.720000	-0.000000
334.893000	-0.000000
335.067000	-0.000000
335.241000	0.000000
335.415000	0.000000
335.589000	-0.000000
335.762000	-0.000000
335.936000	-0.000000
336.110000	-0.000000
336.284000	-0.000000
336.458000	-0.000000
336.631000	-0.000000
336.805000	-0.000000
336.979000	-0.000000
337.153000	-0.000000
337.326000	-0.000000
337.500000	0.000000
337.674000	0.000000
337.848000	-0.000000
338.022000	-0.000000
338.195000	-0.000000
338.369000	-0.000000
338.543000	-0.000000
338.717000	-0.000000
338.891000	-0.000000
339.064000	0.000000
339.238000	0.000000
339.412000	-0.000000
339.586000	-0.000000
339.759000	-0.000000
339.933000	-0.000000
340.107000	0.000000
340.281000	-0.000000
340.455000	-0.000000
340.628000	-0.000000
340.802000	-0.000000
340.976000	0.000000
341.150000	-0.000000
341.324000	-0.000000
341.497000	-0.000000
341.671000	-0.000000
341.845000	-0.000000
342.019000	-0.000000
342.192000	-0.000000
342.366000	-0.000000
342.540000	-0.000000
342.714000	-0.000000
342.888000	-0.000000
343.061000	-0.000000
343.235000	-0.000000
343.409000	-0.000000
343.583000	-0.000000
343.757000	-0.000000
343.930000	-0.000000
344.104000	-0.000000
344.278000	0.000000
344.452000	0.000000
344.626000	-0.000000
344.799000	-0.000000
344.973000	-0.000000
345.147000	-0.000000
345.321000	-0.000000
345.494000	-0.000000
345.668000	0.000000
345.842000	0.000000
346.016000	-0.000000
346.190000	-0.000000
346.363000	0.000000
346.537000	0.000000
346.711000	0.000000
346.885000	-0.000000
347.059000	-0.000000
347.232000	0.000000
347.406000	0.000000
347.580000	-0.000000
347.754000	-0.000000
347.927000	0.000000
348.101000	0.000000
348.275000	-0.000000
348.449000	-0.000000
348.623000	-0.000000
348.796000	0.000000
348.970000	0.000000
349.144000	0.000000
349.318000	-0.000000
349.492000	-0.000000
349.665000	-0.000000
349.839000	-0.000000
350.013000	-0.000000
350.187000	-0.000000
350.361000	-0.000000
350.534000	-0.000000
350.708000	0.000000
350.882000	-0.000000
351.056000	0.000000
351.229000	-0.000000
351.403000	-0.000000
351.577000	-0.000000
351.751000	-0.000000
351.925000	-0.000000
352.098000	-0.000000
352.272000	0.000000
352.446000	-0.000000
352.620000	-0.000000
352.794000	-0.000000
352.967000	-0.000000
353.141000	0.000000
353.315000	0.000000
353.489000	-0.000000
353.662000	-0.000000
353.836000	-0.000000
354.010000	-0.000000
354.184000	-0.000000
354.358000	-0.000000
354.531000	-0.000000
354.705000	-0.000000
354.879000	-0.000000
355.053000	-0.000000
355.227000	0.000000
355.400000	-0.000000
355.574000	0.000000
355.748000	0.000000
355.922000	-0.000000
356.095000	-0.000000
356.269000	-0.000000
356.443000	-0.000000
356.617000	-0.000000
356.791000	-0.000000
356.964000	-0.000000
357.138000	-0.000000
357.312000	-0.000000
357.486000	-0.000000
357.660000	-0.000000
357.833000	0.000000
358.007000	-0.000000
358.181000	-0.000000
358.355000	-0.000000
358.529000	-0.000000
358.702000	-0.000000
358.876000	-0.000000
359.050000	-0.000000
359.224000	-0.000000
359.397000	0.000000
359.571000	-0.000000
359.745000	-0.000000
359.919000	-0.000000
360.093000	-0.109149
360.266000	-0.032902
360.440000	0.052557
360.614000	0.153461
360.788000	0.082209
360.962000	-0.233789
361.135000	-0.060723
361.309000	-0.074214
361.483000	-0.230413
361.657000	-0.269095
361.830000	-0.179735
362.004000	0.006496
362.178000	-0.383770
362.352000	-0.270911
362.526000	-0.012255
362.699000	-0.054650
362.873000	-0.372941
363.047000	-0.275289
363.221000	-0.195905
363.395000	-0.088613
363.568000	-0.208825
363.742000	-0.209936
363.916000	-0.116290
364.090000	-0.221550
364.263000	-0.178617
364.437000	-0.257573
364.611000	-0.048059
364.785000	-0.038682
364.959000	-0.127287
365.132000	-0.180440
365.306000	-0.230608
365.480000	-0.213593
365.656000	-0.223218
365.831000	-0.122608
366.007000	-0.071855
366.183000	-0.039426
366.358000	-0.219184
366.534000	-0.111789
366.710000	-0.260880
366.886000	-0.170332
367.061000	-0.075919
367.237000	-0.044395
367.413000	-0.184069
367.588000	-0.388888
367.764000	-0.244218
367.940000	-0.117801
368.115000	-0.086950
368.291000	-0.207730
368.467000	-0.221182
368.643000	0.054486
368.818000	-0.236152
368.994000	-0.310315
369.170000	-0.195463
369.345000	-0.212718
369.521000	-0.220285
369.697000	-0.079511
369.872000	-0.148414
370.048000	-0.284129
370.224000	-0.298323
370.399000	-0.434867
370.575000	-0.288865
370.751000	-0.440343
370.927000	-0.359016
371.102000	-0.326647
371.278000	-0.172324
371.454000	-0.164177
371.629000	-0.084505
371.805000	-0.106070
371.981000	0.084330
372.156000	0.312119
372.332000	0.103259
372.508000	0.007582
372.683000	0.072140
372.859000	-0.024941
373.035000	-0.036169
373.211000	0.282641
373.386000	0.035110
373.562000	-0.342147
373.738000	-0.444244
373.913000	-0.623168
374.089000	-0.537625
374.265000	-0.112781
374.440000	0.062967
374.616000	0.084876
374.792000	-0.201602
374.968000	0.173972
375.143000	-0.057296
375.319000	-0.331925
375.495000	-0.359834
375.670000	-0.213288
375.846000	-0.063011
376.022000	-0.074648
376.197000	-0.101252
376.373000	-0.383280
376.549000	-0.429977
376.724000	-0.491054
376.900000	-0.386581
377.076000	-0.152803
377.252000	0.169694
377.427000	0.228742
377.603000	-0.152592
377.779000	-0.131299
377.954000	-0.323782
378.130000	-0.286307
378.306000	-0.236140
378.481000	-0.177168
378.657000	-0.160528
378.833000	-0.128835
379.009000	-0.082849
379.184000	-0.066613
379.360000	-0.066030
379.536000	-0.061294
379.711000	-0.196606
379.887000	-0.336621
380.063000	-0.275445
380.238000	-0.398673
380.414000	-0.186665
380.590000	-0.336713
380.765000	-0.214280
380.941000	-0.050101
381.117000	-0.034225
381.293000	-0.028972
381.468000	-0.202588
381.644000	-0.257532
381.820000	-0.185003
381.995000	-0.024139
382.171000	0.244640
382.347000	0.254876
382.522000	-0.186419
382.698000	0.080236
382.874000	0.100925
383.050000	-0.364483
383.225000	0.064832
383.401000	0.227658
383.577000	-0.140523
383.752000	-0.267336
383.928000	-0.147842
384.104000	-0.034972
384.279000	-0.146364
384.455000	-0.095850
384.631000	-0.132116
384.806000	-0.321646
384.982000	-0.085769
385.158000	-0.122990
385.334000	-0.049264
385.509000	-0.157685
385.685000	-0.432347
385.861000	-0.144479
386.036000	-0.250903
386.212000	-0.418309
386.388000	-0.233431
386.563000	-0.248316
386.739000	-0.250942
386.915000	-0.517766
387.090000	-0.231765
387.266000	-0.018642
387.442000	0.069326
387.618000	-0.033876
387.793000	-0.318893
387.969000	-0.577439
388.145000	-0.395206
388.320000	-0.307654
388.496000	-0.293027
388.672000	-0.391255
388.847000	-0.018389
389.023000	-0.018507
389.199000	-0.287325
389.375000	-0.222100
389.550000	-0.402410
389.726000	-0.215906
389.902000	-0.315407
390.077000	-0.048107
390.253000	-0.115210
390.429000	-0.254334
390.604000	-0.099807
390.780000	-0.053709
390.956000	-0.173959
391.131000	-0.178645
391.307000	0.077333
391.483000	-0.073288
391.659000	-0.249794
391.834000	-0.058169
392.010000	-0.208323
392.186000	-0.178463
392.361000	-0.193919
392.537000	-0.371172
392.713000	0.046426
392.888000	0.348220
393.064000	-0.017871
393.240000	-0.374333
393.416000	-0.332663
393.591000	-0.389588
393.767000	-0.375908
393.943000	-0.169883
394.118000	0.153315
394.294000	0.241044
394.470000	0.050616
394.645000	0.026198
394.821000	0.314244
394.997000	-0.032004
395.172000	-0.094542
395.348000	-0.172057
395.524000	-0.448038
395.700000	-0.314325
395.875000	-0.031602
396.051000	-0.093726
396.227000	-0.123330
396.402000	-0.157887
396.578000	-0.118837
396.754000	-0.329594
396.929000	-0.323338
397.105000	0.021014
397.281000	-0.026737
397.457000	-0.107588
397.632000	-0.101744
397.808000	-0.462661
397.984000	-0.587619
398.159000	-0.455300
398.335000	-0.302230
398.511000	0.158426
398.686000	0.091923
398.862000	-0.195782
399.038000	-0.429987
399.213000	-0.194359
399.389000	-0.506389
399.565000	-0.162378
399.741000	0.119069
399.916000	0.068156
400.092000	0.237379
400.268000	-0.026158
400.443000	-0.158822
400.619000	0.119838
400.795000	0.053983
400.970000	-0.208403
401.146000	-0.307729
401.322000	0.011334
401.497000	0.436056
401.673000	0.158434
401.849000	-0.130488
402.025000	0.020714
402.200000	-0.106107
402.376000	-0.256235
402.552000	0.228078
402.727000	0.048779
402.903000	-0.316397
403.079000	-0.236989
403.254000	0.053439
403.430000	0.132239
403.606000	0.071826
403.782000	-0.063351
403.957000	-0.325129
404.133000	-0.475840
404.309000	-0.213501
404.484000	0.025193
404.660000	-0.016842
404.841000	-0.115158
405.023000	0.118253
405.204000	0.020545
405.385000	-0.260807
405.566000	-0.292321
405.748000	-0.205721
405.929000	0.001897
406.110000	-0.002812
406.292000	-0.063108
406.473000	0.015816
406.654000	-0.204430
406.835000	-0.086913
407.017000	-0.086585
407.198000	-0.094825
407.379000	-0.067021
407.560000	-0.053416
407.742000	0.001856
407.923000	-0.040130
408.104000	-0.244282
408.286000	0.006489
408.467000	0.043459
408.648000	-0.216110
408.829000	-0.206107
409.011000	-0.173975
409.192000	-0.300070
409.373000	-0.025977
409.555000	0.076089
409.736000	0.057145
409.917000	-0.016652
410.098000	0.011028
410.280000	0.047442
410.461000	0.106555
410.642000	-0.011861
410.823000	0.229843
411.005000	0.230136
411.186000	0.001828
411.367000	-0.080488
411.549000	-0.066720
411.730000	0.120611
411.911000	0.284600
412.092000	0.092765
412.274000	-0.020760
412.455000	0.001809
412.636000	0.069708
412.818000	-0.070333
412.999000	-0.087769
413.180000	-0.007208
413.361000	-0.016279
413.543000	-0.070164
413.724000	-0.123818
413.905000	-0.123822
414.087000	-0.083620
414.268000	-0.056025
414.449000	-0.163043
414.630000	-0.190509
414.812000	-0.194586
414.993000	0.156633
415.174000	0.293937
415.355000	0.117588
415.537000	-0.131258
415.718000	0.170455
415.899000	0.046027
416.081000	-0.099610
416.262000	0.146908
416.443000	0.063179
416.624000	0.128692
416.806000	0.242968
416.987000	0.380742
417.168000	0.303995
417.350000	0.203200
417.531000	0.088801
417.712000	0.110557
417.893000	0.436844
418.075000	0.482890
418.256000	0.184326
418.437000	0.381485
418.618000	0.454046
418.800000	0.505440
418.981000	0.377630
419.162000	0.375199
419.344000	0.598035
419.525000	0.497001
419.706000	0.397519
419.887000	0.631109
420.069000	0.899273
420.250000	0.768991
420.431000	0.628747
420.613000	0.636070
420.794000	0.336920
420.975000	0.656535
421.156000	0.597374
421.338000	0.592575
421.519000	0.618326
421.700000	0.602861
421.882000	0.620049
422.063000	0.747928
422.244000	1.263421
422.425000	1.074390
422.607000	0.767865
422.788000	0.690647
422.969000	0.608420
423.150000	0.695281
423.332000	0.688982
423.513000	0.962653
423.694000	1.019690
423.876000	1.081378
424.057000	1.219763
424.238000	1.311053
424.419000	1.327912
424.601000	1.179932
424.782000	1.256917
424.963000	1.448922
425.145000	1.396734
425.326000	1.459543
425.507000	1.423041
425.688000	1.365537
425.870000	1.292983
426.051000	1.215283
426.232000	1.430336
426.413000	1.520988
426.595000	1.461356
426.776000	1.452075
426.957000	1.566396
427.139000	1.714716
427.320000	1.791466
427.501000	1.941665
427.682000	1.988319
427.864000	2.125313
428.045000	2.369599
428.226000	2.325946
428.408000	2.019919
428.589000	2.210133
428.770000	2.153375
428.951000	2.162636
429.133000	2.126145
429.314000	2.346020
429.495000	2.457834
429.677000	2.582279
429.858000	2.675191
430.039000	2.734187
430.220000	2.983897
430.402000	2.995982
430.583000	2.801190
430.764000	2.948270
430.945000	3.138265
431.127000	3.290296
431.308000	3.186269
431.489000	3.565870
431.671000	3.700202
431.852000	3.620242
432.033000	3.650374
432.214000	3.863662
432.396000	3.988761
432.577000	3.874677
432.758000	3.727757
432.940000	4.008133
433.121000	4.279459
433.302000	4.396281
433.483000	4.636385
433.665000	4.883610
433.846000	4.903730
434.027000	4.801756
434.208000	4.803838
434.390000	4.939220
434.571000	5.508843
434.752000	6.006495
434.934000	5.869856
435.115000	5.901163
435.296000	6.078107
435.477000	5.960744
435.659000	5.832380
435.840000	6.278259
436.026000	6.436135
436.211000	6.420880
436.397000	6.274053
436.582000	6.617368
436.768000	6.930194
436.953000	7.063413
437.139000	7.283860
437.325000	7.583817
437.510000	7.667733
437.696000	8.026879
437.881000	8.195581
438.067000	8.136620
438.252000	8.339215
438.438000	8.501638
438.624000	8.830663
438.809000	8.982220
438.995000	9.135188
439.180000	9.174572
439.366000	9.331765
439.551000	9.620634
439.737000	9.850427
439.923000	10.184231
440.108000	10.404291
440.294000	10.695935
440.479000	11.035358
440.665000	11.151126
440.850000	11.120274
441.036000	11.418105
441.222000	11.677520
441.407000	11.684419
441.593000	12.126715
441.778000	12.462530
441.964000	12.916063
442.149000	12.801079
442.335000	13.021795
442.521000	13.372974
442.706000	13.847634
442.892000	13.959269
443.077000	14.243912
443.263000	14.528589
443.448000	14.706636
443.634000	14.964454
443.820000	15.610504
444.005000	15.717525
444.191000	15.916862
444.376000	16.177501
444.562000	16.625531
444.747000	17.002358
444.933000	17.227959
445.119000	17.347764
445.304000	17.700692
445.490000	17.977126
445.675000	18.395053
445.861000	18.676493
446.046000	18.998591
446.232000	19.349757
446.418000	19.682747
446.603000	20.079817
446.789000	20.453247
446.974000	20.821582
447.160000	20.821184
447.345000	21.297414
447.531000	21.626805
447.717000	22.258328
447.902000	22.762644
448.088000	23.049499
448.273000	23.127103
448.459000	23.438334
448.644000	23.768384
448.830000	24.205467
449.016000	24.648027
449.201000	25.075215
449.387000	25.535412
449.572000	26.005637
449.758000	26.158447
449.943000	26.668988
450.129000	26.956619
450.315000	27.310175
450.500000	27.576678
450.686000	28.084189
450.871000	28.476307
451.057000	29.038792
451.243000	29.362030
451.428000	29.817710
451.614000	30.268833
451.799000	30.606970
451.985000	31.144100
452.170000	31.528788
452.356000	31.586793
452.542000	32.138211
452.727000	32.494251
452.913000	32.947138
453.098000	33.412647
453.284000	34.117515
453.469000	34.286163
453.655000	34.643919
453.841000	34.852538
454.026000	34.787293
454.212000	34.927012
454.397000	35.202928
454.583000	35.766259
454.768000	35.873769
454.954000	36.215364
455.140000	36.490107
455.325000	36.453656
455.511000	36.503832
455.696000	36.721180
455.882000	37.105542
456.067000	37.463458
456.253000	37.654125
456.439000	37.594258
456.624000	37.593197
456.810000	37.597698
456.995000	37.616044
457.181000	37.743047
457.366000	37.986988
457.552000	37.574823
457.738000	37.767534
457.923000	37.883881
458.109000	37.984591
458.294000	37.571796
458.480000	37.610987
458.665000	37.552570
458.851000	37.500642
459.037000	36.848491
459.222000	36.738126
459.408000	36.604777
459.593000	36.196048
459.779000	36.206321
459.964000	36.020813
460.150000	36.010854
460.336000	35.721274
460.521000	34.895134
460.707000	34.559868
460.892000	34.266960
461.078000	34.235755
461.263000	33.701269
461.449000	33.501515
461.635000	33.041603
461.820000	32.548871
462.006000	32.203044
462.191000	31.761252
462.377000	31.002272
462.562000	31.049639
462.748000	30.984586
462.934000	30.055410
463.119000	29.454944
463.305000	29.176081
463.490000	28.434572
463.676000	28.092299
463.861000	27.843079
464.047000	27.492988
464.233000	27.065568
464.418000	26.512876
464.604000	25.858436
464.789000	25.779677
464.975000	25.247391
465.160000	24.744458
465.346000	24.437689
465.532000	23.940832
465.717000	23.430985
465.903000	23.302933
466.088000	22.942012
466.274000	22.160883
466.459000	21.822288
466.645000	21.966264
466.831000	21.293044
467.016000	20.836504
467.202000	20.649815
467.387000	20.136079
467.573000	19.564701
467.758000	19.409551
467.944000	18.952392
468.130000	18.606284
468.315000	18.682631
468.501000	18.470712
468.686000	17.882072
468.872000	17.634346
469.057000	17.435207
469.243000	17.142835
469.429000	16.836558
469.614000	16.427768
469.800000	16.181515
469.985000	15.911393
470.171000	15.789901
470.356000	15.454984
470.542000	15.267343
470.728000	15.037550
470.913000	14.672168
471.099000	14.596930
471.284000	14.431400
471.470000	14.175981
471.655000	13.928034
471.841000	13.673933
472.027000	13.310428
472.212000	13.383804
472.398000	13.388430
472.583000	13.114097
472.769000	12.990721
472.954000	12.701470
473.140000	12.242038
473.326000	11.996088
473.511000	12.167613
473.697000	11.962959
473.882000	11.605343
474.068000	11.367710
474.253000	11.112731
474.439000	11.133672
474.625000	11.090411
474.810000	10.816644
474.996000	10.554594
475.181000	10.202320
475.367000	10.268387
475.552000	10.399178
475.738000	9.847374
475.924000	9.784387
476.109000	9.816451
476.295000	9.468017
476.480000	9.300761
476.666000	9.250638
476.851000	9.055990
477.037000	8.906069
477.223000	8.586118
477.408000	8.427946
477.594000	8.181053
477.779000	8.171591
477.965000	7.997277
478.151000	7.720076
478.336000	7.694361
478.522000	7.518765
478.707000	7.439382
478.893000	7.389129
479.078000	7.104709
479.264000	6.951858
479.450000	6.885510
479.635000	6.787405
479.821000	6.618166
480.006000	6.573648
480.192000	6.409598
480.377000	6.278560
480.563000	6.173648
480.749000	5.907539
480.934000	5.746563
481.120000	5.656645
481.305000	5.711041
481.491000	5.606095
481.676000	5.506704
481.862000	5.380727
482.048000	5.128346
482.233000	5.063218
482.419000	4.995757
482.604000	4.908718
482.790000	4.777172
482.975000	4.728884
483.161000	4.816560
483.347000	4.753090
483.532000	4.547402
483.718000	4.170821
483.903000	4.219524
484.089000	4.219208
484.274000	3.963103
484.460000	4.007237
484.646000	3.968100
484.831000	3.895253
485.017000	3.823974
485.202000	3.725013
485.388000	3.886197
485.573000	3.770750
485.759000	3.492123
485.945000	3.636964
486.130000	3.424743
486.316000	3.367130
486.501000	3.332100
486.687000	3.170879
486.872000	3.026879
487.058000	3.113810
487.244000	3.053645
487.429000	2.888376
487.615000	2.947569
487.800000	2.859095
487.986000	2.783289
488.171000	2.939398
488.357000	2.812721
488.543000	2.705551
488.728000	2.641791
488.914000	2.591762
489.099000	2.493237
489.285000	2.430091
489.470000	2.543222
489.656000	2.545119
489.842000	2.583530
490.027000	2.578908
490.213000	2.413222
490.398000	2.007663
490.584000	2.176891
490.769000	2.192906
490.955000	2.189125
491.141000	2.190677
491.326000	2.179832
491.512000	2.251935
491.697000	2.095054
491.883000	1.915008
492.068000	1.839066
492.254000	1.870961
492.440000	1.853959
492.625000	1.816764
492.811000	1.781471
492.996000	1.880071
493.182000	1.817423
493.367000	1.570074
493.553000	1.532617
493.739000	1.615438
493.924000	1.677256
494.110000	1.659360
494.295000	1.437882
494.481000	1.477341
494.666000	1.494104
494.852000	1.679985
495.038000	1.545021
495.223000	1.390527
495.409000	1.418549
495.594000	1.289274
495.780000	1.226530
495.965000	1.215253
496.151000	1.366919
496.337000	1.390621
496.522000	1.161311
496.708000	1.277898
496.893000	1.408917
497.079000	1.156295
497.264000	1.073294
497.450000	1.117231
497.636000	1.133804
497.821000	1.000515
498.007000	1.258129
498.192000	1.250347
498.378000	1.021160
498.563000	1.033929
498.749000	1.025643
498.935000	1.064510
499.120000	1.111549
499.306000	0.858460
499.491000	0.809677
499.677000	0.923998
499.862000	0.964802
500.048000	1.016318
500.234000	0.914363
500.419000	0.844466
500.605000	0.979131
500.790000	0.915829
500.976000	0.777089
501.161000	0.695890
501.347000	0.820456
501.533000	0.867734
501.718000	0.739506
501.904000	0.722496
502.089000	0.826763
502.275000	0.765357
502.460000	0.694691
502.646000	0.707945
502.832000	0.723900
503.017000	0.672301
503.203000	0.504464
503.388000	0.524473
503.574000	0.757464
503.759000	0.726020
503.945000	0.733517
504.131000	0.670927
504.316000	0.586079
504.502000	0.573787
504.687000	0.581593
504.873000	0.428121
505.058000	0.346471
505.244000	0.371488
505.430000	0.378475
505.615000	0.501707
505.801000	0.524686
505.986000	0.358981
506.172000	0.469094
506.358000	0.529957
506.543000	0.447892
506.729000	0.580343
506.914000	0.600543
507.100000	0.707038
507.285000	0.467292
507.471000	0.308437
507.657000	0.555373
507.842000	0.377538
508.028000	0.194275
508.213000	0.277232
508.399000	0.392235
508.584000	0.558074
508.770000	0.430045
508.956000	0.357275
509.141000	0.398242
509.327000	0.453163
509.512000	0.368957
509.698000	0.340946
509.883000	0.396015
510.069000	0.307707
510.255000	0.394066
510.440000	0.432920
510.626000	0.324043
510.811000	0.273305
510.997000	0.308574
511.182000	0.496840
511.368000	0.455772
511.554000	0.078142
511.739000	0.174104
511.925000	0.430411
512.110000	0.353219
512.296000	0.479194
512.481000	0.478611
512.667000	0.408574
512.853000	0.209775
513.038000	0.277523
513.224000	0.235823
513.409000	0.219737
513.595000	0.294097
513.780000	0.120281
513.966000	0.174532
514.152000	0.168136
514.337000	0.110424
514.523000	0.148957
514.708000	0.168391
514.894000	0.168855
515.079000	0.113629
515.265000	0.178437
515.451000	0.172067
515.636000	0.046366
515.822000	0.139916
516.007000	0.069002
516.193000	0.217110
516.378000	0.311057
516.564000	0.172057
516.750000	0.201124
516.935000	0.330217
517.121000	0.352723
517.306000	0.453085
517.492000	0.330953
517.677000	0.023889
517.863000	0.085243
518.049000	0.172477
518.234000	0.078750
518.420000	0.214571
518.605000	0.392167
518.791000	0.417802
518.976000	0.273589
519.162000	0.101599
519.348000	0.124274
519.533000	0.107936
519.719000	0.328017
519.904000	0.231232
520.090000	0.159660
520.275000	0.347346
520.461000	0.429048
520.647000	0.202172
520.832000	-0.014944
521.018000	0.056381
521.203000	0.046507
521.389000	-0.150393
521.574000	0.004523
521.760000	0.175979
521.946000	0.153800
522.131000	0.043517
522.317000	0.101815
522.502000	0.098531
522.688000	0.127757
522.873000	0.079194
523.059000	0.046770
523.245000	0.020767
523.430000	0.030541
523.616000	0.076006
523.801000	0.004553
523.987000	0.001303
524.172000	0.069719
524.358000	0.154490
524.544000	0.160746
524.729000	0.238207
524.915000	0.232271
525.100000	0.095604
525.286000	0.134824
525.471000	0.118876
525.657000	0.177844
525.843000	-0.041240
526.028000	0.086469
526.214000	0.034051
526.399000	-0.018388
526.585000	-0.064371
526.770000	-0.087351
526.956000	-0.034896
527.142000	-0.074387
527.327000	0.119948
527.513000	0.050810
527.698000	-0.025103
527.884000	-0.045085
528.069000	-0.097929
528.255000	0.041078
528.441000	0.004643
528.626000	0.094483
528.812000	0.350372
528.997000	0.124577
529.183000	-0.028634
529.368000	0.061547
529.554000	0.065064
529.740000	0.021525
529.925000	-0.055842
530.111000	-0.002021
530.296000	0.116021
530.482000	0.265068
530.667000	0.082529
530.853000	0.150657
531.039000	0.069372
531.224000	0.172310
531.410000	0.223524
531.595000	0.124524
531.781000	0.186130
531.967000	0.035782
532.152000	0.125630
532.338000	0.060173
532.523000	-0.074840
532.709000	-0.078594
532.894000	0.011882
533.080000	0.067870
533.266000	-0.093129
533.451000	-0.104018
533.637000	-0.002115
533.822000	0.146538
534.008000	0.036779
534.193000	0.090160
534.379000	0.111858
534.565000	-0.066527
534.750000	-0.091903
534.936000	0.178018
535.121000	0.026736
535.307000	0.070212
535.492000	0.110200
535.678000	-0.060535
535.864000	0.049107
536.049000	0.355316
536.235000	0.126934
536.420000	0.071913
536.606000	-0.043122
536.791000	-0.047118
536.977000	-0.080976
537.163000	0.140753
537.348000	0.149147
537.534000	0.108227
537.719000	0.005348
537.905000	-0.197897
538.090000	-0.025413
538.276000	0.132921
538.462000	0.160489
538.647000	0.141678
538.833000	0.048528
539.018000	0.158847
539.204000	0.182564
539.389000	-0.073684
539.575000	0.080883
539.761000	0.125117
539.946000	-0.098484
540.132000	-0.002411
540.317000	-0.107213
540.503000	0.037969
540.688000	0.038208
540.874000	0.266640
541.060000	0.388823
541.245000	0.206380
541.431000	0.026306
541.616000	0.079960
541.802000	0.051152
541.987000	0.208502
542.173000	0.230063
542.359000	0.018294
542.544000	0.171876
542.730000	0.080862
542.915000	0.001671
543.101000	0.164717
543.286000	-0.019271
543.472000	-0.086839
543.658000	0.018562
543.843000	-0.006766
544.029000	0.201095
544.214000	0.167369
544.400000	-0.147144
544.585000	-0.083537
544.771000	-0.028222
544.957000	0.207407
545.142000	0.319086
545.328000	0.311325
545.513000	0.376527
545.699000	0.382478
545.884000	0.265839
546.070000	0.187992
546.261000	0.093034
546.451000	-0.028782
546.642000	-0.221042
546.833000	-0.125152
547.023000	-0.151374
547.214000	-0.050955
547.405000	0.067634
547.595000	0.322777
547.786000	0.315192
547.977000	0.050462
548.167000	-0.095692
548.358000	-0.082765
548.549000	0.202762
548.740000	0.028583
548.930000	-0.203726
549.121000	-0.087818
549.312000	-0.200596
549.502000	-0.214606
549.693000	-0.016218
549.884000	0.055878
550.074000	0.078685
550.265000	-0.147772
550.456000	-0.075429
550.646000	0.070142
550.837000	0.115728
551.028000	-0.075735
551.218000	-0.039226
551.409000	-0.030235
551.600000	0.033929
551.790000	0.080094
551.981000	-0.228302
552.172000	-0.201059
552.362000	0.130908
552.553000	0.247395
552.744000	0.020371
552.934000	0.043558
553.125000	-0.007427
553.316000	-0.049237
553.506000	0.304410
553.697000	0.146698
553.888000	0.057830
554.079000	0.244570
554.269000	0.207439
554.460000	-0.162061
554.651000	-0.082521
554.841000	-0.232819
555.032000	-0.204969
555.223000	0.001883
555.413000	0.076865
555.604000	0.048950
555.795000	-0.078337
555.985000	0.016078
556.176000	-0.031153
556.367000	-0.276543
556.557000	-0.187502
556.748000	-0.069264
556.939000	-0.163894
557.129000	-0.296275
557.320000	-0.069142
557.511000	-0.087921
557.701000	-0.149135
557.892000	-0.017058
558.083000	0.229090
558.273000	0.148652
558.464000	0.006628
558.655000	-0.031220
558.845000	-0.031128
559.036000	0.034926
559.227000	-0.017004
559.418000	0.110728
559.608000	0.176905
559.799000	-0.163457
559.990000	-0.200181
560.180000	-0.054581
560.371000	-0.238448
560.562000	-0.200442
560.752000	0.006593
560.943000	-0.210141
561.134000	-0.425733
561.324000	-0.167083
561.515000	0.133044
561.706000	0.015946
561.896000	-0.161917
562.087000	-0.143037
562.278000	-0.208398
562.468000	-0.316181
562.659000	-0.217364
562.850000	0.137223
563.040000	0.118553
563.231000	-0.320438
563.422000	-0.249548
563.612000	-0.305754
563.803000	-0.235411
563.994000	-0.285213
564.185000	-0.428027
564.375000	-0.109213
564.566000	-0.132191
564.757000	-0.146463
564.947000	-0.262024
565.138000	-0.067360
565.329000	-0.044203
565.519000	-0.196048
565.710000	-0.113325
565.901000	0.029503
566.091000	0.084759
566.282000	-0.034929
566.473000	-0.085219
566.663000	-0.080544
566.854000	-0.257995
567.045000	-0.089109
567.235000	0.010909
567.426000	0.038169
567.617000	-0.007244
567.807000	-0.125013
567.998000	-0.124759
568.189000	-0.219630
568.379000	-0.101874
568.570000	0.028809
568.761000	-0.083550
568.951000	-0.164143
569.142000	-0.186818
569.333000	-0.186815
569.524000	-0.342702
569.714000	-0.365038
569.905000	-0.377810
570.096000	-0.033934
570.286000	-0.029429
570.477000	0.170760
570.668000	0.019548
570.858000	0.006219
571.049000	-0.131036
571.240000	-0.272833
571.430000	-0.064581
571.621000	-0.121651
571.812000	-0.002634
572.002000	0.058926
572.193000	-0.068489
572.384000	0.063193
572.574000	0.115947
572.765000	-0.050854
572.956000	-0.094397
573.146000	0.106794
573.337000	-0.111823
573.528000	-0.146512
573.718000	0.027834
573.909000	0.184138
574.100000	0.096933
574.290000	-0.166504
574.481000	-0.136004
574.672000	-0.153395
574.863000	-0.084117
575.053000	-0.152494
575.244000	-0.028204
575.435000	-0.181871
575.625000	-0.227823
575.816000	-0.202070
576.007000	-0.019528
576.197000	-0.011055
576.388000	-0.129601
576.579000	0.027097
576.769000	0.103188
576.960000	-0.239181
577.155000	-0.411300
577.350000	-0.154048
577.545000	0.010083
577.740000	-0.149117
577.935000	0.210673
578.130000	0.160637
578.326000	-0.165152
578.521000	0.047522
578.716000	0.051452
578.911000	-0.172424
579.106000	-0.097450
579.301000	0.067513
579.496000	-0.096847
579.691000	-0.396077
579.886000	-0.296896
580.081000	-0.112696
580.276000	-0.010590
580.471000	-0.136836
580.666000	-0.242299
580.861000	-0.217830
581.057000	-0.205771
581.252000	-0.181414
581.447000	-0.172891
581.642000	-0.217900
581.837000	-0.290683
582.032000	-0.200794
582.227000	0.057956
582.422000	0.081952
582.617000	-0.138366
582.812000	-0.317504
583.007000	-0.245573
583.202000	-0.233184
583.397000	0.029343
583.592000	0.207419
583.788000	-0.104957
583.983000	-0.089089
584.178000	0.005510
584.373000	-0.210323
584.568000	-0.217715
584.763000	-0.178731
584.958000	-0.280619
585.153000	-0.249283
585.348000	-0.272651
585.543000	-0.104310
585.738000	-0.100343
585.933000	-0.272876
586.128000	-0.080736
586.324000	-0.069159
586.519000	-0.006283
586.714000	0.099816
586.909000	0.092120
587.104000	0.052928
587.299000	-0.108704
587.494000	-0.077091
587.689000	-0.081184
587.884000	-0.049805
588.079000	-0.180261
588.274000	-0.180593
588.469000	-0.113040
588.664000	0.009498
588.859000	-0.026158
589.055000	-0.046028
589.250000	-0.034140
589.445000	-0.193166
589.640000	-0.209233
589.835000	0.077354
590.030000	0.149082
590.225000	0.165057
590.420000	0.029544
590.615000	-0.118281
590.810000	-0.078234
591.005000	-0.106609
591.200000	-0.259015
591.395000	-0.295056
591.591000	-0.150476
591.786000	0.009597
591.981000	-0.078606
592.176000	-0.082784
592.371000	-0.054675
592.566000	-0.082756
592.761000	0.057841
592.956000	0.045868
593.151000	0.158606
593.346000	-0.006459
593.541000	-0.010485
593.736000	0.038022
593.931000	-0.156202
594.126000	-0.136170
594.322000	-0.083482
594.517000	-0.119930
594.712000	-0.253747
594.907000	-0.340090
595.102000	-0.230555
595.297000	0.001628
595.492000	0.103618
595.687000	-0.088292
595.882000	-0.161951
596.077000	-0.072118
596.272000	0.030316
596.467000	-0.018851
596.662000	-0.137831
596.857000	-0.043656
597.053000	-0.023102
597.248000	0.001649
597.443000	-0.014865
597.638000	-0.110099
597.833000	-0.317354
598.028000	-0.081100
598.223000	0.026533
598.418000	-0.106323
598.613000	-0.176905
598.808000	0.001662
599.003000	0.026626
599.198000	-0.169125
599.393000	-0.148252
599.589000	-0.106898
599.784000	-0.295010
599.979000	-0.241044
600.174000	-0.015076
600.369000	-0.203734
600.564000	-0.073876
600.759000	0.245420
600.954000	0.366672
601.149000	0.153178
601.344000	-0.192088
601.539000	-0.133269
601.734000	-0.213121
601.929000	-0.361444
602.124000	-0.353295
602.320000	-0.078740
602.515000	0.230330
602.710000	0.188378
602.905000	-0.129810
603.100000	-0.214308
603.295000	-0.134083
603.490000	-0.036595
603.685000	-0.108954
603.880000	-0.151698
604.075000	-0.263153
604.270000	-0.182371
604.465000	-0.109511
604.660000	-0.289411
604.856000	-0.190802
605.051000	0.087440
605.246000	0.014561
605.441000	-0.259726
605.636000	-0.259800
605.831000	-0.191557
606.026000	-0.273049
606.221000	-0.264825
606.416000	-0.131721
606.611000	0.006032
606.806000	0.014637
607.001000	0.182766
607.196000	-0.015532
607.391000	-0.296389
607.587000	-0.106501
607.782000	-0.063291
607.977000	-0.279381
608.172000	0.014750
608.367000	0.131882
608.562000	-0.011302
608.757000	-0.198154
608.952000	-0.359774
609.147000	0.114845
609.342000	0.141165
609.537000	-0.076823
609.732000	-0.015739
609.927000	-0.164056
610.122000	-0.181819
610.318000	0.111123
610.513000	0.154953
610.708000	-0.037685
610.903000	0.032463
611.098000	0.072098
611.293000	0.014951
611.488000	0.006157
611.683000	0.001762
611.878000	0.028205
612.073000	0.094339
612.268000	0.063549
612.463000	0.085807
612.658000	0.059270
612.854000	-0.002659
613.049000	-0.109086
613.244000	0.010649
613.439000	0.130496
613.634000	-0.087214
613.829000	0.010682
614.024000	-0.163292
614.219000	-0.239103
614.414000	0.108917
614.609000	-0.029505
614.804000	-0.132361
614.999000	-0.159045
615.194000	-0.159459
615.389000	-0.123771
615.585000	-0.348631
615.780000	-0.191548
615.975000	-0.178414
616.170000	-0.246172
616.365000	-0.011734
616.560000	0.164440
616.755000	0.115095
616.950000	0.087946
617.145000	0.137939
617.340000	-0.079935
617.535000	-0.388770
617.730000	-0.116426
617.925000	-0.257829
618.120000	-0.353601
618.316000	0.024660
618.511000	-0.048451
618.706000	-0.177059
618.901000	-0.085275
619.096000	0.020249
619.291000	-0.117711
619.486000	-0.145761
619.681000	-0.445934
619.876000	-0.538028
620.071000	-0.312201
620.266000	0.025000
620.461000	0.131716
620.656000	0.076203
620.852000	-0.053832
621.047000	-0.240044
621.242000	-0.282284
621.437000	0.025214
621.632000	0.137570
621.827000	-0.063695
622.022000	-0.349655
622.217000	-0.073316
622.412000	0.270056
622.607000	0.194968
622.802000	-0.177165
622.997000	-0.149413
623.192000	-0.078482
623.387000	-0.215636
623.583000	-0.405590
623.778000	0.139689
623.973000	0.073218
624.168000	-0.012391
624.363000	0.025695
624.558000	0.035272
624.753000	-0.318468
624.948000	-0.098690
625.143000	-0.060408
625.338000	-0.084521
625.533000	-0.219054
625.728000	-0.113492
625.923000	0.146288
626.119000	0.079101
626.314000	-0.210496
626.509000	-0.245042
626.704000	-0.260256
626.899000	-0.197304
627.094000	-0.275442
627.289000	-0.261442
627.484000	-0.198499
627.679000	-0.183996
627.874000	-0.096037
628.069000	0.154079
628.264000	0.036279
628.459000	-0.120886
628.654000	-0.199692
628.850000	-0.304043
629.045000	-0.195674
629.240000	-0.240385
629.435000	-0.186218
629.630000	-0.042673
629.825000	-0.122061
630.020000	-0.137486
630.215000	-0.321621
630.410000	-0.242921
630.605000	-0.278137
630.800000	-0.158054
630.995000	-0.078202
631.190000	0.122578
631.385000	0.017091
631.581000	-0.058410
631.776000	0.007054
631.971000	-0.235555
632.166000	-0.154797
632.361000	-0.286593
632.556000	-0.231217
632.751000	-0.028487
632.946000	-0.140446
633.141000	-0.130665
633.336000	-0.105309
633.531000	-0.074867
633.726000	-0.079896
633.921000	-0.254718
634.117000	-0.373659
634.312000	-0.554355
634.507000	-0.420858
634.702000	-0.251107
634.897000	-0.189375
635.092000	-0.122433
635.287000	0.017674
635.482000	-0.128214
635.677000	-0.055264
635.872000	0.075084
636.067000	0.090937
636.262000	-0.081847
636.457000	-0.415938
636.652000	-0.427025
636.848000	-0.464672
637.043000	-0.298075
637.238000	-0.325256
637.433000	-0.436469
637.628000	-0.330774
637.823000	-0.135467
638.018000	0.076347
638.213000	-0.082894
638.408000	-0.247850
638.603000	-0.269511
638.798000	-0.317909
638.993000	-0.286454
639.188000	-0.313284
639.383000	-0.297497
639.579000	0.071624
639.774000	-0.115775
639.969000	-0.201619
640.164000	-0.255824
640.359000	-0.309903
640.554000	-0.110977
640.749000	-0.192313
640.944000	-0.133179
641.139000	-0.035658
641.334000	-0.214333
641.529000	-0.621503
641.724000	-0.432221
641.919000	-0.226361
642.115000	-0.063271
642.310000	0.051199
642.505000	-0.068604
642.700000	-0.046910
642.895000	-0.183833
643.090000	-0.090793
643.285000	0.067830
643.480000	-0.041668
643.675000	-0.058166
643.870000	0.271598
644.065000	0.139919
644.260000	-0.196056
644.455000	-0.124695
644.650000	-0.263282
644.846000	-0.180320
645.041000	-0.351640
645.236000	-0.485513
645.431000	-0.464009
645.626000	-0.580217
645.821000	-0.408101
646.016000	-0.259145
646.211000	0.141517
646.406000	-0.048006
646.601000	-0.109301
646.796000	-0.248661
646.991000	-0.516360
647.186000	-0.299548
647.381000	-0.064869
647.577000	-0.126505
647.772000	0.024631
647.967000	-0.037018
648.162000	-0.121247
648.357000	-0.160757
648.552000	-0.031464
648.747000	-0.048348
648.942000	-0.076507
649.137000	-0.104953
649.332000	-0.251992
649.527000	-0.189762
649.722000	0.007904
649.917000	0.143823
650.113000	-0.150436
650.308000	-0.286573
650.503000	-0.292080
650.698000	-0.133973
650.893000	-0.151111
651.088000	-0.048887
651.283000	0.121916
651.478000	-0.242694
651.673000	-0.134314
651.868000	-0.254339
652.063000	-0.014856
652.258000	0.133810
652.453000	0.276035
652.648000	-0.106225
652.844000	-0.100587
653.039000	-0.054958
653.234000	-0.467294
653.429000	-0.559918
653.624000	-0.318733
653.819000	-0.089625
654.014000	-0.204569
654.209000	-0.251198
654.404000	-0.141584
654.599000	-0.257347
654.794000	-0.285704
654.989000	0.042751
655.184000	-0.003470
655.380000	-0.379122
655.575000	-0.413845
655.770000	-0.374005
655.965000	-0.188787
656.160000	-0.316355
656.355000	-0.101955
656.550000	-0.148753
656.745000	-0.102337
656.940000	-0.218809
657.135000	-0.154758
657.330000	-0.067516
657.525000	-0.352964
657.720000	-0.091021
657.915000	-0.067620
658.111000	-0.166781
658.306000	0.142402
658.501000	0.002340
658.696000	-0.249092
658.891000	-0.056159
659.086000	-0.190631
659.281000	-0.120657
659.476000	-0.408234
659.671000	-0.777684
659.866000	-0.490520
660.061000	-0.062237
660.256000	0.002350
660.451000	-0.126993
660.646000	-0.297886
660.842000	-0.262866
661.037000	-0.374991
661.232000	-0.316483
661.427000	-0.186435
661.622000	-0.340457
661.817000	-0.452639
662.012000	-0.210893
662.207000	-0.305886
662.402000	-0.342313
662.597000	-0.205767
662.792000	-0.615544
662.987000	-0.591293
663.182000	-0.271285
663.378000	-0.265548
663.573000	-0.510913
663.768000	-0.563459
663.963000	-0.403081
664.158000	-0.390799
664.353000	0.199788
664.548000	0.337248
664.743000	-0.057469
664.938000	-0.422592
665.133000	-0.393279
665.328000	0.032422
665.523000	-0.003609
665.718000	-0.141989
665.913000	-0.220533
666.109000	-0.263299
666.304000	-0.100214
666.499000	-0.220815
666.694000	-0.015731
666.889000	0.244408
667.084000	-0.082552
667.279000	-0.161366
667.474000	-0.173596
667.669000	-0.179622
667.864000	-0.222363
668.059000	-0.149685
668.254000	-0.070673
668.449000	-0.235436
668.644000	-0.266176
668.840000	-0.021949
669.035000	-0.333368
669.230000	-0.512167
669.425000	-0.156942
669.620000	-0.273402
669.815000	-0.292849
670.010000	-0.255698
670.205000	-0.065208
670.400000	-0.114218
670.595000	-0.022174
670.790000	-0.102384
670.985000	-0.121014
671.180000	0.014834
671.376000	-0.226427
671.571000	-0.332333
671.766000	-0.457396
671.961000	-0.563258
672.156000	-0.389667
672.351000	-0.265235
672.546000	-0.259554
672.741000	-0.028638
672.936000	-0.022442
673.131000	0.383794
673.326000	-0.022565
673.521000	-0.417818
673.716000	-0.543277
673.911000	-0.662945
674.107000	-0.079250
674.302000	0.185045
674.497000	0.109642
674.692000	-0.268624
674.887000	-0.453030
675.082000	-0.320642
675.277000	-0.029190
675.472000	-0.118185
675.667000	-0.188367
675.862000	-0.283968
676.057000	-0.169475
676.252000	-0.048524
676.447000	-0.215052
676.643000	-0.054998
676.838000	0.239631
677.033000	-0.112927
677.228000	0.092626
677.423000	0.054065
677.618000	-0.378186
677.813000	-0.558562
678.008000	-0.236826
678.203000	-0.146392
678.398000	-0.386762
678.593000	-0.276538
678.788000	-0.205797
678.983000	-0.446216
679.178000	-0.290251
679.374000	-0.277639
679.569000	-0.323957
679.764000	-0.324917
679.959000	-0.378228
680.154000	-0.437415
680.349000	-0.643237
680.544000	-0.635793
680.739000	-0.484670
680.934000	-0.511525
681.129000	-0.440244
681.324000	-0.612866
681.519000	-0.296113
681.714000	-0.236442
681.909000	-0.408627
682.105000	-0.549474
682.300000	-0.177636
682.495000	-0.004005
682.690000	-0.044153
682.885000	-0.104445
683.080000	-0.353143
683.275000	-0.366755
683.470000	0.016141
683.665000	0.184678
683.860000	0.360540
684.055000	0.083769
684.250000	-0.382738
684.445000	-0.469897
684.641000	0.083969
684.836000	-0.085465
685.031000	-0.242346
685.226000	-0.304023
685.421000	-0.010937
685.616000	-0.222848
685.811000	-0.374132
686.006000	-0.086331
686.201000	-0.093306
686.396000	-0.610192
686.591000	-0.583814
686.786000	-0.149296
686.981000	-0.246085
687.176000	-0.018016
687.372000	-0.122093
687.567000	-0.011104
687.762000	-0.038972
687.957000	-0.059848
688.152000	-0.318010
688.347000	-0.269678
688.542000	-0.494471
688.737000	-0.830288
688.932000	-0.880787
689.127000	-0.446625
689.322000	-0.159159
689.517000	-0.285862
689.712000	-0.406992
689.908000	-0.322528
690.103000	-0.301894
690.298000	-0.195626
690.493000	-0.274309
690.688000	-0.530795
690.883000	-0.297011
691.078000	-0.004285
691.273000	-0.090000
691.468000	-0.290566
691.663000	-0.234199
691.858000	-0.133646
692.053000	-0.169565
692.248000	0.103569
692.443000	0.189869
692.639000	0.002883
692.834000	0.154612
693.029000	0.566639
693.224000	0.395044
693.419000	-0.302373
693.614000	-0.441310
693.809000	-0.529085
694.004000	-0.464371
694.199000	-0.500747
694.394000	-0.363285
694.589000	-0.627624
694.784000	-0.466792
694.979000	-0.231936
695.174000	-0.306107
695.370000	0.318812
695.565000	0.157585
695.760000	-0.218466
695.955000	0.047350
696.150000	0.128774
696.345000	-0.442799
696.540000	-0.294724
696.740000	-0.391203
696.940000	-0.279856
697.140000	0.002993
697.340000	-0.079440
697.539000	-0.161963
697.739000	-0.304552
697.939000	-0.192166
698.139000	-0.485422
698.339000	-0.879452
698.539000	-0.682957
698.739000	-0.654558
698.939000	-0.543547
699.138000	-0.544446
699.338000	0.162170
699.538000	0.231251
699.738000	-0.218196
699.938000	-0.302372
700.138000	-0.348776
700.338000	-0.572232
700.538000	-0.419860
700.737000	-0.396661
700.937000	-0.656075
701.137000	-0.511235
701.337000	-0.166667
701.537000	-0.205699
701.737000	-0.298120
701.937000	-0.275573
702.137000	-0.523305
702.337000	-0.353591
702.536000	-0.564103
702.736000	-0.588120
702.936000	-0.612360
703.136000	-0.153152
703.336000	-0.004687
703.536000	-0.255382
703.736000	-0.672392
703.936000	-0.443674
704.135000	-0.443452
704.335000	-0.232561
704.535000	-0.516812
704.735000	-0.667181
704.935000	-0.091287
705.135000	-0.131271
705.335000	-0.369739
705.535000	-0.147675
705.735000	-0.203217
705.934000	-0.187245
706.134000	-0.353980
706.334000	-0.482109
706.534000	-0.618242
706.734000	-0.610759
706.934000	-0.610725
707.134000	-0.531134
707.334000	-0.260538
707.533000	-0.349093
707.733000	-0.412847
707.933000	-0.477332
708.133000	-0.204780
708.333000	-0.077192
708.533000	-0.182059
708.733000	0.067658
708.933000	-0.085453
709.132000	-0.263319
709.332000	-0.336583
709.532000	-0.515720
709.732000	-0.263962
709.932000	-0.637946
710.132000	-0.718659
710.332000	-0.839943
710.532000	-0.256436
710.732000	-0.045569
710.931000	-0.338763
711.131000	-0.405488
711.331000	-0.274897
711.531000	-0.439270
711.731000	-0.481456
711.931000	-0.506944
712.131000	-0.530995
712.331000	-0.202270
712.530000	-0.226662
712.730000	-0.416641
712.930000	-0.334188
713.130000	-0.261019
713.330000	-0.492910
713.530000	-0.494724
713.730000	0.277372
713.930000	0.044830
714.129000	-0.386465
714.329000	-0.529143
714.529000	-0.354156
714.729000	0.019994
714.929000	-0.063315
715.129000	-0.472311
715.329000	-0.547921
715.529000	-0.382432
715.729000	0.279588
715.928000	0.120844
716.128000	-0.231761
716.328000	-0.198760
716.528000	-0.359189
716.728000	-0.199035
716.928000	-0.452091
717.128000	-0.292487
717.328000	-0.106495
717.527000	-0.521275
717.727000	-0.513313
717.927000	-0.243036
718.127000	-0.370714
718.327000	-0.780250
718.527000	-0.771345
718.727000	-0.431194
718.927000	-0.363679
719.127000	-0.742283
719.326000	-0.466099
719.526000	-0.039341
719.726000	-0.236539
719.926000	-0.581514
720.126000	-0.805303
720.326000	-0.529907
720.526000	-0.357926
720.726000	-0.074218
720.925000	0.003454
721.125000	-0.551251
721.325000	-0.342816
721.525000	-0.300257
721.725000	-0.404437
721.925000	-0.422982
722.125000	-0.570986
722.325000	-0.179284
722.524000	-0.214747
722.724000	-0.686996
722.924000	-0.896710
723.124000	-0.661555
723.324000	-0.092853
723.524000	0.073648
723.724000	-0.663435
723.924000	-0.568937
724.124000	-0.146248
724.323000	0.127030
724.523000	-0.093427
724.723000	0.250852
724.923000	0.100724
725.123000	-0.031841
725.323000	0.225057
725.523000	0.039061
725.723000	-0.395518
725.922000	-0.422598
726.122000	-0.236423
726.322000	-0.290534
726.522000	-0.442472
726.722000	0.217417
726.922000	-0.165623
727.122000	-0.228747
727.322000	0.182516
727.521000	-0.095069
727.721000	-0.310778
727.921000	-0.373669
728.121000	-0.445417
728.321000	-0.779116
728.521000	-0.555617
728.721000	-0.448141
728.921000	-0.104770
729.121000	0.682128
729.320000	0.057964
729.520000	-0.222818
729.720000	-0.350201
729.920000	-0.360985
730.120000	-0.360069
730.320000	-0.233342
730.520000	-0.589066
730.720000	-0.517743
730.919000	-0.316441
731.119000	-0.060472
731.319000	-0.510263
731.519000	-0.748773
731.719000	-0.308552
731.919000	-0.584357
732.119000	-1.109911
732.319000	-0.947217
732.519000	-0.273417
732.718000	-0.634494
732.918000	-0.486925
733.118000	-0.237574
733.318000	-0.014891
733.518000	-0.508199
733.718000	-1.058822
733.918000	-0.910223
734.118000	-0.574285
734.317000	-0.202193
734.517000	-0.501043
734.717000	-0.324993
734.917000	-0.015063
735.117000	-0.194137
735.317000	-0.335413
735.517000	0.117147
735.717000	0.439654
735.916000	-0.299465
736.116000	-0.412826
736.316000	-0.224835
736.516000	-0.253337
736.716000	-0.262994
736.916000	-0.818989
737.116000	-0.784521
737.316000	-0.217246
737.516000	-0.275466
737.715000	-0.237090
737.915000	-0.536105
738.115000	-0.615190
738.315000	-0.363966
738.515000	-0.741341
738.715000	-0.424442
738.915000	0.101379
739.115000	-0.406186
739.314000	-0.532639
739.514000	-0.113568
739.714000	0.062816
739.914000	0.161437
740.114000	-0.173574
740.314000	-0.272398
740.514000	0.112685
740.714000	-0.680382
740.913000	-1.118406
741.113000	-0.742129
741.313000	-0.194983
741.513000	-0.115723
741.713000	-0.226066
741.913000	-0.166833
742.113000	-0.256894
742.313000	-0.750202
742.513000	-0.378471
742.712000	-0.329205
742.912000	-0.804037
743.112000	-0.482432
743.312000	-0.879160
743.512000	-0.494499
743.712000	-0.077577
743.912000	-0.680919
744.112000	-0.916657
744.311000	-1.165332
744.511000	-0.859137
744.711000	-0.521300
744.911000	-0.810926
745.111000	-0.698304
745.311000	-0.068309
745.511000	-0.420783
745.711000	-0.680526
745.911000	-0.349015
746.110000	-0.868796
746.310000	-1.041182
746.510000	-0.673846
746.710000	-0.268260
746.910000	-0.100687
747.110000	-0.668126
747.310000	-1.058663
747.510000	-0.851424
747.709000	-0.439801
747.909000	-0.313738
748.109000	0.036159
748.309000	-0.272814
748.509000	-0.753550
748.709000	-0.831334
748.909000	-0.552623
749.109000	-0.555036
749.308000	0.155051
749.508000	-0.125361
749.708000	-0.471341
749.908000	-0.233560
750.108000	-0.049888
750.308000	-0.800986
750.508000	-0.366603
750.708000	-0.825133
750.908000	-0.925359
751.107000	-0.028527
751.307000	0.223559
751.507000	-0.358769
751.707000	-0.237410
751.907000	-0.447340
752.107000	-0.592575
752.307000	-0.827516
752.507000	-0.596126
752.706000	-0.818005
752.906000	0.160384
753.106000	-0.531998
753.306000	-1.262329
753.506000	-0.276536
753.706000	-0.400989
753.906000	-0.119414
754.106000	0.094755
754.305000	-0.119727
754.505000	-0.165340
754.705000	-0.291494
754.905000	-0.212102
755.105000	-0.086794
755.305000	-0.967501
755.505000	-0.821189
755.705000	-0.420294
755.905000	-0.571292
756.104000	-1.055958
756.304000	-1.336208
756.504000	-1.535869
756.704000	-0.472701
756.904000	-0.181526
757.104000	-0.425286
757.304000	-0.483848
757.504000	-0.229361
757.703000	-0.732414
757.903000	-0.030493
758.103000	0.486538
758.303000	0.146136
758.503000	-0.290680
758.703000	-0.563768
758.903000	-0.682511
759.103000	-0.339823
759.303000	-0.281759
759.502000	-0.354509
759.702000	-0.043099
759.902000	-0.416349
760.102000	-0.586214
760.302000	-0.394546
760.502000	-0.212370
760.702000	-0.200592
760.902000	-0.431097
761.101000	-0.869530
761.301000	-0.956214
761.501000	-0.554928
761.701000	-0.787728
761.901000	-0.522166
762.101000	0.066332
762.301000	-0.105641
762.501000	-0.769599
762.700000	-0.884298
762.900000	-0.761064
763.100000	-0.316647
763.300000	-0.057130
763.500000	-0.181505
763.703000	-0.564998
763.905000	-0.679083
764.108000	-0.119824
764.311000	-0.419440
764.513000	-0.632420
764.716000	-0.572236
764.919000	-0.334251
765.121000	-0.799496
765.324000	-1.217980
765.527000	-1.034342
765.729000	-0.793478
765.932000	0.030471
766.135000	-0.058385
766.337000	-0.312393
766.540000	-0.517269
766.743000	-0.315749
766.945000	-0.750661
767.148000	-1.240239
767.351000	-1.150205
767.553000	-0.097927
767.756000	-0.368907
767.958000	-1.091132
768.161000	-0.588638
768.364000	-0.811063
768.566000	-1.280285
768.769000	-0.789495
768.972000	-0.203208
769.174000	-0.517407
769.377000	-0.977501
769.580000	-1.163421
769.782000	-0.598260
769.985000	-1.021343
770.188000	-1.868120
770.390000	-0.909513
770.593000	0.508480
770.796000	-0.100712
770.998000	-0.511808
771.201000	-0.724718
771.404000	-0.446610
771.606000	-0.862069
771.809000	-0.781745
772.012000	-0.542662
772.214000	-1.626593
772.417000	-1.747171
772.620000	-0.461449
772.822000	-0.733825
773.025000	-0.908710
773.228000	-0.708394
773.430000	-0.669105
773.633000	-0.724436
773.836000	-0.738959
774.038000	-0.592315
774.241000	-0.660062
774.444000	-0.771076
774.646000	0.264078
774.849000	-0.171902
775.052000	-0.431045
775.254000	-0.295223
775.457000	-0.759235
775.659000	-0.610486
775.862000	-0.884456
776.065000	-0.639063
776.267000	-0.035717
776.470000	0.253897
776.673000	-0.408726
776.875000	0.282515
777.078000	0.226760
777.281000	-0.702293
777.483000	-0.147589
777.686000	-0.106017
777.889000	-0.175954
778.091000	0.047643
778.294000	-1.029864
778.497000	-0.905091
778.699000	-0.751574
778.902000	-0.500884
779.105000	-0.486848
779.307000	0.104272
779.510000	-0.884058
779.713000	-0.561420
779.915000	-0.805084
780.118000	0.361646
780.321000	0.661456
780.523000	-0.280057
780.726000	-0.594655
780.929000	-0.937388
781.131000	-0.981772
781.334000	-1.387630
781.537000	-1.578776
781.739000	-0.801644
781.942000	-1.163034
782.145000	-1.604178
782.347000	-1.372975
782.550000	-0.734853
782.753000	-1.043250
782.955000	-1.338288
783.158000	-1.235288
783.361000	-0.594285
783.563000	-0.813982
783.766000	-0.507856
783.968000	1.622931
784.171000	1.231644
784.374000	-0.392862
784.576000	-0.673277
784.779000	-0.112036
784.982000	0.376595
785.184000	-0.649945
785.387000	0.200059
785.590000	0.796823
785.792000	0.335515
785.995000	-0.009001
786.198000	-0.234402
786.400000	-0.476817
786.603000	-0.372135
786.806000	-0.748005
787.008000	-0.370949
787.211000	-0.145283
787.414000	-1.193576
787.616000	-0.877988
787.819000	-0.956450
788.022000	-1.585017
788.224000	-0.515338
788.427000	-1.267590
788.630000	-1.041038
788.832000	-0.701478
789.035000	-0.869308
789.238000	-1.351502
789.440000	-1.017988
789.643000	-0.102207
789.846000	-0.987713
790.048000	-0.367398
790.251000	-0.102772
790.454000	-0.506613
790.656000	-0.087347
790.859000	-0.619096
791.062000	-1.105685
791.264000	-0.416246
791.467000	-0.936588
791.669000	-1.567457
791.872000	-0.515606
792.075000	-0.925756
792.277000	-1.068110
792.480000	-0.835620
792.683000	-1.166039
792.885000	-1.452616
793.088000	-1.219197
793.291000	-1.094597
793.493000	-1.000680
793.696000	-0.201494
793.899000	0.022450
794.101000	-0.363247
794.304000	-0.444614
794.507000	-0.316208
794.709000	-0.365619
794.912000	-0.773164
795.115000	-1.148958
795.317000	-0.806978
795.520000	-0.728802
795.723000	-0.731741
795.925000	-1.094286
796.128000	-1.486712
796.331000	-0.734275
796.533000	-1.264110
796.736000	-0.573863
796.939000	-0.359107
797.141000	-0.493408
797.344000	-0.210232
797.547000	0.090139
797.749000	-0.478087
797.952000	-0.833338
798.155000	-1.200337
798.357000	-1.123238
798.560000	-1.027815
798.763000	-0.467632
798.965000	-0.687242
799.168000	-0.332740
799.371000	0.057788
799.573000	-0.607088
799.776000	-1.905969
799.978000	-1.638381
800.181000	-0.748642
800.384000	0.918332
800.586000	0.213747
800.789000	-1.405985
800.992000	-1.318940
801.194000	-1.321853
801.397000	-1.152258
801.600000	-1.190921
801.802000	0.059113
802.005000	-0.324414
802.208000	-2.039502
802.410000	-0.761973
802.613000	-0.326497
802.816000	-0.713507
803.018000	-1.437861
803.221000	-1.052163
803.424000	0.413957
803.626000	0.060241
803.829000	-0.472799
804.032000	0.399199
804.234000	1.147343
804.437000	-0.565409
804.640000	-0.690078
804.842000	-0.458715
805.045000	-0.947205
805.248000	-0.822688
805.450000	-0.695719
805.653000	-0.718267
805.856000	-0.862429
806.058000	-0.047252
806.261000	-1.031067
806.464000	-0.904454
806.666000	0.025569
806.869000	-0.470551
807.072000	-1.720266
807.274000	-1.978869
807.477000	-1.006889
807.679000	-1.044640
807.882000	-1.842495
808.085000	-1.184465
808.287000	-0.514522
808.490000	-1.356012
808.693000	-0.945766
808.895000	-0.591300
809.098000	-0.629029
809.301000	-0.743835
809.503000	-0.954578
809.706000	-0.125190
809.909000	0.140341
810.111000	-0.049378
810.314000	-0.487295
810.517000	-0.979011
810.719000	-1.022688
810.922000	-0.528838
811.125000	0.141485
811.327000	0.257668
811.530000	-0.301160
811.735000	-0.821159
811.940000	-1.093464
812.146000	-0.826459
812.351000	0.337594
812.556000	-0.128464
812.761000	-1.398063
812.967000	-0.325530
813.172000	-0.227240
813.377000	-0.679900
813.582000	-0.288112
813.788000	-0.588150
813.993000	-1.399297
814.198000	-0.765804
814.403000	-1.280919
814.609000	-0.530756
814.814000	-0.452976
815.019000	0.648213
815.224000	0.167969
815.429000	-1.481503
815.635000	-0.981348
815.840000	-0.537699
816.045000	-0.296473
816.250000	0.150509
816.456000	-1.153163
816.661000	-2.222754
816.866000	-1.878930
817.071000	-1.611255
817.277000	-2.158068
817.482000	-1.231770
817.687000	-0.322204
817.892000	-0.407113
818.097000	0.029170
818.303000	0.300027
818.508000	0.590565
818.713000	2.032360
818.918000	0.467736
819.124000	-0.096300
819.329000	-1.189941
819.534000	-1.193487
819.739000	-0.961617
819.945000	-0.902591
820.150000	-0.694640
820.355000	-0.418449
820.560000	-0.097943
820.766000	-0.674549
820.971000	-1.021954
821.176000	-2.143568
821.381000	-2.330522
821.586000	-1.394605
821.792000	0.116985
821.997000	-0.533427
822.202000	-1.033175
822.407000	-1.580588
822.613000	-1.802075
822.818000	-0.800583
823.023000	-0.385449
823.228000	-0.740610
823.434000	-0.255484
823.639000	0.097116
823.844000	-0.544396
824.049000	0.230321
824.255000	0.008887
824.460000	-0.794650
824.665000	-0.840461
824.870000	-0.125599
825.075000	-0.058388
825.281000	-0.261284
825.486000	0.416908
825.691000	-1.488615
825.896000	-2.514681
826.102000	-0.696176
826.307000	-0.538228
826.512000	-0.975180
826.717000	-0.473020
826.923000	-0.635565
827.128000	-0.775427
827.333000	-1.732761
827.538000	-0.806677
827.744000	-0.060765
827.949000	-0.970391
828.154000	-0.880637
828.359000	0.032773
828.564000	-0.484655
828.770000	-0.628404
828.975000	-0.227307
829.180000	-0.609224
829.385000	-1.322654
829.591000	-1.065440
829.796000	-0.710642
830.001000	-0.760107
830.206000	-1.993135
830.412000	-1.605416
830.617000	-1.464312
830.822000	-0.135991
831.027000	-0.450679
831.232000	-0.697184
831.438000	-0.923051
831.643000	-0.849331
831.848000	-0.974450
832.053000	-0.582950
832.259000	-0.558939
832.464000	-2.519809
832.669000	-2.280007
832.874000	-1.853844
833.080000	-1.487635
833.285000	0.335011
833.490000	0.060045
833.695000	-1.752761
833.901000	-1.507990
834.106000	-1.459609
834.311000	-0.703073
834.516000	-0.729663
834.721000	-1.169942
834.927000	-0.118508
835.132000	-0.789883
835.337000	0.579076
835.542000	0.010402
835.748000	-1.650732
835.953000	0.218775
836.158000	-0.250642
836.363000	-0.906982
836.569000	-1.151761
836.774000	-1.339026
836.979000	-1.552615
837.184000	-2.087573
837.390000	-1.825304
837.595000	-1.563402
837.800000	-0.978701
838.005000	-0.850174
838.210000	-1.227366
838.416000	-1.529344
838.621000	-0.829043
838.826000	-1.234681
839.031000	-1.404312
839.237000	-1.387389
839.442000	-1.966322
839.647000	-2.484395
839.852000	-2.109551
840.058000	-1.370912
840.263000	-1.488746
840.468000	-1.740472
840.673000	-0.934277
840.878000	-1.074319
841.084000	-1.808669
841.289000	-1.223783
841.494000	1.226662
841.699000	1.315794
841.905000	0.523153
842.110000	0.325879
842.315000	-1.048469
842.520000	-0.560912
842.726000	-1.365470
842.931000	-1.679657
843.136000	-0.652471
843.341000	-2.169794
843.547000	-1.788012
843.752000	-1.761000
843.957000	-1.892611
844.162000	-1.607229
844.367000	-1.817237
844.573000	-1.321391
844.778000	-1.111055
844.983000	-0.521344
845.188000	-0.077412
845.394000	-1.610287
845.599000	-1.396552
845.804000	-1.040462
846.009000	-0.139283
846.215000	-1.782572
846.420000	-1.726380
846.625000	-0.752779
846.830000	0.378085
847.036000	-1.580944
847.241000	-2.141479
847.446000	0.196894
847.651000	-0.543737
847.856000	-1.951490
848.062000	-1.425749
848.267000	0.450369
848.472000	-0.552361
848.677000	-2.347796
848.883000	-1.180851
849.088000	0.520268
849.293000	-0.879025
849.498000	-1.863956
849.704000	-1.007952
849.909000	-0.434927
850.114000	-1.458330
850.319000	-0.852595
850.524000	-0.889513
850.730000	-0.538032
850.935000	-1.288653
851.140000	-0.313224
851.345000	-0.084820
851.551000	-0.215959
851.756000	-0.348709
851.961000	-1.009330
852.166000	-1.207865
852.372000	-0.979385
852.577000	-1.319833
852.782000	-1.967899
852.987000	-0.020092
853.193000	-0.188199
853.398000	-0.658894
853.603000	-1.435285
853.808000	-2.379913
854.013000	-1.513021
854.219000	-0.156335
854.424000	1.344239
854.629000	0.800118
854.834000	-1.087714
855.040000	-0.332562
855.245000	0.428123
855.450000	-1.844901
855.655000	-3.237069
855.861000	-2.944398
856.066000	-1.915717
856.271000	-2.832516
856.476000	-0.902756
856.682000	-1.331027
856.887000	-4.406916
857.092000	-2.431360
857.297000	0.085404
857.502000	-0.092704
857.708000	-0.914553
857.913000	-1.059287
858.118000	-1.755267
858.323000	-1.687979
858.529000	-1.287535
858.734000	-2.233931
858.939000	-1.222100
859.144000	-1.664176
859.350000	-2.357916
859.555000	-2.438517
859.760000	-0.721555
859.965000	0.345951
860.171000	-1.168013
860.376000	-0.764605
860.581000	-2.776319
860.786000	-5.105068
860.991000	-4.789512
861.197000	-4.036342
861.402000	-1.489754
861.607000	-1.678925
861.812000	-2.631302
862.018000	-2.717298
862.223000	-2.152077
862.428000	-1.285089
862.633000	-0.558655
862.839000	-0.677670
863.044000	-1.382202
863.249000	-1.223570
863.454000	0.286817
863.659000	-2.006036
863.865000	-2.406709
864.070000	-2.099643
864.275000	-2.730963
864.480000	-2.033943
864.686000	-3.703109
864.891000	-3.429021
865.096000	-1.495647
865.301000	-0.860808
865.507000	-0.905959
865.712000	-0.825731
865.917000	-1.153773
866.122000	-0.186076
866.328000	-3.563636
866.533000	-3.195278
866.738000	0.260507
866.943000	-0.024474
867.148000	0.262524
867.354000	-3.042719
867.559000	-3.912017
867.764000	-1.894924
867.969000	-0.943914
868.175000	-2.772234
868.380000	-3.700923
868.585000	-3.873045
868.790000	-1.200339
868.996000	-1.039284
869.201000	-2.609252
869.406000	-4.449755
869.611000	-3.092824
869.817000	-2.919172
870.022000	1.298525
870.227000	-0.839263
870.432000	-2.908850
870.637000	-1.792109
870.843000	-1.802522
871.048000	-1.586638
871.253000	-0.156153
871.458000	-1.464826
871.664000	-3.448431
871.869000	-3.380541
872.074000	-2.859541
872.279000	-2.504211
872.485000	-2.253174
872.690000	-1.994610
872.895000	-1.957947
873.100000	-2.949384
873.306000	-2.329806
873.511000	-1.118460
873.716000	0.018226
873.921000	-2.617723
874.126000	-2.621890
874.332000	-2.555788
874.537000	-1.090197
874.742000	-0.810405
874.947000	-1.692422
875.153000	-0.401404
875.358000	-1.291245
875.563000	-1.523753
875.768000	-3.923936
875.974000	-4.458490
876.179000	-1.775540
876.384000	-1.024948
876.589000	-2.614317
876.794000	-2.617293
877.000000	-3.339080
877.205000	-3.718164
877.410000	-0.799297
877.615000	-3.634015
877.821000	-4.830131
878.026000	-3.328413
878.231000	-3.570199
878.436000	-4.256447
878.642000	-2.769183
878.847000	-1.108177
879.052000	-0.372130
879.257000	-2.795485
879.463000	-4.233638
879.668000	-3.195982
879.873000	-0.675516
880.078000	-3.316146
880.283000	-4.978592
880.489000	-5.878210
880.694000	-4.297288
880.899000	-1.648930
881.104000	-1.401695
881.310000	1.086794
881.515000	-0.081162
881.720000	1.189853
881.925000	2.628348
882.131000	3.139897
882.336000	-0.030919
882.541000	-3.355136
882.746000	-2.380013
882.952000	-3.628429
883.157000	-3.480584
883.362000	-3.538273
883.567000	-4.446611
883.772000	-3.692171
883.978000	-2.634083
884.183000	-1.735206
884.388000	-2.421486
884.593000	-5.078674
884.799000	0.128068
885.004000	-0.681856
885.209000	-2.955980
885.414000	-2.082596
885.620000	-3.347561
885.825000	-0.251777
886.030000	-0.196657
886.235000	-2.121554
886.440000	-0.698295
886.646000	-3.592040
886.851000	-4.448365
887.056000	0.583056
887.261000	0.134659
887.467000	-2.963289
887.672000	-1.678918
887.877000	-3.397765
888.082000	-4.903306
888.288000	-4.942487
888.493000	-7.721535
888.698000	-5.979753
888.903000	-1.886492
889.109000	-3.961513
889.314000	-0.843600
889.519000	-2.164300
889.724000	-0.265162
889.929000	-0.784873
890.135000	-1.307783
890.340000	-1.667333
890.545000	-3.356455
890.750000	-5.466282
890.956000	-2.437547
891.161000	-0.386167
891.366000	-3.203688
891.571000	-1.799688
891.777000	-1.507026
891.982000	1.206777
892.187000	1.330768
892.392000	1.149798
892.598000	0.321874
892.803000	-0.517146
893.008000	-2.318843
893.213000	-3.091612
893.418000	-3.173740
893.624000	-3.856703
893.829000	-4.768366
894.034000	-2.589891
894.239000	-2.297158
894.445000	-4.669010
894.650000	-3.896159
894.855000	-3.471660
895.060000	-4.506851
895.266000	-4.412397
895.471000	-5.401594
895.676000	-1.645937
895.881000	-0.162266
896.087000	-1.910114
896.292000	-3.367585
896.497000	-0.795521
896.702000	-1.987119
896.907000	-3.627680
897.113000	0.404565
897.318000	0.720266
897.523000	1.355643
897.728000	-2.327455
897.934000	-2.890435
898.139000	-2.771282
898.344000	-0.808400
898.549000	-2.038966
898.755000	-2.881856
898.960000	-2.574578
899.165000	-4.266875
899.370000	-1.802791
899.575000	1.073958
899.781000	-2.337893
899.986000	-3.323134
900.191000	-2.947796
900.396000	-3.215902
900.602000	-2.303255
900.807000	-2.118417
901.012000	-0.917662
901.217000	-1.122868
901.423000	-4.152503
901.628000	-5.248588
901.833000	-1.128357
902.038000	-1.342633
902.244000	-4.822944
902.449000	-3.889321
902.654000	-3.721993
902.859000	-1.565674
903.064000	-0.320205
903.270000	-0.600796
903.475000	-3.537627
903.680000	-6.956287
903.885000	-7.574930
904.091000	-5.420310
904.296000	-6.720622
904.501000	-4.750207
904.706000	-3.906845
904.912000	0.824521
905.117000	-0.551984
905.322000	-4.217419
905.527000	-5.072414
905.733000	-5.221602
905.938000	-3.639836
906.143000	-4.500497
906.348000	-5.841962
906.553000	-1.691799
906.759000	0.254359
906.964000	-0.646573
907.169000	-3.825685
907.374000	-6.004825
907.580000	-3.154912
907.785000	-4.520763
907.990000	26.446147
908.195000	18.610160
908.401000	-1.606336
908.606000	-8.044455
908.811000	-8.114788
909.016000	-2.158992
909.221000	-3.656797
909.427000	-4.782481
909.632000	-6.337095
909.837000	-3.815928
910.042000	-4.148577
910.248000	-5.785133
910.453000	-2.403135
910.658000	-3.730349
910.863000	-4.298504
911.069000	-5.954537
911.274000	-1.949849
911.479000	-0.382394
911.684000	-7.857056
911.890000	-3.647486
912.095000	-4.238311
912.300000	-6.377493
912.506000	-6.549656
912.711000	-5.947636
912.917000	-3.301490
913.123000	-4.074905
913.328000	-3.152585
913.534000	-1.790682
913.740000	7.475580
913.946000	3.818071
914.151000	-3.888351
914.357000	-6.223384
914.563000	-1.373601
914.768000	-5.111582
914.974000	-7.049000
915.180000	-7.027012
915.385000	-6.418748
915.591000	-8.035058
915.797000	-1.619637
916.002000	2.074998
916.208000	-2.821841
916.414000	-5.742956
916.620000	-5.101234
916.825000	-2.867889
917.031000	-3.526626
917.237000	-9.849418
917.442000	-6.243773
917.648000	-6.292775
917.854000	-7.151388
918.059000	-0.057913
918.265000	-0.347045
918.471000	-3.739941
918.676000	-6.619701
918.882000	-9.029089
919.088000	-10.033132
919.294000	-13.095812
919.499000	-5.470932
919.705000	-1.974617
919.911000	-4.493065
920.116000	-2.401294
920.322000	-8.440244
920.528000	-5.917181
920.733000	-8.708013
920.939000	-8.848517
921.145000	-7.784924
921.350000	-5.242406
921.556000	-0.809879
921.762000	-3.784119
921.968000	-7.099480
922.173000	-6.717798
922.379000	-9.160483
922.585000	-5.190371
922.790000	-6.619620
922.996000	-8.982971
923.202000	-8.534457
923.407000	-4.888140
923.613000	-3.210752
923.819000	-2.885307
924.024000	-1.971407
924.230000	-0.180350
924.436000	-7.214247
924.642000	3.835737
924.847000	-0.069620
925.053000	-4.706052
925.259000	-8.078505
925.464000	-2.289830
925.670000	-4.272444
925.876000	-8.570495
926.081000	-10.040657
926.287000	-7.088826
926.493000	-5.398294
926.698000	-4.437379
926.904000	-2.964210
927.110000	-5.285146
927.316000	-4.820519
927.521000	5.090998
927.727000	2.421509
927.933000	-2.707807
928.138000	-4.356488
928.344000	-10.903013
928.550000	-9.005731
928.755000	-2.657911
928.961000	-4.069095
929.167000	-7.073638
929.372000	-0.728380
929.578000	-1.653944
929.784000	-7.880682
929.990000	-11.104971
930.195000	-8.204264
930.401000	-7.728618
930.607000	-5.729736
930.812000	-5.106659
931.018000	-7.309894
931.224000	-12.383226
931.429000	-6.885892
931.635000	-8.394805
931.841000	-12.533557
932.046000	-8.222323
932.252000	-1.918663
932.458000	5.608720
932.664000	-1.813841
932.869000	-6.859454
933.075000	-9.372656
933.281000	-9.506050
933.486000	-2.474965
933.692000	-5.631215
933.898000	-8.563948
934.103000	-1.298913
934.309000	-7.186171
934.515000	-4.012669
934.720000	-2.453621
934.926000	-1.839789
935.132000	-3.587303
935.338000	-4.428420
935.543000	-11.002026
935.749000	-11.105220
935.955000	-12.806659
936.160000	-12.621138
936.366000	-0.772903
936.572000	-3.358138
936.777000	-3.426871
936.983000	0.070100
937.189000	-1.695601
937.394000	-8.341971
937.600000	-3.165243
937.806000	1.521687
938.012000	-9.679122
938.217000	5.635683
938.423000	2.501869
938.629000	-4.593650
938.834000	-10.832885
939.040000	-12.988780
939.246000	-7.205647
939.451000	-9.237040
939.657000	-6.976675
939.863000	-8.466531
940.068000	-3.130499
940.274000	-12.243937
940.480000	-5.241166
940.686000	1.959645
940.891000	-5.292017
941.097000	20.470092
941.303000	7.255969
941.508000	-8.401664
941.714000	-1.621210
941.920000	-14.393099
942.125000	-7.081095
942.331000	-4.931836
942.537000	1.613627
942.742000	5.374664
942.948000	-8.944381
943.154000	-17.074822
943.360000	-26.416214
943.565000	-11.594316
943.771000	-2.177604
943.977000	-1.937440
944.182000	-17.227176
944.388000	-18.205455
944.594000	-5.859703
944.799000	2.404653
945.005000	-2.409859
945.211000	3.511504
945.416000	0.092615
945.622000	-14.298926
945.828000	-13.045422
946.034000	1.049251
946.239000	0.575514
946.445000	-3.683118
946.651000	-13.300315
946.856000	-14.276595
947.062000	-2.978952
947.268000	-3.476003
947.473000	-20.223607
947.679000	-22.270782
947.885000	-4.728537
948.090000	5.679967
948.296000	11.453350
948.502000	1.800308
948.708000	-6.282473
948.913000	-19.021616
949.119000	-8.092392
949.325000	-7.849136
949.530000	-20.281939
949.736000	-26.156846
949.942000	-15.938600
950.147000	-17.048695
950.353000	-13.700584
950.559000	-9.271173
950.764000	12.543284
950.970000	7.867947
951.176000	-8.263421
951.382000	-17.546171
951.587000	-7.713747
951.793000	-1.993649
951.999000	2.947956
952.204000	-12.690463
952.410000	-28.881392
952.616000	-11.452349
952.821000	-8.166882
953.027000	-18.019078
953.233000	-19.397123
953.438000	-18.740532
953.644000	3.024817
953.850000	-4.141987
954.056000	-12.503778
954.261000	-10.151584
954.467000	4.438193
954.673000	7.939628
954.878000	-7.208157
955.084000	-6.131790
955.290000	-18.959879
955.495000	-17.102839
955.701000	-13.514961
955.907000	2.330749
956.112000	2.053489
956.318000	9.461066
956.524000	5.397069
956.730000	-7.516501
956.935000	-11.507261
957.141000	-15.933145
957.347000	-4.170477
957.552000	-9.017075
957.758000	-25.013870
957.964000	-35.652106
958.169000	-3.362211
958.375000	-1.337421
958.581000	-16.536470
958.786000	-25.201623
958.992000	-29.989841
959.198000	-6.750318
959.404000	0.119051
959.609000	-12.255961
959.815000	-15.502504
960.021000	5.879618
960.226000	-0.489210
960.432000	-26.604082
960.638000	-14.466852
960.843000	-9.173750
961.049000	-9.364468
961.255000	0.438987
961.460000	-12.190627
961.666000	-32.659221
961.872000	-22.067836
962.078000	-20.678869
962.283000	-27.809106
962.489000	-32.959524
962.695000	-22.118341
962.900000	-15.451862
963.106000	-11.681474
963.312000	-18.148758
963.517000	-20.951758
963.723000	-20.522753
963.929000	0.134823
964.134000	12.917633
964.340000	-13.470321
964.546000	-23.552859
964.752000	-26.082798
964.957000	-27.351573
965.163000	-5.471717
965.369000	-12.295286
965.574000	-9.909127
965.780000	-8.480094
966.000000	-13.162047
966.220000	-14.326088
966.440000	-15.129263
966.661000	-6.073669
966.881000	-25.910781
967.101000	-40.500006
967.321000	-40.659377
967.541000	-18.814767
967.761000	-23.922372
967.981000	-11.501945
968.202000	-16.775066
968.422000	-5.639896
968.642000	-7.162969
968.862000	-9.671601
969.082000	-20.039640
969.302000	-9.241913
969.522000	-15.916478
969.743000	0.156558
969.963000	-17.041041
970.183000	-37.375691
970.403000	-33.109348
970.623000	-30.774034
970.843000	-6.033643
971.063000	0.587498
971.284000	-16.718753
971.504000	-26.673071
971.724000	-5.403817
971.944000	-26.237116
972.164000	-39.392808
972.384000	-33.491315
972.604000	-47.979035
972.825000	-47.459648
973.045000	-34.320139
973.265000	22.001346
973.485000	12.429085
973.705000	-10.765365
973.925000	-14.632704
974.145000	-51.703397
974.365000	-27.791770
974.586000	-26.046477
974.806000	-39.273635
975.026000	-5.076853
975.246000	-7.605193
975.466000	-20.141606
975.686000	-11.726477
975.906000	-23.667042
976.127000	-43.600902
976.347000	-40.095444
976.567000	-6.772470
976.787000	-1.298733
977.007000	-16.365346
977.227000	-23.601078
977.447000	-26.271449
977.668000	-43.056125
977.888000	-24.551814
978.108000	-20.400176
978.328000	-12.692673
978.548000	11.865972
978.768000	8.309921
978.988000	0.789212
979.209000	-13.804611
979.429000	-16.141617
979.649000	-7.503632
979.869000	-24.273955
980.089000	-40.180908
980.309000	-43.296151
980.529000	-53.082971
980.750000	-30.414338
980.970000	-48.386834
981.190000	-41.415020
981.410000	-40.764768
981.630000	-39.498995
981.850000	-27.831616
982.070000	-17.526890
982.291000	-41.125709
982.511000	-45.881802
982.731000	-13.950425
982.951000	-27.657966
983.171000	-21.709218
983.391000	-17.847879
983.611000	12.056778
983.832000	-19.147992
984.052000	-53.348259
984.272000	-27.290723
984.492000	-28.952113
984.712000	-44.829400
984.932000	-62.454115
985.152000	-59.939823
985.373000	-41.069635
985.593000	-15.997548
985.813000	-24.670424
986.033000	-41.503417
986.253000	-0.447860
986.473000	8.801316
986.693000	-19.440134
986.914000	-23.405907
987.134000	10.249020
987.354000	-28.479085
987.574000	195.451111
987.794000	116.322513
988.014000	-52.647193
988.234000	-43.029601
988.455000	-8.758272
988.675000	-8.802118
988.895000	-25.436853
989.115000	-25.749904
989.335000	-14.888207
989.555000	4.559753
989.775000	-28.916318
989.995000	-24.159290
990.216000	-18.360747
990.436000	-26.466306
990.656000	7.684045
990.876000	-27.124866
991.096000	-9.676736
991.316000	22.067396
991.536000	-5.329116
991.757000	-14.959852
991.977000	-59.414350
992.197000	-23.770961
992.417000	-42.260653
992.637000	-76.718069
992.857000	-80.894448
993.077000	-95.115648
993.298000	-54.099706
993.518000	-33.282758
993.738000	-82.016353
993.958000	-38.711301
994.178000	-46.041284
994.398000	-30.877209
994.618000	-98.481650
994.839000	-139.412462
995.059000	-18.787903
995.279000	47.508197
995.499000	-6.470774
995.719000	-7.347750
995.939000	-29.676875
996.159000	-36.459416
996.380000	-23.788142
996.600000	-57.402326
996.820000	-32.949015
997.040000	-5.585975
997.260000	-59.377380
997.480000	-48.793592
997.700000	-90.260289
997.921000	-43.742382
998.141000	44.605053
998.361000	7.920446
998.581000	-38.805276
998.801000	-79.141674
999.021000	-70.756966
999.241000	-43.115464
999.462000	-72.466323
999.682000	-100.660885
999.902000	-71.050105
1000.122000	-101.865477
1000.342000	-149.897418
1000.562000	-58.871269
1000.782000	-60.268257
1001.003000	-1093.714473
