Wavelength	Irradiance
(nm)	(mW/cm2/nm)

294.396000	0.000000
294.577000	0.000000
294.757000	0.000000
294.938000	0.000000
295.118000	0.000000
295.299000	0.000000
295.479000	-0.000000
295.660000	-0.000000
295.840000	-0.000000
296.021000	-0.000000
296.202000	0.000000
296.382000	-0.000000
296.563000	-0.000000
296.743000	-0.000000
296.924000	0.000000
297.104000	-0.000000
297.285000	-0.000000
297.465000	-0.000000
297.646000	-0.000000
297.826000	-0.000000
298.007000	-0.000000
298.187000	0.000000
298.368000	-0.000000
298.548000	0.000000
298.729000	0.000000
298.909000	-0.000000
299.090000	-0.000000
299.270000	-0.000000
299.451000	-0.000000
299.631000	-0.000000
299.812000	-0.000000
299.992000	0.000000
300.173000	0.000000
300.353000	-0.000000
300.534000	0.000000
300.714000	0.000000
300.895000	0.000000
301.075000	-0.000000
301.256000	0.000000
301.436000	0.000000
301.617000	-0.000000
301.797000	-0.000000
301.978000	0.000000
302.159000	0.000000
302.339000	0.000000
302.520000	-0.000000
302.700000	-0.000000
302.881000	0.000000
303.061000	0.000000
303.242000	0.000000
303.422000	0.000000
303.603000	-0.000000
303.783000	-0.000000
303.964000	0.000000
304.144000	-0.000000
304.325000	-0.000000
304.505000	0.000000
304.686000	-0.000000
304.866000	-0.000000
305.047000	0.000000
305.227000	-0.000000
305.408000	-0.000000
305.588000	-0.000000
305.769000	-0.000000
305.949000	-0.000000
306.130000	-0.000000
306.310000	-0.000000
306.491000	-0.000000
306.671000	0.000000
306.852000	-0.000000
307.032000	-0.000000
307.213000	0.000000
307.393000	-0.000000
307.574000	0.000000
307.755000	0.000000
307.935000	0.000000
308.116000	0.000000
308.296000	-0.000000
308.477000	0.000000
308.657000	0.000000
308.838000	0.000000
309.018000	0.000000
309.199000	-0.000000
309.379000	-0.000000
309.560000	0.000000
309.740000	-0.000000
309.921000	-0.000000
310.101000	-0.000000
310.282000	-0.000000
310.462000	-0.000000
310.643000	-0.000000
310.823000	-0.000000
311.004000	0.000000
311.184000	-0.000000
311.365000	0.000000
311.545000	0.000000
311.726000	0.000000
311.906000	0.000000
312.087000	0.000000
312.267000	-0.000000
312.448000	-0.000000
312.628000	-0.000000
312.809000	-0.000000
312.989000	-0.000000
313.170000	-0.000000
313.344000	-0.000000
313.518000	-0.000000
313.691000	-0.000000
313.865000	-0.000000
314.039000	-0.000000
314.213000	-0.000000
314.387000	-0.000000
314.560000	-0.000000
314.734000	-0.000000
314.908000	-0.000000
315.082000	-0.000000
315.255000	0.000000
315.429000	0.000000
315.603000	0.000000
315.777000	-0.000000
315.951000	0.000000
316.124000	-0.000000
316.298000	-0.000000
316.472000	-0.000000
316.646000	-0.000000
316.820000	-0.000000
316.993000	-0.000000
317.167000	-0.000000
317.341000	-0.000000
317.515000	-0.000000
317.688000	-0.000000
317.862000	-0.000000
318.036000	-0.000000
318.210000	-0.000000
318.384000	-0.000000
318.557000	-0.000000
318.731000	-0.000000
318.905000	0.000000
319.079000	0.000000
319.253000	-0.000000
319.426000	0.000000
319.600000	0.000000
319.774000	-0.000000
319.948000	-0.000000
320.122000	0.000000
320.295000	0.000000
320.469000	-0.000000
320.643000	-0.000000
320.817000	-0.000000
320.990000	-0.000000
321.164000	-0.000000
321.338000	-0.000000
321.512000	-0.000000
321.686000	-0.000000
321.859000	-0.000000
322.033000	0.000000
322.207000	0.000000
322.381000	-0.000000
322.555000	0.000000
322.728000	-0.000000
322.902000	-0.000000
323.076000	-0.000000
323.250000	-0.000000
323.423000	-0.000000
323.597000	-0.000000
323.771000	-0.000000
323.945000	-0.000000
324.119000	-0.000000
324.292000	0.000000
324.466000	-0.000000
324.640000	0.000000
324.814000	0.000000
324.988000	-0.000000
325.161000	-0.000000
325.335000	-0.000000
325.509000	-0.000000
325.683000	0.000000
325.856000	-0.000000
326.030000	-0.000000
326.204000	-0.000000
326.378000	-0.000000
326.552000	-0.000000
326.725000	-0.000000
326.899000	-0.000000
327.073000	-0.000000
327.247000	0.000000
327.421000	0.000000
327.594000	0.000000
327.768000	-0.000000
327.942000	0.000000
328.116000	0.000000
328.289000	-0.000000
328.463000	0.000000
328.637000	0.000000
328.811000	-0.000000
328.985000	-0.000000
329.158000	-0.000000
329.332000	-0.000000
329.506000	-0.000000
329.680000	-0.000000
329.854000	-0.000000
330.027000	0.000000
330.201000	0.000000
330.375000	0.000000
330.549000	0.000000
330.723000	0.000000
330.896000	-0.000000
331.070000	-0.000000
331.244000	-0.000000
331.418000	-0.000000
331.591000	0.000000
331.765000	-0.000000
331.939000	0.000000
332.113000	-0.000000
332.287000	-0.000000
332.460000	0.000000
332.634000	0.000000
332.808000	-0.000000
332.982000	-0.000000
333.156000	-0.000000
333.329000	0.000000
333.503000	-0.000000
333.677000	-0.000000
333.851000	-0.000000
334.024000	-0.000000
334.198000	-0.000000
334.372000	-0.000000
334.546000	-0.000000
334.720000	-0.000000
334.893000	-0.000000
335.067000	0.000000
335.241000	0.000000
335.415000	0.000000
335.589000	-0.000000
335.762000	-0.000000
335.936000	-0.000000
336.110000	-0.000000
336.284000	-0.000000
336.458000	0.000000
336.631000	-0.000000
336.805000	-0.000000
336.979000	-0.000000
337.153000	-0.000000
337.326000	-0.000000
337.500000	-0.000000
337.674000	-0.000000
337.848000	0.000000
338.022000	0.000000
338.195000	-0.000000
338.369000	-0.000000
338.543000	-0.000000
338.717000	-0.000000
338.891000	0.000000
339.064000	0.000000
339.238000	-0.000000
339.412000	-0.000000
339.586000	-0.000000
339.759000	-0.000000
339.933000	-0.000000
340.107000	0.000000
340.281000	0.000000
340.455000	-0.000000
340.628000	-0.000000
340.802000	-0.000000
340.976000	-0.000000
341.150000	-0.000000
341.324000	-0.000000
341.497000	-0.000000
341.671000	-0.000000
341.845000	-0.000000
342.019000	-0.000000
342.192000	-0.000000
342.366000	-0.000000
342.540000	-0.000000
342.714000	-0.000000
342.888000	-0.000000
343.061000	0.000000
343.235000	0.000000
343.409000	-0.000000
343.583000	-0.000000
343.757000	-0.000000
343.930000	-0.000000
344.104000	-0.000000
344.278000	0.000000
344.452000	0.000000
344.626000	-0.000000
344.799000	-0.000000
344.973000	-0.000000
345.147000	-0.000000
345.321000	-0.000000
345.494000	-0.000000
345.668000	0.000000
345.842000	0.000000
346.016000	-0.000000
346.190000	-0.000000
346.363000	0.000000
346.537000	0.000000
346.711000	-0.000000
346.885000	-0.000000
347.059000	-0.000000
347.232000	-0.000000
347.406000	0.000000
347.580000	-0.000000
347.754000	-0.000000
347.927000	0.000000
348.101000	0.000000
348.275000	-0.000000
348.449000	-0.000000
348.623000	-0.000000
348.796000	-0.000000
348.970000	0.000000
349.144000	-0.000000
349.318000	-0.000000
349.492000	-0.000000
349.665000	-0.000000
349.839000	-0.000000
350.013000	-0.000000
350.187000	-0.000000
350.361000	-0.000000
350.534000	-0.000000
350.708000	-0.000000
350.882000	-0.000000
351.056000	0.000000
351.229000	-0.000000
351.403000	-0.000000
351.577000	-0.000000
351.751000	-0.000000
351.925000	-0.000000
352.098000	-0.000000
352.272000	-0.000000
352.446000	-0.000000
352.620000	-0.000000
352.794000	-0.000000
352.967000	-0.000000
353.141000	0.000000
353.315000	0.000000
353.489000	-0.000000
353.662000	-0.000000
353.836000	-0.000000
354.010000	-0.000000
354.184000	0.000000
354.358000	-0.000000
354.531000	-0.000000
354.705000	-0.000000
354.879000	0.000000
355.053000	-0.000000
355.227000	0.000000
355.400000	-0.000000
355.574000	0.000000
355.748000	0.000000
355.922000	0.000000
356.095000	-0.000000
356.269000	0.000000
356.443000	-0.000000
356.617000	-0.000000
356.791000	-0.000000
356.964000	-0.000000
357.138000	-0.000000
357.312000	-0.000000
357.486000	-0.000000
357.660000	-0.000000
357.833000	-0.000000
358.007000	-0.000000
358.181000	-0.000000
358.355000	-0.000000
358.529000	-0.000000
358.702000	-0.000000
358.876000	-0.000000
359.050000	-0.000000
359.224000	-0.000000
359.397000	-0.000000
359.571000	-0.000000
359.745000	-0.000000
359.919000	0.000000
360.093000	0.023959
360.266000	0.049353
360.440000	0.080107
360.614000	0.140455
360.788000	0.077741
360.962000	-0.169341
361.135000	-0.083047
361.309000	-0.291045
361.483000	-0.398897
361.657000	-0.266837
361.830000	-0.234200
362.004000	-0.107182
362.178000	-0.367703
362.352000	-0.252419
362.526000	0.032524
362.699000	0.096109
362.873000	-0.220673
363.047000	-0.325472
363.221000	-0.328600
363.395000	-0.217245
363.568000	-0.211220
363.742000	-0.327904
363.916000	-0.232088
364.090000	-0.263774
364.263000	-0.325025
364.437000	-0.384862
364.611000	-0.033041
364.785000	-0.064131
364.959000	-0.256564
365.132000	-0.343132
365.306000	-0.298880
365.480000	-0.108301
365.656000	-0.235731
365.831000	-0.096632
366.007000	-0.217149
366.183000	-0.306587
366.358000	-0.335099
366.534000	-0.212710
366.710000	-0.389773
366.886000	-0.269605
367.061000	-0.010920
367.237000	0.012389
367.413000	-0.196995
367.588000	-0.431159
367.764000	-0.301866
367.940000	-0.300237
368.115000	-0.199567
368.291000	-0.325759
368.467000	-0.338004
368.643000	0.091160
368.818000	-0.027004
368.994000	-0.075963
369.170000	0.036850
369.345000	-0.105311
369.521000	-0.174166
369.697000	0.004901
369.872000	-0.212941
370.048000	-0.384061
370.224000	-0.284909
370.399000	-0.437599
370.575000	-0.242185
370.751000	-0.576926
370.927000	-0.478502
371.102000	-0.381454
371.278000	-0.289570
371.454000	-0.148081
371.629000	0.061753
371.805000	0.102281
371.981000	0.136351
372.156000	0.159866
372.332000	0.076646
372.508000	0.151100
372.683000	0.093674
372.859000	-0.174043
373.035000	-0.332095
373.211000	0.186411
373.386000	0.202429
373.562000	-0.339414
373.738000	-0.333990
373.913000	-0.484505
374.089000	-0.404037
374.265000	0.029564
374.440000	-0.053024
374.616000	0.013227
374.792000	-0.115814
374.968000	0.254515
375.143000	-0.035675
375.319000	-0.405869
375.495000	-0.327417
375.670000	-0.043627
375.846000	0.029333
376.022000	-0.176191
376.197000	-0.240064
376.373000	-0.549226
376.549000	-0.307279
376.724000	-0.459576
376.900000	-0.314696
377.076000	-0.187530
377.252000	0.169694
377.427000	0.313071
377.603000	-0.155259
377.779000	-0.051238
377.954000	-0.263335
378.130000	-0.270576
378.306000	-0.130247
378.481000	-0.050620
378.657000	-0.176266
378.833000	-0.340941
379.009000	-0.234208
379.184000	0.028549
379.360000	-0.042448
379.536000	0.028533
379.711000	-0.043511
379.887000	-0.177838
380.063000	-0.183805
380.238000	-0.256290
380.414000	0.004719
380.590000	-0.336713
380.765000	-0.327754
380.941000	-0.136213
381.117000	-0.119788
381.293000	-0.329034
381.468000	-0.394433
381.644000	-0.299069
381.820000	-0.057683
381.995000	0.099180
382.171000	0.273638
382.347000	0.170620
382.522000	-0.199510
382.698000	0.098471
382.874000	0.168555
383.050000	-0.301641
383.225000	-0.112934
383.401000	0.264377
383.577000	0.012679
383.752000	-0.205165
383.928000	-0.173688
384.104000	-0.154196
384.279000	-0.281592
384.455000	-0.103580
384.631000	-0.126955
384.806000	-0.349906
384.982000	-0.212356
385.158000	-0.253275
385.334000	-0.003079
385.509000	-0.018551
385.685000	-0.442815
385.861000	-0.246557
386.036000	-0.235415
386.212000	-0.379862
386.388000	-0.279503
386.563000	-0.271308
386.739000	-0.359374
386.915000	-0.641169
387.090000	-0.330500
387.266000	-0.119623
387.442000	0.020177
387.618000	-0.080070
387.793000	-0.305951
387.969000	-0.437736
388.145000	-0.297179
388.320000	-0.421882
388.496000	-0.338812
388.672000	-0.608335
388.847000	-0.125657
389.023000	-0.103332
389.199000	-0.452692
389.375000	-0.140596
389.550000	-0.336690
389.726000	-0.155087
389.902000	-0.380907
390.077000	-0.311195
390.253000	-0.018352
390.429000	-0.172290
390.604000	-0.163460
390.780000	-0.079043
390.956000	-0.266972
391.131000	-0.319152
391.307000	0.117506
391.483000	-0.153604
391.659000	-0.433615
391.834000	-0.176011
392.010000	-0.250889
392.186000	-0.431619
392.361000	-0.409944
392.537000	-0.450780
392.713000	-0.032597
392.888000	0.256714
393.064000	-0.062547
393.240000	-0.262925
393.416000	-0.298216
393.591000	-0.456502
393.767000	-0.457952
393.943000	-0.304906
394.118000	-0.002930
394.294000	0.136136
394.470000	0.070083
394.645000	0.113523
394.821000	0.260569
394.997000	0.077102
395.172000	-0.162072
395.348000	-0.271135
395.524000	-0.472495
395.700000	-0.404341
395.875000	-0.225523
396.051000	-0.268266
396.227000	-0.190776
396.402000	-0.191789
396.578000	-0.046376
396.754000	-0.269537
396.929000	-0.210935
397.105000	0.126085
397.281000	-0.038673
397.457000	-0.295630
397.632000	-0.356105
397.808000	-0.571690
397.984000	-0.623275
398.159000	-0.395768
398.335000	-0.273718
398.511000	0.125223
398.686000	-0.045488
398.862000	-0.327559
399.038000	-0.481623
399.213000	-0.114933
399.389000	-0.489917
399.565000	-0.214000
399.741000	0.116725
399.916000	0.082355
400.092000	0.414000
400.268000	-0.051850
400.443000	-0.321898
400.619000	0.039631
400.795000	0.025571
400.970000	-0.199057
401.146000	-0.319457
401.322000	-0.017002
401.497000	0.436056
401.673000	0.167921
401.849000	-0.258140
402.025000	-0.038133
402.200000	-0.263390
402.376000	-0.509654
402.552000	0.025447
402.727000	-0.108346
402.903000	-0.424047
403.079000	-0.248698
403.254000	0.081564
403.430000	0.046097
403.606000	-0.128727
403.782000	-0.198438
403.957000	-0.304108
404.133000	-0.410272
404.309000	-0.304801
404.484000	-0.107769
404.660000	-0.171227
404.841000	-0.276659
405.023000	-0.044694
405.204000	-0.170900
405.385000	-0.509417
405.566000	-0.500122
405.748000	-0.208080
405.929000	-0.081087
406.110000	-0.059058
406.292000	-0.044547
406.473000	-0.044657
406.654000	-0.347437
406.835000	-0.128967
407.017000	-0.163394
407.198000	-0.341094
407.379000	-0.243754
407.560000	-0.168537
407.742000	-0.121118
407.923000	-0.016799
408.104000	-0.365029
408.286000	-0.086206
408.467000	0.024966
408.648000	-0.287992
408.829000	-0.508798
409.011000	-0.315099
409.192000	-0.448711
409.373000	-0.086281
409.555000	-0.030621
409.736000	-0.120282
409.917000	-0.210928
410.098000	-0.188855
410.280000	-0.009580
410.461000	-0.064206
410.642000	-0.057482
410.823000	0.175118
411.005000	0.100000
411.186000	-0.078134
411.367000	-0.037043
411.549000	-0.139838
411.730000	-0.057564
411.911000	0.038311
412.092000	-0.173252
412.274000	-0.266720
412.455000	-0.240138
412.636000	-0.070613
412.818000	-0.307030
412.999000	-0.412425
413.180000	-0.239219
413.361000	-0.301154
413.543000	-0.367011
413.724000	-0.406446
413.905000	-0.359353
414.087000	-0.373592
414.268000	-0.362827
414.449000	-0.390234
414.630000	-0.398459
414.812000	-0.518151
414.993000	-0.188490
415.174000	0.010624
415.355000	-0.189744
415.537000	-0.435013
415.718000	-0.049272
415.899000	-0.161981
416.081000	-0.359653
416.262000	-0.180777
416.443000	-0.358014
416.624000	-0.403148
416.806000	-0.219724
416.987000	-0.062135
417.168000	-0.140609
417.350000	-0.363921
417.531000	-0.413969
417.712000	-0.289886
417.893000	-0.133142
418.075000	-0.061120
418.256000	-0.204758
418.437000	-0.179394
418.618000	-0.028704
418.800000	0.088582
418.981000	-0.112770
419.162000	-0.066969
419.344000	0.036297
419.525000	-0.009123
419.706000	-0.230944
419.887000	-0.080733
420.069000	0.114469
420.250000	-0.100134
420.431000	-0.171241
420.613000	-0.152500
420.794000	-0.309496
420.975000	0.029725
421.156000	-0.261567
421.338000	-0.332515
421.519000	-0.248365
421.700000	-0.275050
421.882000	-0.268515
422.063000	-0.131987
422.244000	0.351475
422.425000	0.197732
422.607000	-0.224614
422.788000	-0.282065
422.969000	-0.286568
423.150000	-0.248130
423.332000	-0.434265
423.513000	-0.228813
423.694000	-0.158541
423.876000	-0.229318
424.057000	-0.125691
424.238000	0.010405
424.419000	0.016958
424.601000	-0.204771
424.782000	-0.126387
424.963000	0.062023
425.145000	-0.119202
425.326000	-0.041283
425.507000	-0.015458
425.688000	-0.164434
425.870000	-0.353577
426.051000	-0.460895
426.232000	-0.376948
426.413000	-0.379165
426.595000	-0.228633
426.776000	-0.318906
426.957000	-0.391599
427.139000	-0.273735
427.320000	-0.268460
427.501000	-0.100251
427.682000	-0.073849
427.864000	0.036256
428.045000	0.211680
428.226000	0.043009
428.408000	-0.367179
428.589000	-0.060936
428.770000	-0.125477
428.951000	-0.383541
429.133000	-0.491837
429.314000	-0.195430
429.495000	-0.130709
429.677000	-0.169751
429.858000	-0.163498
430.039000	-0.195913
430.220000	-0.137936
430.402000	0.003855
430.583000	-0.324601
430.764000	-0.355383
430.945000	-0.143973
431.127000	0.048499
431.308000	-0.059711
431.489000	0.169905
431.671000	0.087225
431.852000	-0.085367
432.033000	-0.161833
432.214000	-0.148798
432.396000	-0.110353
432.577000	-0.333060
432.758000	-0.480521
432.940000	-0.187165
433.121000	-0.040700
433.302000	-0.148317
433.483000	-0.040485
433.665000	0.086077
433.846000	0.041764
434.027000	-0.128282
434.208000	-0.222315
434.390000	-0.323987
434.571000	0.003784
434.752000	0.535802
434.934000	0.265189
435.115000	0.003744
435.296000	0.078607
435.477000	-0.114454
435.659000	-0.384066
435.840000	-0.206202
436.026000	-0.119416
436.211000	-0.316043
436.397000	-0.596615
436.582000	-0.406745
436.768000	-0.143223
436.953000	-0.308062
437.139000	-0.289094
437.325000	0.052221
437.510000	0.034000
437.696000	0.185292
437.881000	0.239411
438.067000	-0.152682
438.252000	-0.122718
438.438000	-0.182745
438.624000	-0.194776
438.809000	-0.080227
438.995000	-0.110034
439.180000	-0.169311
439.366000	-0.234644
439.551000	-0.198646
439.737000	-0.216049
439.923000	-0.103411
440.108000	-0.020180
440.294000	-0.079291
440.479000	-0.037736
440.665000	0.091383
440.850000	0.061749
441.036000	-0.019851
441.222000	-0.125476
441.407000	-0.171795
441.593000	-0.124510
441.778000	-0.048760
441.964000	0.050135
442.149000	-0.217197
442.335000	-0.204549
442.521000	-0.169692
442.706000	0.014946
442.892000	0.020650
443.077000	-0.082876
443.263000	-0.025218
443.448000	-0.036516
443.634000	-0.150733
443.820000	0.122542
444.005000	0.009071
444.191000	-0.229526
444.376000	-0.149282
444.562000	0.155113
444.747000	0.122026
444.933000	0.048446
445.119000	-0.024727
445.304000	-0.131258
445.490000	0.014590
445.675000	0.003365
445.861000	-0.187837
446.046000	-0.193039
446.232000	-0.013449
446.418000	0.008956
446.603000	-0.075000
446.789000	-0.153192
446.974000	-0.176087
447.160000	-0.320733
447.345000	-0.230116
447.531000	-0.291003
447.717000	-0.091635
447.902000	0.053864
448.088000	0.131639
448.273000	-0.118754
448.459000	-0.057550
448.644000	-0.035434
448.830000	-0.307876
449.016000	-0.340935
449.201000	-0.246191
449.387000	-0.135598
449.572000	0.080894
449.758000	-0.057585
449.943000	-0.212926
450.129000	-0.278351
450.315000	-0.294365
450.500000	-0.327725
450.686000	-0.156977
450.871000	-0.295445
451.057000	-0.167905
451.243000	-0.095993
451.428000	-0.029831
451.614000	-0.090383
451.799000	-0.233534
451.985000	0.047347
452.170000	0.146306
452.356000	-0.150598
452.542000	-0.112258
452.727000	0.069118
452.913000	-0.018682
453.098000	0.157130
453.284000	0.283385
453.469000	0.025293
453.655000	0.102094
453.841000	0.080012
454.026000	-0.122221
454.212000	-0.138193
454.397000	-0.018523
454.583000	-0.161568
454.768000	-0.324654
454.954000	-0.127124
455.140000	-0.013016
455.325000	-0.159084
455.511000	-0.371911
455.696000	-0.366509
455.882000	-0.045575
456.067000	0.138963
456.253000	-0.034743
456.439000	-0.230138
456.624000	-0.283480
456.810000	-0.223355
456.995000	-0.304691
457.181000	-0.282335
457.366000	0.024659
457.552000	0.013880
457.738000	0.141850
457.923000	-0.034189
458.109000	0.126456
458.294000	0.094211
458.480000	0.115766
458.665000	0.029924
458.851000	-0.162159
459.037000	-0.473703
459.222000	-0.224681
459.408000	-0.214088
459.593000	-0.160318
459.779000	0.045208
459.964000	0.245395
460.150000	0.293309
460.336000	0.187611
460.521000	0.065943
460.707000	-0.080409
460.892000	-0.273068
461.078000	-0.127452
461.263000	0.018720
461.449000	-0.064711
461.635000	-0.075068
461.820000	-0.106133
462.006000	0.106717
462.191000	0.126971
462.377000	-0.151299
462.562000	0.183791
462.748000	0.348111
462.934000	-0.105175
463.119000	-0.299702
463.305000	-0.037814
463.490000	-0.113909
463.676000	-0.032628
463.861000	-0.032771
464.047000	-0.032667
464.233000	0.079104
464.418000	0.058757
464.604000	-0.092997
464.789000	0.053614
464.975000	0.098820
465.160000	-0.012121
465.346000	0.063598
465.532000	-0.037405
465.717000	-0.198836
465.903000	-0.002015
466.088000	0.053343
466.274000	-0.067089
466.459000	-0.157392
466.645000	0.238924
466.831000	0.272340
467.016000	0.286832
467.202000	0.168069
467.387000	0.032921
467.573000	-0.220572
467.758000	0.037596
467.944000	-0.021756
468.130000	-0.175944
468.315000	-0.016908
468.501000	0.042614
468.686000	0.022738
468.872000	0.077138
469.057000	0.032627
469.243000	-0.016831
469.429000	-0.031659
469.614000	-0.164824
469.800000	-0.219114
469.985000	-0.011807
470.171000	0.047052
470.356000	-0.075760
470.542000	-0.011852
470.728000	0.116143
470.913000	0.091081
471.099000	0.203569
471.284000	0.071953
471.470000	-0.011845
471.655000	0.072069
471.841000	0.071840
472.027000	-0.090054
472.212000	0.066619
472.398000	0.199529
472.583000	0.052149
472.769000	0.081820
472.954000	0.002953
473.140000	-0.193068
473.326000	-0.144251
473.511000	0.140041
473.697000	0.213741
473.882000	0.086636
474.068000	-0.036496
474.253000	-0.031429
474.439000	0.130834
474.625000	0.160052
474.810000	0.091383
474.996000	0.052079
475.181000	-0.139016
475.367000	0.091140
475.552000	0.407044
475.738000	0.066642
475.924000	0.101170
476.109000	0.263134
476.295000	0.071713
476.480000	0.066870
476.666000	0.125681
476.851000	0.150148
477.037000	0.136136
477.223000	0.042253
477.408000	-0.051110
477.594000	-0.144348
477.779000	-0.006888
477.965000	0.091542
478.151000	0.022635
478.336000	0.219661
478.522000	0.061908
478.707000	-0.001965
478.893000	0.160491
479.078000	0.007896
479.264000	0.057263
479.450000	0.156055
479.635000	0.289001
479.821000	0.185759
480.006000	0.200428
480.192000	0.195306
480.377000	0.294586
480.563000	0.348613
480.749000	0.116609
480.934000	0.101677
481.120000	0.224246
481.305000	0.282867
481.491000	0.382637
481.676000	0.408209
481.862000	0.458686
482.048000	0.219730
482.233000	0.229311
482.419000	0.259422
482.604000	0.180695
482.790000	0.210322
482.975000	0.259934
483.161000	0.441452
483.347000	0.489935
483.532000	0.416233
483.718000	0.136241
483.903000	0.240240
484.089000	0.279111
484.274000	0.160507
484.460000	0.313764
484.646000	0.294055
484.831000	0.180708
485.017000	0.322875
485.202000	0.494201
485.388000	0.754067
485.573000	0.698686
485.759000	0.479414
485.945000	0.671122
486.130000	0.542971
486.316000	0.464601
486.501000	0.580930
486.687000	0.511632
486.872000	0.360327
487.058000	0.581022
487.244000	0.591186
487.429000	0.437949
487.615000	0.706908
487.800000	0.824100
487.986000	0.689492
488.171000	0.822862
488.357000	0.674158
488.543000	0.744398
488.728000	0.885230
488.914000	0.856698
489.099000	0.686497
489.285000	0.627870
489.470000	0.858265
489.656000	0.974973
489.842000	1.086856
490.027000	1.155610
490.213000	0.965096
490.398000	0.707055
490.584000	1.041024
490.769000	0.978541
490.955000	1.053620
491.141000	1.089594
491.326000	1.076240
491.512000	1.376147
491.697000	1.254367
491.883000	1.083500
492.068000	1.112200
492.254000	1.180957
492.440000	1.308957
492.625000	1.200509
492.811000	1.198082
492.996000	1.286431
493.182000	1.315381
493.367000	1.200756
493.553000	1.134781
493.739000	1.222928
493.924000	1.437378
494.110000	1.470582
494.295000	1.324960
494.481000	1.510318
494.666000	1.520818
494.852000	1.749017
495.038000	1.646790
495.223000	1.498721
495.409000	1.504588
495.594000	1.525881
495.780000	1.728206
495.965000	1.692406
496.151000	1.971626
496.337000	2.105601
496.522000	1.864194
496.708000	2.062929
496.893000	2.147085
497.079000	2.029586
497.264000	2.114271
497.450000	2.185035
497.636000	2.210357
497.821000	2.148750
498.007000	2.446740
498.192000	2.465183
498.378000	2.325595
498.563000	2.424320
498.749000	2.538886
498.935000	2.567696
499.120000	2.621941
499.306000	2.383437
499.491000	2.479209
499.677000	2.636368
499.862000	2.776913
500.048000	3.038678
500.234000	2.956461
500.419000	2.882510
500.605000	3.118646
500.790000	3.129185
500.976000	2.994003
501.161000	2.941801
501.347000	3.175295
501.533000	3.420443
501.718000	3.390391
501.904000	3.295257
502.089000	3.534692
502.275000	3.591003
502.460000	3.365862
502.646000	3.551865
502.832000	3.843458
503.017000	3.940174
503.203000	3.711280
503.388000	3.823581
503.574000	4.052619
503.759000	4.121818
503.945000	4.105380
504.131000	4.128832
504.316000	4.135702
504.502000	4.348456
504.687000	4.416532
504.873000	4.240095
505.058000	4.296053
505.244000	4.342080
505.430000	4.336118
505.615000	4.606007
505.801000	4.775144
505.986000	4.582659
506.172000	4.764414
506.358000	4.931050
506.543000	4.984995
506.729000	5.323165
506.914000	5.249704
507.100000	5.424314
507.285000	5.171916
507.471000	5.175656
507.657000	5.545493
507.842000	5.471454
508.028000	5.370731
508.213000	5.526881
508.399000	5.628924
508.584000	5.839734
508.770000	5.810377
508.956000	5.724348
509.141000	5.885982
509.327000	5.955406
509.512000	5.936598
509.698000	6.012275
509.883000	6.081570
510.069000	6.164996
510.255000	6.215635
510.440000	6.280864
510.626000	6.359103
510.811000	6.387466
510.997000	6.388833
511.182000	6.774476
511.368000	6.700226
511.554000	6.334270
511.739000	6.387776
511.925000	6.569527
512.110000	6.529752
512.296000	6.815523
512.481000	6.864899
512.667000	6.689522
512.853000	6.512650
513.038000	6.651879
513.224000	6.682415
513.409000	6.691362
513.595000	6.784190
513.780000	6.698733
513.966000	6.774004
514.152000	6.736340
514.337000	6.613871
514.523000	6.730040
514.708000	6.920095
514.894000	6.886017
515.079000	6.700247
515.265000	6.761931
515.451000	6.919408
515.636000	6.803237
515.822000	6.889094
516.007000	6.749916
516.193000	6.917227
516.378000	6.904874
516.564000	6.836831
516.750000	6.921389
516.935000	6.953914
517.121000	6.889713
517.306000	6.837911
517.492000	6.848196
517.677000	6.520847
517.863000	6.449411
518.049000	6.722724
518.234000	6.504650
518.420000	6.585448
518.605000	6.738235
518.791000	6.657387
518.976000	6.460133
519.162000	6.331805
519.348000	6.294301
519.533000	6.338483
519.719000	6.572949
519.904000	6.444365
520.090000	6.310106
520.275000	6.382242
520.461000	6.424052
520.647000	6.170124
520.832000	5.948050
521.018000	5.961775
521.203000	5.811463
521.389000	5.516787
521.574000	5.624212
521.760000	5.835444
521.946000	5.770434
522.131000	5.604928
522.317000	5.547644
522.502000	5.486926
522.688000	5.484488
522.873000	5.353359
523.059000	5.439966
523.245000	5.400810
523.430000	5.115256
523.616000	5.186906
523.801000	5.086442
523.987000	4.968501
524.172000	5.222085
524.358000	5.243872
524.544000	5.083985
524.729000	5.172725
524.915000	5.077764
525.100000	4.797737
525.286000	4.902531
525.471000	4.960463
525.657000	4.921449
525.843000	4.529561
526.028000	4.586798
526.214000	4.545788
526.399000	4.396388
526.585000	4.264266
526.770000	4.248986
526.956000	4.378114
527.142000	4.327953
527.327000	4.283517
527.513000	4.130450
527.698000	4.149935
527.884000	4.105378
528.069000	3.923428
528.255000	4.072683
528.441000	3.948197
528.626000	3.970302
528.812000	4.171552
528.997000	3.960145
529.183000	3.708730
529.368000	3.776125
529.554000	3.766001
529.740000	3.837153
529.925000	3.762287
530.111000	3.761397
530.296000	3.761897
530.482000	3.695068
530.667000	3.600167
530.853000	3.713481
531.039000	3.481856
531.224000	3.439024
531.410000	3.648162
531.595000	3.559200
531.781000	3.534083
531.967000	3.331900
532.152000	3.331951
532.338000	3.307454
532.523000	2.986311
532.709000	2.746961
532.894000	2.933470
533.080000	3.109794
533.266000	2.907316
533.451000	2.912853
533.637000	2.954050
533.822000	3.066688
534.008000	2.788163
534.193000	2.803829
534.379000	2.995582
534.565000	2.852076
534.750000	2.701093
534.936000	2.889734
535.121000	2.685842
535.307000	2.782783
535.492000	2.803578
535.678000	2.596064
535.864000	2.575926
536.049000	2.928042
536.235000	2.715434
536.420000	2.594416
536.606000	2.573966
536.791000	2.314388
536.977000	2.224583
537.163000	2.526772
537.348000	2.541559
537.534000	2.592883
537.719000	2.272719
537.905000	2.085974
538.090000	2.238618
538.276000	2.397215
538.462000	2.370125
538.647000	2.408917
538.833000	2.152062
539.018000	2.285978
539.204000	2.098701
539.389000	1.940750
539.575000	2.245683
539.761000	2.173214
539.946000	1.745091
540.132000	1.938767
540.317000	1.835518
540.503000	1.906121
540.688000	1.869348
540.874000	1.942312
541.060000	2.039485
541.245000	1.852503
541.431000	1.631407
541.616000	1.784254
541.802000	1.717717
541.987000	1.809503
542.173000	1.828873
542.359000	1.631462
542.544000	1.753637
542.730000	1.485524
542.915000	1.464042
543.101000	1.565227
543.286000	1.436518
543.472000	1.255789
543.658000	1.357944
543.843000	1.418380
544.029000	1.569301
544.214000	1.437506
544.400000	1.107409
544.585000	1.077877
544.771000	1.177617
544.957000	1.385854
545.142000	1.567125
545.328000	1.584147
545.513000	1.574177
545.699000	1.639378
545.884000	1.556068
546.070000	1.316376
546.261000	1.249442
546.451000	1.115950
546.642000	0.960615
546.833000	1.159190
547.023000	1.060490
547.214000	0.972534
547.405000	1.156812
547.595000	1.494714
547.786000	1.454119
547.977000	1.185854
548.167000	0.854587
548.358000	0.985176
548.549000	1.377354
548.740000	1.082589
548.930000	0.794801
549.121000	0.877735
549.312000	0.638219
549.502000	0.518030
549.693000	0.787906
549.884000	0.903053
550.074000	0.960499
550.265000	0.724806
550.456000	0.869700
550.646000	0.919585
550.837000	0.899402
551.028000	0.914295
551.218000	1.050891
551.409000	0.828719
551.600000	0.746895
551.790000	0.936266
551.981000	0.618624
552.172000	0.612860
552.362000	0.999787
552.553000	1.136904
552.744000	0.858362
552.934000	0.678386
553.125000	0.749227
553.316000	0.840281
553.506000	1.065436
553.697000	0.887196
553.888000	0.780704
554.079000	0.914337
554.269000	0.985335
554.460000	0.594380
554.651000	0.524662
554.841000	0.433719
555.032000	0.519003
555.223000	0.547977
555.413000	0.580703
555.604000	0.533746
555.795000	0.464361
555.985000	0.585899
556.176000	0.457387
556.367000	0.259083
556.557000	0.345175
556.748000	0.473939
556.939000	0.416367
557.129000	0.295329
557.320000	0.480208
557.511000	0.472221
557.701000	0.535188
557.892000	0.551551
558.083000	0.650349
558.273000	0.629167
558.464000	0.416156
558.655000	0.401606
558.845000	0.485321
559.036000	0.506905
559.227000	0.372666
559.418000	0.529507
559.608000	0.628629
559.799000	0.379826
559.990000	0.370758
560.180000	0.350070
560.371000	0.103202
560.562000	0.237143
560.752000	0.512866
560.943000	0.265739
561.134000	0.159297
561.324000	0.440706
561.515000	0.580427
561.706000	0.370031
561.896000	0.207778
562.087000	0.291684
562.278000	0.235499
562.468000	0.165574
562.659000	0.158125
562.850000	0.410269
563.040000	0.445274
563.231000	0.060257
563.422000	0.332420
563.612000	0.339778
563.803000	0.206567
563.994000	0.052783
564.185000	0.052694
564.375000	0.281825
564.566000	0.184420
564.757000	0.212743
564.947000	0.066663
565.138000	0.350182
565.329000	0.301130
565.519000	0.031754
565.710000	0.128527
565.901000	0.425954
566.091000	0.563835
566.282000	0.252315
566.473000	0.265280
566.663000	0.278701
566.854000	0.017777
567.045000	0.304153
567.235000	0.215459
567.426000	0.208564
567.617000	0.255352
567.807000	0.201109
567.998000	0.200699
568.189000	0.085412
568.379000	0.227187
568.570000	0.314648
568.761000	0.105111
568.951000	0.125126
569.142000	0.098349
569.333000	0.084875
569.524000	-0.049660
569.714000	-0.076497
569.905000	-0.263931
570.096000	0.084388
570.286000	0.251487
570.477000	0.370870
570.668000	0.303881
570.858000	0.250556
571.049000	-0.035858
571.240000	-0.022588
571.430000	0.083601
571.621000	0.010578
571.812000	0.161979
572.002000	0.168863
572.193000	-0.009220
572.384000	0.181680
572.574000	0.102771
572.765000	0.168343
572.956000	0.141595
573.146000	0.286243
573.337000	0.121870
573.528000	0.082413
573.718000	0.206146
573.909000	0.375225
574.100000	0.211609
574.290000	-0.028470
574.481000	0.055521
574.672000	0.003878
574.863000	0.126175
575.053000	0.080959
575.244000	0.189738
575.435000	-0.002562
575.625000	0.086709
575.816000	0.048395
576.007000	0.105705
576.197000	0.086738
576.388000	0.010165
576.579000	0.219742
576.769000	0.238517
576.960000	-0.097616
577.155000	-0.223771
577.350000	0.111117
577.545000	0.224341
577.740000	0.091732
577.935000	0.442665
578.130000	0.367709
578.326000	-0.002502
578.521000	0.197590
578.716000	0.178008
578.911000	0.016165
579.106000	0.177144
579.301000	0.201303
579.496000	-0.027084
579.691000	-0.193118
579.886000	0.040486
580.081000	0.254791
580.276000	0.235838
580.471000	0.028100
580.666000	-0.118304
580.861000	-0.075590
581.057000	-0.100039
581.252000	0.015864
581.447000	-0.118102
581.642000	-0.069517
581.837000	-0.081602
582.032000	-0.160312
582.227000	0.226996
582.422000	0.226573
582.617000	-0.026394
582.812000	-0.014359
583.007000	-0.068170
583.202000	-0.288893
583.397000	0.110633
583.592000	0.330129
583.788000	-0.055635
583.983000	-0.043756
584.178000	0.098001
584.373000	-0.043556
584.568000	-0.037591
584.763000	-0.125817
584.958000	-0.249265
585.153000	-0.231645
585.348000	-0.125749
585.543000	0.132936
585.738000	0.138755
585.933000	0.032933
586.128000	0.168136
586.324000	0.127316
586.519000	0.015314
586.714000	0.091956
586.909000	0.210222
587.104000	0.258321
587.299000	0.050807
587.494000	-0.037759
587.689000	0.003547
587.884000	0.080637
588.079000	-0.020161
588.274000	0.116435
588.469000	0.039129
588.664000	0.134164
588.859000	0.199753
589.055000	0.188079
589.250000	0.217943
589.445000	0.015501
589.640000	-0.038187
589.835000	0.356467
590.030000	0.553677
590.225000	0.446133
590.420000	0.171274
590.615000	0.141458
590.810000	0.171236
591.005000	0.195984
591.200000	0.093823
591.395000	0.087795
591.591000	0.237720
591.786000	0.477440
591.981000	0.382601
592.176000	0.383380
592.371000	0.395589
592.566000	0.431458
592.761000	0.720600
592.956000	0.733890
593.151000	0.679913
593.346000	0.603080
593.541000	0.765775
593.736000	0.810604
593.931000	0.725975
594.126000	0.733130
594.322000	0.739181
594.517000	0.720796
594.712000	0.617749
594.907000	0.729810
595.102000	0.956843
595.297000	1.139405
595.492000	1.233621
595.687000	1.144121
595.882000	1.034277
596.077000	1.288286
596.272000	1.521542
596.467000	1.608097
596.662000	1.449686
596.857000	1.566672
597.053000	1.773518
597.248000	1.809861
597.443000	1.812264
597.638000	1.884928
597.833000	1.781078
598.028000	1.996054
598.223000	2.142986
598.418000	2.128123
598.613000	2.271111
598.808000	2.491043
599.003000	2.443806
599.198000	2.334420
599.393000	2.508620
599.589000	2.828630
599.784000	2.598681
599.979000	2.709230
600.174000	3.157089
600.369000	2.990613
600.564000	3.120412
600.759000	3.521190
600.954000	3.722934
601.149000	3.557593
601.344000	3.365332
601.539000	3.691900
601.734000	3.674439
601.929000	3.474678
602.124000	3.674094
602.320000	4.144018
602.515000	4.589246
602.710000	4.605088
602.905000	4.267191
603.100000	4.228558
603.295000	4.573661
603.490000	4.861225
603.685000	4.938659
603.880000	5.040552
604.075000	5.078940
604.270000	5.108967
604.465000	5.336087
604.660000	5.481677
604.856000	5.618806
605.051000	5.957512
605.246000	6.132495
605.441000	6.104843
605.636000	6.080866
605.831000	6.407722
606.026000	6.334221
606.221000	6.497659
606.416000	6.835263
606.611000	7.307481
606.806000	7.442876
607.001000	7.530033
607.196000	7.569384
607.391000	7.560509
607.587000	7.926515
607.782000	8.099559
607.977000	8.164761
608.172000	8.840998
608.367000	9.075119
608.562000	8.949806
608.757000	9.031667
608.952000	9.327113
609.147000	10.007198
609.342000	9.976946
609.537000	9.883960
609.732000	10.352092
609.927000	10.357771
610.122000	10.624619
610.318000	11.087821
610.513000	11.277420
610.708000	11.408009
610.903000	11.519481
611.098000	11.741917
611.293000	12.147490
611.488000	12.564754
611.683000	12.818080
611.878000	12.954233
612.073000	13.407549
612.268000	13.620746
612.463000	14.049324
612.658000	14.507333
612.854000	14.737246
613.049000	14.843637
613.244000	15.191591
613.439000	15.576959
613.634000	15.669154
613.829000	16.348003
614.024000	16.513906
614.219000	16.933061
614.414000	17.506673
614.609000	17.666822
614.804000	17.953196
614.999000	18.037331
615.194000	18.534384
615.389000	19.181772
615.585000	19.493256
615.780000	19.974946
615.975000	20.372987
616.170000	20.786695
616.365000	21.430706
616.560000	22.169608
616.755000	22.583632
616.950000	22.790629
617.145000	23.274400
617.340000	23.637266
617.535000	23.718599
617.730000	24.480881
617.925000	24.752956
618.120000	25.293877
618.316000	26.150514
618.511000	26.469597
618.706000	26.968978
618.901000	27.601513
619.096000	28.327958
619.291000	28.503193
619.486000	29.320018
619.681000	29.523032
619.876000	29.987917
620.071000	30.700080
620.266000	31.524693
620.461000	32.214282
620.656000	32.880698
620.852000	33.430962
621.047000	33.645236
621.242000	34.150755
621.437000	35.037594
621.632000	35.905770
621.827000	36.542312
622.022000	36.661722
622.217000	37.479831
622.412000	38.106154
622.607000	38.785981
622.802000	39.223116
622.997000	39.891769
623.192000	40.767742
623.387000	41.322589
623.583000	41.930268
623.778000	42.844468
623.973000	43.471804
624.168000	44.261057
624.363000	45.013690
624.558000	45.891358
624.753000	46.598237
624.948000	47.512090
625.143000	48.143405
625.338000	48.743127
625.533000	49.507538
625.728000	50.217437
625.923000	51.058238
626.119000	51.589029
626.314000	52.457038
626.509000	53.264748
626.704000	54.009888
626.899000	54.938525
627.094000	55.912781
627.289000	56.582666
627.484000	57.485934
627.679000	57.867694
627.874000	59.015486
628.069000	60.168961
628.264000	60.673418
628.459000	61.538226
628.654000	62.036754
628.850000	63.053796
629.045000	63.872603
629.240000	64.455723
629.435000	65.542467
629.630000	66.112806
629.825000	66.676486
630.020000	67.238171
630.215000	67.425501
630.410000	68.329896
630.605000	68.963583
630.800000	69.178143
630.995000	69.844662
631.190000	70.582487
631.385000	70.331030
631.581000	70.239644
631.776000	70.345029
631.971000	70.557336
632.166000	70.786199
632.361000	70.024881
632.556000	70.274875
632.751000	70.532664
632.946000	69.311409
633.141000	69.131849
633.336000	68.266333
633.531000	67.615330
633.726000	67.086424
633.921000	65.774213
634.117000	64.677021
634.312000	63.536498
634.507000	62.738738
634.702000	61.704120
634.897000	60.798640
635.092000	59.573922
635.287000	58.041324
635.482000	56.700250
635.677000	55.787899
635.872000	54.315804
636.067000	52.912526
636.262000	51.072650
636.457000	49.493977
636.652000	48.437547
636.848000	46.568927
637.043000	45.363753
637.238000	43.708376
637.433000	41.981880
637.628000	40.363366
637.823000	39.374960
638.018000	38.114747
638.213000	36.820964
638.408000	35.642537
638.603000	34.175725
638.798000	32.801178
638.993000	31.725872
639.188000	30.574042
639.383000	29.540520
639.579000	29.140632
639.774000	27.782847
639.969000	26.443170
640.164000	25.173447
640.359000	24.183747
640.554000	23.722078
640.749000	22.977128
640.944000	21.963201
641.139000	21.221464
641.334000	20.269108
641.529000	19.406510
641.724000	18.876533
641.919000	18.263381
642.115000	17.963649
642.310000	17.505004
642.505000	16.829130
642.700000	16.057793
642.895000	15.335248
643.090000	14.854574
643.285000	14.610358
643.480000	13.936393
643.675000	13.396828
643.870000	13.571085
644.065000	13.167830
644.260000	12.189601
644.455000	11.839926
644.650000	11.363181
644.846000	11.097947
645.041000	10.479544
645.236000	10.031168
645.431000	9.829116
645.626000	9.282366
645.821000	9.328653
646.016000	9.189098
646.211000	9.147922
646.406000	8.470207
646.601000	8.219294
646.796000	7.774289
646.991000	7.340565
647.186000	7.390347
647.381000	7.445444
647.577000	7.259460
647.772000	6.991171
647.967000	6.584188
648.162000	6.303170
648.357000	6.100881
648.552000	5.988894
648.747000	5.865884
648.942000	5.827444
649.137000	5.532064
649.332000	5.183356
649.527000	4.986326
649.722000	5.026960
649.917000	5.118164
650.113000	4.781146
650.308000	4.363166
650.503000	4.140070
650.698000	4.169060
650.893000	4.078290
651.088000	4.132127
651.283000	4.175326
651.478000	3.739533
651.673000	3.778440
651.868000	3.426735
652.063000	3.553540
652.258000	3.436173
652.453000	3.640923
652.648000	3.294702
652.844000	3.039904
653.039000	3.173845
653.234000	2.771121
653.429000	2.302777
653.624000	2.516043
653.819000	2.780101
654.014000	2.418628
654.209000	2.165720
654.404000	2.439731
654.599000	2.324775
654.794000	2.165244
654.989000	2.483618
655.184000	2.347715
655.380000	1.955717
655.575000	1.869239
655.770000	1.820236
655.965000	1.725138
656.160000	1.734740
656.355000	1.795216
656.550000	1.861740
656.745000	1.871723
656.940000	1.751050
657.135000	1.663353
657.330000	1.681491
657.525000	1.569115
657.720000	1.589369
657.915000	1.474228
658.111000	1.466041
658.306000	1.721081
658.501000	1.338965
658.696000	1.092847
658.891000	1.540872
659.086000	1.382365
659.281000	1.252839
659.476000	0.805911
659.671000	0.541915
659.866000	0.753382
660.061000	1.026911
660.256000	1.230038
660.451000	1.160578
660.646000	0.994325
660.842000	1.119244
661.037000	0.810123
661.232000	0.802427
661.427000	0.978784
661.622000	0.696874
661.817000	0.546003
662.012000	0.893924
662.207000	0.698914
662.402000	0.691758
662.597000	0.924166
662.792000	0.593561
662.987000	0.486214
663.182000	0.692490
663.378000	0.550149
663.573000	0.327677
663.768000	0.300194
663.963000	0.443628
664.158000	0.550454
664.353000	1.037222
664.548000	1.189338
664.743000	0.912318
664.938000	0.337595
665.133000	0.338124
665.328000	0.788925
665.523000	0.691212
665.718000	0.555921
665.913000	0.629062
666.109000	0.585177
666.304000	0.657431
666.499000	0.521269
666.694000	0.713338
666.889000	0.885675
667.084000	0.624605
667.279000	0.396742
667.474000	0.369651
667.669000	0.597123
667.864000	0.534037
668.059000	0.489215
668.254000	0.407588
668.449000	0.170173
668.644000	0.170328
668.840000	0.435323
669.035000	0.197823
669.230000	-0.113951
669.425000	0.290588
669.620000	0.180225
669.815000	0.236248
670.010000	0.060851
670.205000	0.245453
670.400000	0.272649
670.595000	0.365870
670.790000	0.329356
670.985000	0.320439
671.180000	0.524767
671.376000	0.172605
671.571000	-0.013021
671.766000	0.136100
671.961000	0.042897
672.156000	0.042951
672.351000	0.155031
672.546000	0.248947
672.741000	0.239065
672.936000	0.295482
673.131000	1.027618
673.326000	0.597979
673.521000	-0.079047
673.716000	-0.220197
673.911000	-0.210937
674.107000	0.345304
674.302000	0.657099
674.497000	0.412101
674.692000	-0.041618
674.887000	-0.060741
675.082000	0.091250
675.277000	0.519712
675.472000	0.548986
675.667000	0.349370
675.862000	0.024831
676.057000	0.168201
676.252000	0.302636
676.447000	0.034562
676.643000	0.351093
676.838000	0.592030
677.033000	0.284884
677.228000	0.439973
677.423000	0.401623
677.618000	0.083253
677.813000	-0.129643
678.008000	0.151413
678.203000	0.015546
678.398000	-0.140169
678.593000	0.220062
678.788000	0.132856
678.983000	-0.160013
679.178000	0.064428
679.374000	-0.160327
679.569000	-0.052904
679.764000	-0.141496
679.959000	-0.260032
680.154000	-0.210826
680.349000	-0.181899
680.544000	-0.201400
680.739000	-0.092851
680.934000	-0.280812
681.129000	-0.281598
681.324000	-0.252162
681.519000	-0.043819
681.714000	-0.063760
681.909000	-0.242788
682.105000	-0.353233
682.300000	0.326557
682.495000	0.456544
682.690000	0.337166
682.885000	0.126539
683.080000	-0.064452
683.275000	-0.014106
683.470000	0.429745
683.665000	0.643003
683.860000	0.745386
684.055000	0.441813
684.250000	-0.105490
684.445000	-0.155957
684.641000	0.341294
684.836000	0.087500
685.031000	-0.044929
685.226000	-0.004090
685.421000	0.180467
685.616000	-0.250192
685.811000	-0.209679
686.006000	0.252825
686.201000	0.242871
686.396000	-0.334711
686.591000	-0.314680
686.786000	0.161737
686.981000	0.099540
687.176000	0.214115
687.372000	0.245573
687.567000	0.485121
687.762000	0.100214
687.957000	-0.035491
688.152000	-0.077410
688.347000	-0.077550
688.542000	-0.371904
688.737000	-0.697274
688.932000	-0.561712
689.127000	-0.099016
689.322000	0.323247
689.517000	-0.141523
689.712000	-0.428189
689.908000	-0.322528
690.103000	-0.355044
690.298000	-0.142467
690.493000	-0.100201
690.688000	-0.260417
690.883000	-0.025703
691.078000	0.349248
691.273000	0.306430
691.468000	-0.133116
691.663000	-0.230607
691.858000	0.017245
692.053000	0.157351
692.248000	0.297761
692.443000	0.189869
692.639000	0.082159
692.834000	0.353295
693.029000	0.787079
693.224000	0.769029
693.419000	0.213696
693.614000	-0.069911
693.809000	-0.343250
694.004000	-0.497227
694.199000	-0.475199
694.394000	0.094483
694.589000	-0.389332
694.784000	-0.334681
694.979000	0.050644
695.174000	-0.070640
695.370000	0.359214
695.565000	0.304861
695.760000	-0.214776
695.955000	0.162027
696.150000	0.228685
696.345000	-0.294209
696.540000	0.140664
696.740000	0.051317
696.940000	0.017863
697.140000	0.141397
697.340000	-0.060704
697.539000	0.096728
697.739000	0.130522
697.939000	0.175651
698.139000	-0.444094
698.339000	-0.604152
698.539000	-0.264589
698.739000	-0.480715
698.939000	-0.289234
699.138000	-0.221276
699.338000	0.188693
699.538000	0.246465
699.738000	-0.096128
699.938000	-0.084756
700.138000	-0.256993
700.338000	-0.464843
700.538000	-0.258375
700.737000	-0.177575
700.937000	-0.694398
701.137000	-0.591836
701.337000	-0.050926
701.537000	0.354946
701.737000	0.203896
701.937000	-0.202035
702.137000	0.018579
702.337000	-0.179122
702.536000	-0.645688
702.736000	-0.518106
702.936000	-0.530557
703.136000	0.053916
703.336000	-0.063278
703.536000	-0.133958
703.736000	-0.369972
703.936000	-0.345690
704.135000	-0.698085
704.335000	-0.252203
704.535000	-0.524690
704.735000	-0.572545
704.935000	-0.016526
705.135000	0.090150
705.335000	-0.278495
705.535000	-0.135766
705.735000	-0.028577
705.934000	0.066646
706.134000	-0.254770
706.334000	-0.291175
706.534000	-0.327445
706.734000	-0.291825
706.934000	-0.303768
707.134000	-0.507209
707.334000	-0.532264
707.533000	-0.220985
707.733000	-0.232827
707.933000	-0.437287
708.133000	-0.136787
708.333000	-0.053069
708.533000	-0.282755
708.733000	0.043494
708.933000	-0.125761
709.132000	-0.222933
709.332000	-0.138355
709.532000	-0.430578
709.732000	-0.089876
709.932000	-0.564899
710.132000	-0.771382
710.332000	-0.819674
710.532000	-0.114422
710.732000	0.080559
710.931000	-0.236971
711.131000	-0.201109
711.331000	-0.188992
711.531000	-0.373708
711.731000	-0.239085
711.931000	-0.153071
712.131000	-0.226865
712.331000	-0.054268
712.530000	-0.091157
712.730000	-0.338417
712.930000	-0.264223
713.130000	-0.339490
713.330000	-0.625235
713.530000	-0.291356
713.730000	0.431006
713.930000	-0.029887
714.129000	-0.527450
714.329000	-0.541622
714.529000	-0.204513
714.729000	0.257416
714.929000	0.219936
715.129000	-0.393036
715.329000	-0.481101
715.529000	-0.281792
715.729000	0.497232
715.928000	0.171195
716.128000	-0.219165
716.328000	-0.320880
716.528000	-0.473017
716.728000	-0.371926
716.928000	-0.536436
717.128000	-0.169913
717.328000	-0.005071
717.527000	-0.335105
717.727000	-0.449784
717.927000	-0.183551
718.127000	-0.234672
718.327000	-0.695070
718.527000	-0.554245
718.727000	-0.132937
718.927000	-0.478929
719.127000	-0.763711
719.326000	-0.299635
719.526000	0.135981
719.726000	-0.185118
719.926000	-0.392264
720.126000	-0.314894
720.326000	-0.508401
720.526000	-0.702085
720.726000	-0.522977
720.925000	-0.367871
721.125000	-0.642260
721.325000	-0.329830
721.525000	-0.356663
721.725000	-0.382739
721.925000	-0.292432
722.125000	-0.279400
722.325000	0.060051
722.524000	-0.149275
722.724000	-0.765659
722.924000	-0.765612
723.124000	-0.635303
723.324000	-0.215489
723.524000	-0.189382
723.724000	-0.610781
723.924000	-0.203443
724.124000	-0.044932
724.323000	0.087333
724.523000	0.179802
724.723000	0.511419
724.923000	0.299520
725.123000	0.061029
725.323000	0.021265
725.523000	-0.098539
725.723000	-0.351177
725.922000	-0.111864
726.122000	-0.151987
726.322000	-0.366286
726.522000	-0.567363
726.722000	0.061483
726.922000	-0.032056
727.122000	0.048251
727.322000	0.356979
727.521000	0.371309
727.721000	-0.005389
727.921000	-0.018863
728.121000	-0.059269
728.321000	-0.707143
728.521000	-0.276005
728.721000	0.184316
728.921000	0.224895
729.121000	1.012336
729.320000	0.551560
729.520000	-0.059780
729.720000	-0.427318
729.920000	-0.456701
730.120000	-0.373708
730.320000	-0.360951
730.520000	-0.648337
730.720000	-0.554332
730.919000	-0.444480
731.119000	-0.252883
731.319000	-0.776407
731.519000	-0.762537
731.719000	-0.322327
731.919000	-0.543011
732.119000	-1.040887
732.319000	-0.836432
732.519000	-0.365788
732.718000	-0.782481
732.918000	-0.755382
733.118000	-0.381417
733.318000	0.134020
733.518000	-0.201046
733.718000	-0.970276
733.918000	-0.774995
734.118000	-0.299262
734.317000	0.022466
734.517000	-0.384195
734.717000	-0.541028
734.917000	0.093199
735.117000	0.234661
735.317000	-0.104581
735.517000	0.150213
735.717000	0.434917
735.916000	-0.332633
736.116000	-0.374952
736.316000	-0.134330
736.516000	-0.220003
736.716000	-0.191528
736.916000	-0.565447
737.116000	-0.366302
737.316000	0.297031
737.516000	0.066459
737.715000	-0.164806
737.915000	-0.584316
738.115000	-0.586172
738.315000	-0.441406
738.515000	-0.601009
738.715000	-0.560731
738.915000	0.330456
739.115000	-0.152320
739.314000	-0.415575
739.514000	0.214408
739.714000	0.170782
739.914000	-0.094500
740.114000	-0.553268
740.314000	-0.168768
740.514000	0.335089
740.714000	-0.243985
740.913000	-0.736003
741.113000	-0.871454
741.313000	-0.438712
741.513000	-0.245413
741.713000	-0.441129
741.913000	-0.413063
742.113000	-0.081283
742.313000	-0.488738
742.513000	-0.172124
742.712000	-0.021206
742.912000	-0.309090
743.112000	-0.386148
743.312000	-0.737033
743.512000	-0.204515
743.712000	0.131677
743.912000	-0.895623
744.112000	-0.896196
744.311000	-1.037104
744.511000	-0.869414
744.711000	-0.299799
744.911000	-0.578791
745.111000	-0.502035
745.311000	-0.223556
745.511000	-0.394872
745.711000	-0.441927
745.911000	-0.349015
746.110000	-1.035073
746.310000	-1.041182
746.510000	-0.772941
746.710000	-0.289218
746.910000	0.119566
747.110000	-0.416003
747.310000	-0.827146
747.510000	-0.640152
747.709000	-0.466231
747.909000	-0.562820
748.109000	-0.070191
748.309000	-0.214202
748.509000	-0.358630
748.709000	-0.681351
748.909000	-0.472300
749.109000	-0.587306
749.308000	0.203504
749.508000	-0.152378
749.708000	-0.265940
749.908000	0.009732
750.108000	-0.283058
750.308000	-1.002321
750.508000	0.189848
750.708000	-0.514071
750.908000	-1.220686
751.107000	-0.418024
751.307000	0.207121
751.507000	-0.287235
751.707000	-0.138489
751.907000	-0.105775
752.107000	-0.205632
752.307000	-0.938443
752.507000	-0.757391
752.706000	-0.756877
752.906000	0.294038
753.106000	-0.626998
753.306000	-1.167038
753.506000	-0.074192
753.706000	-0.209505
753.906000	0.128427
754.106000	0.348565
754.305000	-0.091490
754.505000	-0.091729
754.705000	-0.263028
754.905000	-0.485783
755.105000	0.198712
755.305000	-0.761649
755.505000	-0.815454
755.705000	-0.196367
755.905000	-0.110573
756.104000	-0.629425
756.304000	-1.255296
756.504000	-1.553243
756.704000	-0.303879
756.904000	-0.041891
757.104000	-0.181270
757.304000	-0.129104
757.504000	0.291382
757.703000	-0.007020
757.903000	0.362398
758.103000	0.416025
758.303000	-0.342949
758.503000	-0.662893
758.703000	-0.771035
758.903000	-0.878022
759.103000	-0.274472
759.303000	-0.204156
759.502000	-0.420380
759.702000	0.280146
759.902000	-0.151618
760.102000	-0.387191
760.302000	-0.098031
760.502000	0.445254
760.702000	-0.206634
760.902000	-0.570355
761.101000	-0.790592
761.301000	-1.047455
761.501000	-0.573182
761.701000	-0.958443
761.901000	-0.797959
762.101000	-0.265327
762.301000	-0.394310
762.501000	-0.523721
762.700000	-0.785494
762.900000	-0.693112
763.100000	-0.545474
763.300000	-0.361409
763.500000	-0.697427
763.703000	-0.899537
763.905000	-0.958924
764.108000	-0.044934
764.311000	0.048685
764.513000	-0.232470
764.716000	-0.515765
764.919000	-0.799187
765.121000	-0.742928
765.324000	-0.991027
765.527000	-0.844205
765.729000	-0.768127
765.932000	-0.007618
766.135000	0.335078
766.337000	-0.274296
766.540000	-0.714749
766.743000	-0.354255
766.945000	-0.776280
767.148000	-0.681746
767.351000	-0.720162
767.553000	0.127563
767.756000	-0.588188
767.958000	-1.052439
768.161000	-0.336918
768.364000	-0.629675
768.566000	-0.845300
768.769000	-0.437740
768.972000	-0.320443
769.174000	-0.850585
769.377000	-1.088879
769.580000	-0.854838
769.782000	-0.184988
769.985000	-0.540944
770.188000	-1.591068
770.390000	-0.704011
770.593000	0.905731
770.796000	0.170945
770.998000	-0.306289
771.201000	-0.744628
771.404000	-0.665927
771.606000	-0.708605
771.809000	-0.368194
772.012000	-0.388953
772.214000	-1.031335
772.417000	-1.071580
772.620000	-0.028007
772.822000	-0.673345
773.025000	-1.258215
773.228000	-0.957544
773.430000	-0.756790
773.633000	-0.291937
773.836000	-0.312637
774.038000	-0.191551
774.241000	-0.334106
774.444000	-0.702960
774.646000	0.196017
774.849000	-0.151437
775.052000	-0.642475
775.254000	-0.295223
775.457000	-0.458818
775.659000	-0.110873
775.862000	-0.275194
776.065000	-0.399072
776.267000	0.259636
776.470000	0.757551
776.673000	-0.008285
776.875000	0.178649
777.078000	-0.298659
777.281000	-1.215828
777.483000	-0.321633
777.686000	0.347344
777.889000	-0.050272
778.091000	0.327896
778.294000	-0.847958
778.497000	-1.185305
778.699000	-0.891792
778.902000	-0.958153
779.105000	-0.493883
779.307000	0.519952
779.510000	-0.262675
779.713000	-0.178634
779.915000	-0.648619
780.118000	0.333170
780.321000	0.675711
780.523000	-0.094305
780.726000	-0.801927
780.929000	-0.565862
781.131000	-0.115924
781.334000	-1.215254
781.537000	-1.780444
781.739000	-0.700718
781.942000	-0.831151
782.145000	-0.922475
782.347000	-1.010138
782.550000	-0.553319
782.753000	-1.035964
782.955000	-0.688137
783.158000	-0.753438
783.361000	-0.447909
783.563000	-0.491903
783.766000	-0.537212
783.968000	1.556779
784.171000	0.987973
784.374000	-0.429785
784.576000	-0.496099
784.779000	-0.053070
784.982000	0.547100
785.184000	-0.053665
785.387000	0.304567
785.590000	0.729675
785.792000	0.642572
785.995000	0.396034
786.198000	-0.121709
786.400000	-0.235391
786.603000	0.104379
786.806000	-0.461471
787.008000	-0.212617
787.211000	-0.394989
787.414000	-1.216354
787.616000	-0.786531
787.819000	-0.513366
788.022000	-1.248430
788.224000	-0.469326
788.427000	-1.045072
788.630000	-0.863939
788.832000	-0.816853
789.035000	-0.930743
789.238000	-1.420929
789.440000	-0.940398
789.643000	0.060395
789.846000	-0.824647
790.048000	0.037363
790.251000	0.901587
790.454000	-0.195808
790.656000	0.224606
790.859000	-0.126633
791.062000	-1.160500
791.264000	-0.408422
791.467000	-1.211592
791.669000	-1.732701
791.872000	-0.317904
792.075000	-0.625596
792.277000	-0.530895
792.480000	-0.629098
792.683000	-1.078903
792.885000	-1.650844
793.088000	-1.346528
793.291000	-1.661043
793.493000	-1.280423
793.696000	0.062367
793.899000	0.134700
794.101000	-0.467720
794.304000	-0.323795
794.507000	-0.058079
794.709000	0.232961
794.912000	-0.618856
795.115000	-0.839748
795.317000	-0.888327
795.520000	-0.647098
795.723000	-0.329775
795.925000	-1.266809
796.128000	-1.363640
796.331000	-0.528481
796.533000	-1.420886
796.736000	-0.607035
796.939000	-0.084789
797.141000	-0.635097
797.344000	-0.085094
797.547000	-0.035054
797.749000	-0.737190
797.952000	-1.093757
798.155000	-1.720036
798.357000	-1.502710
798.560000	-1.307666
798.763000	-0.721779
798.965000	-0.771877
799.168000	-0.621341
799.371000	-0.214154
799.573000	-0.445084
799.776000	-1.163051
799.978000	-0.987142
800.181000	-0.164839
800.384000	1.202087
800.586000	0.351648
800.789000	-1.612748
800.992000	-1.560000
801.194000	-1.356366
801.397000	-1.126306
801.600000	-0.947876
801.802000	0.172124
802.005000	0.041860
802.208000	-1.610962
802.410000	-0.796926
802.613000	-0.800443
802.816000	-0.906821
803.018000	-1.147117
803.221000	-0.566685
803.424000	0.679314
803.626000	0.095677
803.829000	-0.783851
804.032000	0.283360
804.234000	1.058263
804.437000	-0.520677
804.640000	-0.681139
804.842000	-0.709575
805.045000	-1.280348
805.248000	-1.120371
805.450000	-0.551528
805.653000	-0.364575
805.856000	-0.907725
806.058000	0.398008
806.261000	-0.420807
806.464000	-0.858867
806.666000	-0.586269
806.869000	-1.003596
807.072000	-2.464612
807.274000	-2.355884
807.477000	-0.923903
807.679000	-0.481715
807.882000	-1.204282
808.085000	-0.793368
808.287000	0.436225
808.490000	-0.907744
808.693000	-1.300895
808.895000	-0.909405
809.098000	-0.657110
809.301000	-0.800186
809.503000	-0.831955
809.706000	0.244689
809.909000	0.244649
810.111000	0.102555
810.314000	-0.325498
810.517000	-0.950551
810.719000	-0.841428
810.922000	-1.189886
811.125000	0.418719
811.327000	1.171041
811.530000	0.249037
811.735000	-0.156136
811.940000	-1.025847
812.146000	-0.506351
812.351000	-0.011641
812.556000	-0.216053
812.761000	-0.978253
812.967000	0.194142
813.172000	0.429013
813.377000	-0.188643
813.582000	-0.100642
813.788000	-0.041727
813.993000	-0.874065
814.198000	-0.428533
814.403000	-1.499032
814.609000	-0.760218
814.814000	-0.823776
815.019000	0.258085
815.224000	0.467912
815.429000	-1.219825
815.635000	-1.344810
815.840000	-0.709520
816.045000	0.018276
816.250000	0.109831
816.456000	-1.662510
816.661000	-2.529765
816.866000	-2.104566
817.071000	-1.273014
817.277000	-1.807330
817.482000	-1.252437
817.687000	-0.570054
817.892000	-0.635594
818.097000	-0.043754
818.303000	0.831324
818.508000	0.860894
818.713000	8.031369
818.918000	4.309858
819.124000	-0.075365
819.329000	-0.895609
819.534000	-0.898278
819.739000	-1.309571
819.945000	-1.442874
820.150000	-0.939682
820.355000	0.115287
820.560000	0.146914
820.766000	-0.300986
820.971000	-0.463744
821.176000	-2.014438
821.381000	-2.652417
821.586000	-1.567311
821.792000	-1.052862
821.997000	-0.923739
822.202000	-1.054880
822.407000	-0.829482
822.613000	-1.256653
822.818000	-0.833394
823.023000	-0.801560
823.228000	-0.740610
823.434000	0.218042
823.639000	0.450264
823.844000	-0.278837
824.049000	1.116172
824.255000	0.453246
824.460000	-0.381700
824.665000	-0.616934
824.870000	-0.248956
825.075000	-0.518752
825.281000	-0.250021
825.486000	0.802095
825.691000	-0.830538
825.896000	-2.400998
826.102000	-0.900934
826.307000	-0.389987
826.512000	-0.425783
826.717000	-0.599312
826.923000	-0.877356
827.128000	-0.602341
827.333000	-1.233373
827.538000	-0.118903
827.744000	0.336543
827.949000	-1.028708
828.154000	-0.400503
828.359000	0.091297
828.564000	-1.461022
828.770000	-1.502500
828.975000	0.340960
829.180000	-0.442639
829.385000	-2.048211
829.591000	-0.874330
829.796000	-0.230478
830.001000	-0.375243
830.206000	-1.136521
830.412000	-1.207678
830.617000	-1.065613
830.822000	0.349691
831.027000	-0.741440
831.232000	-1.806340
831.438000	-1.671803
831.643000	-0.824784
831.848000	-0.937539
832.053000	-1.237533
832.259000	-0.942283
832.464000	-2.209793
832.669000	-1.993761
832.874000	-1.878694
833.080000	-2.074202
833.285000	-0.127504
833.490000	-0.052539
833.695000	-1.828311
833.901000	-1.533291
834.106000	-2.219822
834.311000	-1.046967
834.516000	0.137769
834.721000	-1.477822
834.927000	-0.247322
835.132000	0.371709
835.337000	1.845805
835.542000	-0.288659
835.748000	-2.507244
835.953000	0.140641
836.158000	0.101823
836.363000	-0.290968
836.569000	0.023775
836.774000	-0.928850
836.979000	-1.168436
837.184000	-2.127413
837.390000	-2.251031
837.595000	-0.976459
837.800000	-1.139144
838.005000	-0.702201
838.210000	-0.581384
838.416000	-1.151061
838.621000	-1.357354
838.826000	-1.925128
839.031000	-1.894189
839.237000	-2.113986
839.442000	-2.199754
839.647000	-1.990807
839.852000	-1.792843
840.058000	-1.840781
840.263000	-1.433196
840.468000	-1.809979
840.673000	-1.226239
840.878000	-0.935158
841.084000	-1.444695
841.289000	-0.606278
841.494000	2.526810
841.699000	2.279953
841.905000	0.580018
842.110000	0.283000
842.315000	-2.466481
842.520000	-0.961563
842.726000	-0.877802
842.931000	-1.908961
843.136000	-1.359796
843.341000	-1.893480
843.547000	-1.715446
843.752000	-1.194341
843.957000	-0.588877
844.162000	-1.077373
844.367000	-1.610733
844.573000	-0.817722
844.778000	-0.992858
844.983000	-0.151071
845.188000	0.652045
845.394000	-1.685394
845.599000	-1.456490
845.804000	-1.326138
846.009000	-0.517771
846.215000	-1.706524
846.420000	-2.443163
846.625000	-1.349493
846.830000	0.301858
847.036000	-0.294129
847.241000	-1.587648
847.446000	-0.572223
847.651000	-1.269748
847.856000	-3.058165
848.062000	-2.551341
848.267000	-0.018765
848.472000	-1.242812
848.677000	-1.907191
848.883000	-0.160169
849.088000	0.551991
849.293000	-1.213437
849.498000	-1.402738
849.704000	-0.210522
849.909000	-1.410314
850.114000	-2.849500
850.319000	-1.173120
850.524000	-0.551111
850.730000	-0.797324
850.935000	-1.044590
851.140000	1.057132
851.345000	0.176164
851.551000	-0.461367
851.756000	0.769793
851.961000	-0.860899
852.166000	-1.257368
852.372000	-1.062104
852.577000	-0.469940
852.782000	-0.523877
852.987000	0.532432
853.193000	0.685583
853.398000	0.433660
853.603000	-1.789052
853.808000	-2.447332
854.013000	-1.801377
854.219000	-0.224307
854.424000	2.538360
854.629000	2.595253
854.834000	-0.123917
855.040000	0.031178
855.245000	-1.004708
855.450000	-2.963545
855.655000	-3.807706
855.861000	-3.936305
856.066000	-1.863087
856.271000	-2.973088
856.476000	-0.920388
856.682000	-0.977030
856.887000	-3.522703
857.092000	-2.094656
857.297000	0.512427
857.502000	-0.449256
857.708000	-0.825241
857.913000	-0.397232
858.118000	-1.809442
858.323000	-1.217084
858.529000	-0.835451
858.734000	-1.000917
858.939000	-0.840193
859.144000	-2.375831
859.350000	-1.664411
859.555000	-1.724537
859.760000	0.695785
859.965000	0.971608
860.171000	-1.962706
860.376000	-0.634696
860.581000	-2.199470
860.786000	-5.011637
860.991000	-3.513310
861.197000	-2.216987
861.402000	0.146718
861.607000	-1.208375
861.812000	-3.538647
862.018000	-3.210662
862.223000	-1.961964
862.428000	0.722863
862.633000	0.837982
862.839000	-0.254126
863.044000	-1.304550
863.249000	-1.939900
863.454000	0.558130
863.659000	-0.606476
863.865000	-1.429960
864.070000	-1.962539
864.275000	-2.966391
864.480000	-2.447827
864.686000	-3.465730
864.891000	-3.706193
865.096000	-1.575202
865.301000	-1.099922
865.507000	-0.324702
865.712000	0.036076
865.917000	-1.113431
866.122000	-0.327656
866.328000	-3.197509
866.533000	-3.195278
866.738000	0.158746
866.943000	0.036711
867.148000	0.652207
867.354000	-2.505282
867.559000	-3.188335
867.764000	-1.084595
867.969000	0.100239
868.175000	-1.710793
868.380000	-2.969928
868.585000	-3.914871
868.790000	-1.221324
868.996000	-2.179961
869.201000	-2.884579
869.406000	-3.981807
869.611000	-2.326008
869.817000	-1.429799
870.022000	2.601322
870.227000	-0.667985
870.432000	-2.994911
870.637000	-1.576711
870.843000	-1.455883
871.048000	-1.846743
871.253000	1.014995
871.458000	0.758571
871.664000	-2.329665
871.869000	-2.343430
872.074000	-1.952101
872.279000	-0.623841
872.485000	-1.629766
872.690000	-2.240582
872.895000	-2.249842
873.100000	-3.601305
873.306000	-2.668440
873.511000	-2.550635
873.716000	-1.189260
873.921000	-2.004195
874.126000	-2.895004
874.332000	-1.889261
874.537000	0.457329
874.742000	0.386784
874.947000	-0.374552
875.153000	-0.238042
875.358000	0.042106
875.563000	-0.588935
875.768000	-2.985196
875.974000	-3.563022
876.179000	-0.099166
876.384000	-0.242002
876.589000	-2.255207
876.794000	-4.055365
877.000000	-3.554969
877.205000	-3.191105
877.410000	-1.690079
877.615000	-2.768773
877.821000	-4.320931
878.026000	-1.048014
878.231000	-2.066447
878.436000	-4.037794
878.642000	-2.671332
878.847000	-0.470730
879.052000	0.484748
879.257000	-2.993046
879.463000	-4.406742
879.668000	-2.330197
879.873000	-0.029802
880.078000	-5.258033
880.283000	-4.303783
880.489000	-3.778849
880.694000	-3.870572
880.899000	-0.637316
881.104000	-0.563725
881.310000	0.198061
881.515000	0.578281
881.720000	1.418671
881.925000	2.884024
882.131000	4.188234
882.336000	1.515036
882.541000	-0.732313
882.746000	-0.266186
882.952000	-2.299047
883.157000	-3.010235
883.362000	-1.837180
883.567000	-3.027480
883.772000	-3.692171
883.978000	-1.784379
884.183000	-0.271459
884.388000	-1.067366
884.593000	-3.777131
884.799000	1.328710
885.004000	1.834518
885.209000	-0.519733
885.414000	0.776927
885.620000	-1.907458
885.825000	-0.935952
886.030000	-1.999349
886.235000	-3.248286
886.440000	-1.945249
886.646000	-3.703248
886.851000	-4.727785
887.056000	0.386835
887.261000	-0.622798
887.467000	-4.597042
887.672000	-0.374353
887.877000	-1.830004
888.082000	-5.017869
888.288000	-5.855649
888.493000	-7.434702
888.698000	-4.623342
888.903000	-1.944360
889.109000	-4.019261
889.314000	-0.294682
889.519000	-0.725271
889.724000	1.262402
889.929000	-2.285366
890.135000	-2.551913
890.340000	-2.483510
890.545000	-3.094232
890.750000	-4.327474
890.956000	-2.847711
891.161000	-0.561698
891.366000	-2.587594
891.571000	-0.829268
891.777000	-1.271553
891.982000	-0.834096
892.187000	-1.461468
892.392000	0.408949
892.598000	1.037150
892.803000	0.054120
893.008000	-2.649248
893.213000	-4.349827
893.418000	-4.199474
893.624000	-5.493983
893.829000	-6.679352
894.034000	-3.501824
894.239000	-0.953076
894.445000	-2.779463
894.650000	-3.344816
894.855000	-4.177033
895.060000	-4.261914
895.266000	-4.474023
895.471000	-4.846636
895.676000	-0.408390
895.881000	-0.505521
896.087000	-1.161049
896.292000	-2.205266
896.497000	2.329740
896.702000	-1.169634
896.907000	-2.966384
897.113000	2.048108
897.318000	0.625495
897.523000	0.247056
897.728000	-2.995167
897.934000	-1.749474
898.139000	-2.326351
898.344000	1.212601
898.549000	-0.522646
898.755000	-2.655701
898.960000	-2.867144
899.165000	-5.600274
899.370000	-1.998747
899.575000	3.104000
899.781000	-1.024470
899.986000	-2.403689
900.191000	-1.625914
900.396000	-1.330033
900.602000	-0.139793
900.807000	-0.744128
901.012000	-2.570803
901.217000	-3.084504
901.423000	-4.186209
901.628000	-4.098768
901.833000	1.794495
902.038000	1.500187
902.244000	-2.090398
902.449000	-3.236520
902.654000	-1.395747
902.859000	0.062350
903.064000	0.480307
903.270000	0.796404
903.475000	-3.502670
903.680000	-5.280073
903.885000	-4.688572
904.091000	-3.120570
904.296000	-4.624868
904.501000	-4.643220
904.706000	-3.048197
904.912000	1.366969
905.117000	1.154808
905.322000	-3.119132
905.527000	-3.541944
905.733000	-3.216098
905.938000	-4.116831
906.143000	-5.503084
906.348000	-5.730475
906.553000	-0.381778
906.759000	0.852852
906.964000	-2.075049
907.169000	-4.128111
907.374000	-6.495169
907.580000	-4.595858
907.785000	-2.592110
907.990000	29.467236
908.195000	19.345587
908.401000	-0.514651
908.606000	-7.691628
908.811000	-10.151318
909.016000	-0.750954
909.221000	-1.224164
909.427000	-3.598699
909.632000	-4.227384
909.837000	-4.497344
910.042000	-5.836951
910.248000	-7.926278
910.453000	-2.484322
910.658000	-4.466602
910.863000	-3.236136
911.069000	-5.339399
911.274000	-1.908538
911.479000	1.820529
911.684000	-4.285667
911.890000	-1.932498
912.095000	-2.060523
912.300000	-6.757106
912.506000	-7.646892
912.711000	-7.870364
912.917000	-3.900206
913.123000	0.077047
913.328000	0.594340
913.534000	1.251739
913.740000	9.663982
913.946000	2.718396
914.151000	-5.136904
914.357000	-4.882137
914.563000	-2.562293
914.768000	-5.910266
914.974000	-6.510909
915.180000	-4.265107
915.385000	-4.554947
915.591000	-7.071952
915.797000	-1.435588
916.002000	2.723435
916.208000	-3.513469
916.414000	-8.586465
916.620000	-6.923103
916.825000	-0.618564
917.031000	-3.432833
917.237000	-9.661093
917.442000	-7.052798
917.648000	-7.683709
917.854000	-7.247251
918.059000	1.679489
918.265000	3.557214
918.471000	-1.802148
918.676000	-6.521776
918.882000	-8.043380
919.088000	-4.058678
919.294000	-8.568004
919.499000	-7.274535
919.705000	-2.176108
919.911000	-3.384910
920.116000	-0.976797
920.322000	-8.338062
920.528000	-5.146715
920.733000	-5.531047
920.939000	-9.632960
921.145000	-6.323946
921.350000	-5.770875
921.556000	-5.019117
921.762000	-1.498766
921.968000	-5.020803
922.173000	-7.790928
922.379000	-12.084041
922.585000	-5.135850
922.790000	-3.670284
922.996000	-5.845536
923.202000	-7.921670
923.407000	-7.634916
923.613000	-5.287637
923.819000	-1.589173
924.024000	-3.763594
924.230000	-2.941952
924.436000	-4.491890
924.642000	8.544277
924.847000	2.715196
925.053000	-5.633353
925.259000	-10.341879
925.464000	-3.750181
925.670000	-4.097344
925.876000	-6.268502
926.081000	-4.877908
926.287000	-0.071364
926.493000	-1.706635
926.698000	-7.165276
926.904000	-5.675378
927.110000	-5.345756
927.316000	-2.994565
927.521000	1.586325
927.727000	-6.440714
927.933000	-3.648018
928.138000	-4.608308
928.344000	-12.877273
928.550000	-8.686832
928.755000	0.503197
928.961000	-3.554019
929.167000	-5.713323
929.372000	2.458283
929.578000	-0.078759
929.784000	-6.822872
929.990000	-11.038554
930.195000	-8.071078
930.401000	-2.495699
930.607000	-3.308721
930.812000	-2.322443
931.018000	-6.628001
931.224000	-14.179899
931.429000	-9.454218
931.635000	-14.005195
931.841000	-11.834140
932.046000	-8.502949
932.252000	-4.951843
932.458000	1.622828
932.664000	-3.109442
932.869000	-8.948994
933.075000	-10.968620
933.281000	-10.462541
933.486000	-2.549512
933.692000	-2.336355
933.898000	-9.679045
934.103000	2.401479
934.309000	-7.031962
934.515000	-3.150572
934.720000	1.557106
934.926000	2.045972
935.132000	0.380953
935.338000	-2.262345
935.543000	-9.862763
935.749000	-10.694524
935.955000	-11.238834
936.160000	-7.111911
936.366000	-3.125215
936.572000	-0.616801
936.777000	6.451609
936.983000	6.466759
937.189000	-5.139791
937.394000	-17.561102
937.600000	-4.693911
937.806000	9.401855
938.012000	-4.802758
938.217000	4.616070
938.423000	6.049296
938.629000	-8.795159
938.834000	-16.475013
939.040000	-12.508426
939.246000	-5.576711
939.451000	-6.229180
939.657000	-0.411545
939.863000	-7.572179
940.068000	-0.421413
940.274000	-7.091785
940.480000	-2.886736
940.686000	0.187626
940.891000	-2.914744
941.097000	19.419266
941.303000	4.935746
941.508000	-3.309746
941.714000	2.111840
941.920000	-9.206397
942.125000	-2.085230
942.331000	-2.094939
942.537000	5.102550
942.742000	5.154391
942.948000	-7.402247
943.154000	-13.664258
943.360000	-28.624927
943.565000	-11.594316
943.771000	4.627408
943.977000	5.947490
944.182000	-13.628811
944.388000	-16.059650
944.594000	-1.510705
944.799000	9.225542
945.005000	2.250718
945.211000	6.019722
945.416000	3.334143
945.622000	-11.629483
945.828000	-11.051068
946.034000	-1.573876
946.239000	-1.222966
946.445000	-6.162140
946.651000	-18.117567
946.856000	-19.223930
947.062000	-3.333589
947.268000	3.785510
947.473000	-19.147883
947.679000	-20.346740
947.885000	-0.868507
948.090000	2.038963
948.296000	14.662262
948.502000	-1.240753
948.708000	-9.350086
948.913000	-10.578601
949.119000	4.319252
949.325000	-7.600746
949.530000	-24.010236
949.736000	-20.212108
949.942000	-16.061963
950.147000	-18.042788
950.353000	-16.411131
950.559000	-12.353345
950.764000	11.796660
950.970000	13.380522
951.176000	-4.334494
951.382000	-19.720260
951.587000	-9.147045
951.793000	6.531823
951.999000	8.766292
952.204000	-8.773654
952.410000	-27.716820
952.616000	-10.553622
952.821000	-0.155067
953.027000	-19.572446
953.233000	-28.621298
953.438000	-27.632993
953.644000	3.422819
953.850000	-3.345451
954.056000	-14.247867
954.261000	-11.906512
954.467000	6.332544
954.673000	18.876870
954.878000	1.056835
955.084000	-4.232563
955.290000	-27.540859
955.495000	-27.211545
955.701000	-24.686603
955.907000	-0.166482
956.112000	-0.998995
956.318000	6.435725
956.524000	4.840670
956.730000	-10.766116
956.935000	-13.349556
957.141000	-18.325931
957.347000	-7.883916
957.552000	-1.455287
957.758000	-16.875796
957.964000	-32.623408
958.169000	4.608548
958.375000	1.570015
958.581000	-20.334599
958.786000	-23.861112
958.992000	-31.033226
959.198000	0.268818
959.404000	2.946500
959.609000	-5.479829
959.815000	-0.180262
960.021000	8.910349
960.226000	-5.228432
960.432000	-20.226391
960.638000	-11.123672
960.843000	-9.483674
961.049000	-10.155386
961.255000	4.044947
961.460000	-13.927634
961.666000	-36.479013
961.872000	-29.627517
962.078000	-24.580542
962.283000	-33.910410
962.489000	-25.513849
962.695000	-13.447689
962.900000	-17.237266
963.106000	-5.118848
963.312000	-8.675505
963.517000	-25.302762
963.723000	-22.554709
963.929000	-3.235741
964.134000	6.357898
964.340000	-16.021518
964.546000	-23.727066
964.752000	-22.460187
964.957000	-16.912041
965.163000	6.629195
965.369000	-7.142637
965.574000	-8.832048
965.780000	-14.229310
966.000000	-30.963176
966.220000	-17.039363
966.440000	-13.856368
966.661000	2.524597
966.881000	-6.826353
967.101000	-34.033308
967.321000	-36.615497
967.541000	-13.609100
967.761000	-20.537131
967.981000	-9.810482
968.202000	-5.424964
968.422000	9.618727
968.642000	-1.386381
968.862000	-3.774283
969.082000	-16.871318
969.302000	-4.539170
969.522000	-3.255643
969.743000	2.113530
969.963000	-10.440638
970.183000	-10.649624
970.403000	-23.661271
970.623000	-30.974909
970.843000	6.570886
971.063000	16.114227
971.284000	-17.985325
971.504000	-30.786613
971.724000	-17.626736
971.944000	-29.644534
972.164000	-32.511969
972.384000	-39.749357
972.604000	-52.137801
972.825000	-46.804128
973.045000	-44.799570
973.265000	16.434204
973.485000	19.460137
973.705000	-5.063371
973.925000	-19.031777
974.145000	-56.378207
974.365000	-29.451689
974.586000	-12.450789
974.806000	-24.240665
975.026000	5.460012
975.246000	-11.992805
975.466000	-28.614638
975.686000	-12.441506
975.906000	-25.337095
976.127000	-52.116703
976.347000	-43.577678
976.567000	-10.009312
976.787000	1.198830
977.007000	-6.738672
977.227000	-19.811914
977.447000	-31.303279
977.668000	-58.954573
977.888000	-50.104667
978.108000	-28.809824
978.328000	-5.163121
978.548000	15.574088
978.768000	39.337224
978.988000	10.654361
979.209000	-18.855079
979.429000	-15.577225
979.649000	-7.779501
979.869000	-40.419475
980.089000	-54.210554
980.309000	-37.782566
980.529000	-38.142400
980.750000	-24.225374
980.970000	-55.502545
981.190000	-32.029180
981.410000	-11.558303
981.630000	-38.237046
981.850000	-34.853354
982.070000	-9.906503
982.291000	-37.420690
982.511000	-52.289875
982.731000	-9.106528
982.951000	-17.919245
983.171000	-17.380693
983.391000	-5.237965
983.611000	13.367297
983.832000	-38.563788
984.052000	-67.601611
984.272000	-16.953328
984.492000	-4.485539
984.712000	-20.911275
984.932000	-60.691865
985.152000	-77.718584
985.373000	-48.556287
985.593000	-23.783965
985.813000	-43.393513
986.033000	-34.038774
986.253000	5.150395
986.473000	5.962182
986.693000	-26.748455
986.914000	-42.910829
987.134000	22.486656
987.354000	-7.469924
987.574000	199.744167
987.794000	122.853169
988.014000	-43.161212
988.234000	-23.805349
988.455000	-19.086424
988.675000	0.747350
988.895000	-32.741355
989.115000	-54.022604
989.335000	-13.196365
989.555000	18.492330
989.775000	-27.142310
989.995000	-56.401952
990.216000	-38.761578
990.436000	-29.061042
990.656000	17.289101
990.876000	-17.044679
991.096000	9.037706
991.316000	29.302608
991.536000	-20.555163
991.757000	-17.836746
991.977000	-68.577277
992.197000	-26.669858
992.417000	-53.157458
992.637000	-102.102724
992.857000	-94.277721
993.077000	-92.602020
993.298000	-36.100755
993.518000	-23.493712
993.738000	-99.823873
993.958000	-53.253110
994.178000	-53.267495
994.398000	-61.650102
994.618000	-71.553074
994.839000	-122.072604
995.059000	-31.237718
995.279000	47.508197
995.499000	-21.492212
995.719000	-12.357580
995.939000	-44.180610
996.159000	-41.821095
996.380000	-38.800075
996.600000	-70.132681
996.820000	-36.530429
997.040000	13.843504
997.260000	-40.901586
997.480000	-38.680930
997.700000	-127.448536
997.921000	-68.931113
998.141000	12.131594
998.361000	-4.455251
998.581000	-39.419284
998.801000	-56.567707
999.021000	-45.486621
999.241000	-31.517950
999.462000	-48.119930
999.682000	-101.344723
999.902000	-71.689045
1000.122000	-62.635300
1000.342000	-114.743239
1000.562000	-75.454725
1000.782000	-68.977543
1001.003000	-1057.012645
