Wavelength	Irradiance
(nm)	(mW/cm2/nm)

294.396000	0.000000
294.577000	0.000000
294.757000	-0.000000
294.938000	-0.000000
295.118000	-0.000000
295.299000	0.000000
295.479000	-0.000000
295.660000	-0.000000
295.840000	-0.000000
296.021000	-0.000000
296.202000	-0.000000
296.382000	-0.000000
296.563000	-0.000000
296.743000	-0.000000
296.924000	0.000000
297.104000	-0.000000
297.285000	-0.000000
297.465000	-0.000000
297.646000	-0.000000
297.826000	-0.000000
298.007000	0.000000
298.187000	0.000000
298.368000	-0.000000
298.548000	-0.000000
298.729000	0.000000
298.909000	-0.000000
299.090000	-0.000000
299.270000	-0.000000
299.451000	-0.000000
299.631000	-0.000000
299.812000	-0.000000
299.992000	0.000000
300.173000	0.000000
300.353000	-0.000000
300.534000	-0.000000
300.714000	0.000000
300.895000	0.000000
301.075000	-0.000000
301.256000	0.000000
301.436000	-0.000000
301.617000	-0.000000
301.797000	-0.000000
301.978000	-0.000000
302.159000	0.000000
302.339000	0.000000
302.520000	-0.000000
302.700000	-0.000000
302.881000	0.000000
303.061000	0.000000
303.242000	0.000000
303.422000	0.000000
303.603000	-0.000000
303.783000	-0.000000
303.964000	-0.000000
304.144000	-0.000000
304.325000	-0.000000
304.505000	-0.000000
304.686000	-0.000000
304.866000	-0.000000
305.047000	-0.000000
305.227000	-0.000000
305.408000	-0.000000
305.588000	-0.000000
305.769000	-0.000000
305.949000	-0.000000
306.130000	-0.000000
306.310000	-0.000000
306.491000	-0.000000
306.671000	0.000000
306.852000	-0.000000
307.032000	-0.000000
307.213000	-0.000000
307.393000	-0.000000
307.574000	0.000000
307.755000	0.000000
307.935000	0.000000
308.116000	-0.000000
308.296000	-0.000000
308.477000	0.000000
308.657000	0.000000
308.838000	0.000000
309.018000	0.000000
309.199000	-0.000000
309.379000	-0.000000
309.560000	0.000000
309.740000	-0.000000
309.921000	-0.000000
310.101000	0.000000
310.282000	-0.000000
310.462000	-0.000000
310.643000	-0.000000
310.823000	-0.000000
311.004000	-0.000000
311.184000	-0.000000
311.365000	0.000000
311.545000	0.000000
311.726000	-0.000000
311.906000	-0.000000
312.087000	0.000000
312.267000	-0.000000
312.448000	-0.000000
312.628000	-0.000000
312.809000	-0.000000
312.989000	-0.000000
313.170000	-0.000000
313.344000	-0.000000
313.518000	-0.000000
313.691000	-0.000000
313.865000	-0.000000
314.039000	-0.000000
314.213000	-0.000000
314.387000	-0.000000
314.560000	-0.000000
314.734000	-0.000000
314.908000	-0.000000
315.082000	-0.000000
315.255000	0.000000
315.429000	0.000000
315.603000	-0.000000
315.777000	-0.000000
315.951000	0.000000
316.124000	-0.000000
316.298000	-0.000000
316.472000	-0.000000
316.646000	-0.000000
316.820000	-0.000000
316.993000	0.000000
317.167000	-0.000000
317.341000	-0.000000
317.515000	-0.000000
317.688000	-0.000000
317.862000	-0.000000
318.036000	-0.000000
318.210000	-0.000000
318.384000	-0.000000
318.557000	-0.000000
318.731000	-0.000000
318.905000	0.000000
319.079000	0.000000
319.253000	-0.000000
319.426000	0.000000
319.600000	0.000000
319.774000	-0.000000
319.948000	-0.000000
320.122000	0.000000
320.295000	0.000000
320.469000	-0.000000
320.643000	-0.000000
320.817000	-0.000000
320.990000	-0.000000
321.164000	-0.000000
321.338000	-0.000000
321.512000	-0.000000
321.686000	-0.000000
321.859000	-0.000000
322.033000	-0.000000
322.207000	-0.000000
322.381000	-0.000000
322.555000	-0.000000
322.728000	-0.000000
322.902000	-0.000000
323.076000	-0.000000
323.250000	-0.000000
323.423000	-0.000000
323.597000	-0.000000
323.771000	-0.000000
323.945000	-0.000000
324.119000	-0.000000
324.292000	0.000000
324.466000	-0.000000
324.640000	0.000000
324.814000	0.000000
324.988000	-0.000000
325.161000	-0.000000
325.335000	-0.000000
325.509000	-0.000000
325.683000	-0.000000
325.856000	-0.000000
326.030000	-0.000000
326.204000	-0.000000
326.378000	-0.000000
326.552000	-0.000000
326.725000	-0.000000
326.899000	-0.000000
327.073000	-0.000000
327.247000	-0.000000
327.421000	0.000000
327.594000	-0.000000
327.768000	-0.000000
327.942000	-0.000000
328.116000	0.000000
328.289000	0.000000
328.463000	0.000000
328.637000	0.000000
328.811000	-0.000000
328.985000	-0.000000
329.158000	-0.000000
329.332000	-0.000000
329.506000	0.000000
329.680000	0.000000
329.854000	-0.000000
330.027000	0.000000
330.201000	0.000000
330.375000	0.000000
330.549000	0.000000
330.723000	-0.000000
330.896000	-0.000000
331.070000	-0.000000
331.244000	-0.000000
331.418000	-0.000000
331.591000	-0.000000
331.765000	-0.000000
331.939000	0.000000
332.113000	-0.000000
332.287000	-0.000000
332.460000	0.000000
332.634000	0.000000
332.808000	-0.000000
332.982000	-0.000000
333.156000	-0.000000
333.329000	0.000000
333.503000	-0.000000
333.677000	-0.000000
333.851000	-0.000000
334.024000	-0.000000
334.198000	0.000000
334.372000	-0.000000
334.546000	-0.000000
334.720000	-0.000000
334.893000	-0.000000
335.067000	-0.000000
335.241000	-0.000000
335.415000	-0.000000
335.589000	-0.000000
335.762000	-0.000000
335.936000	-0.000000
336.110000	-0.000000
336.284000	-0.000000
336.458000	0.000000
336.631000	0.000000
336.805000	-0.000000
336.979000	-0.000000
337.153000	-0.000000
337.326000	-0.000000
337.500000	-0.000000
337.674000	-0.000000
337.848000	-0.000000
338.022000	0.000000
338.195000	-0.000000
338.369000	-0.000000
338.543000	-0.000000
338.717000	-0.000000
338.891000	0.000000
339.064000	0.000000
339.238000	-0.000000
339.412000	-0.000000
339.586000	-0.000000
339.759000	-0.000000
339.933000	-0.000000
340.107000	0.000000
340.281000	-0.000000
340.455000	-0.000000
340.628000	-0.000000
340.802000	-0.000000
340.976000	-0.000000
341.150000	-0.000000
341.324000	-0.000000
341.497000	-0.000000
341.671000	-0.000000
341.845000	-0.000000
342.019000	-0.000000
342.192000	-0.000000
342.366000	-0.000000
342.540000	-0.000000
342.714000	-0.000000
342.888000	-0.000000
343.061000	0.000000
343.235000	0.000000
343.409000	-0.000000
343.583000	-0.000000
343.757000	-0.000000
343.930000	-0.000000
344.104000	-0.000000
344.278000	0.000000
344.452000	0.000000
344.626000	-0.000000
344.799000	-0.000000
344.973000	-0.000000
345.147000	-0.000000
345.321000	-0.000000
345.494000	-0.000000
345.668000	0.000000
345.842000	0.000000
346.016000	-0.000000
346.190000	0.000000
346.363000	-0.000000
346.537000	-0.000000
346.711000	-0.000000
346.885000	-0.000000
347.059000	-0.000000
347.232000	-0.000000
347.406000	0.000000
347.580000	-0.000000
347.754000	-0.000000
347.927000	-0.000000
348.101000	0.000000
348.275000	-0.000000
348.449000	-0.000000
348.623000	-0.000000
348.796000	0.000000
348.970000	0.000000
349.144000	-0.000000
349.318000	-0.000000
349.492000	-0.000000
349.665000	-0.000000
349.839000	-0.000000
350.013000	-0.000000
350.187000	-0.000000
350.361000	-0.000000
350.534000	0.000000
350.708000	0.000000
350.882000	-0.000000
351.056000	0.000000
351.229000	0.000000
351.403000	0.000000
351.577000	-0.000000
351.751000	-0.000000
351.925000	-0.000000
352.098000	-0.000000
352.272000	-0.000000
352.446000	-0.000000
352.620000	-0.000000
352.794000	0.000000
352.967000	-0.000000
353.141000	0.000000
353.315000	0.000000
353.489000	-0.000000
353.662000	-0.000000
353.836000	-0.000000
354.010000	-0.000000
354.184000	-0.000000
354.358000	-0.000000
354.531000	-0.000000
354.705000	-0.000000
354.879000	0.000000
355.053000	0.000000
355.227000	0.000000
355.400000	-0.000000
355.574000	-0.000000
355.748000	0.000000
355.922000	-0.000000
356.095000	-0.000000
356.269000	-0.000000
356.443000	-0.000000
356.617000	-0.000000
356.791000	-0.000000
356.964000	-0.000000
357.138000	-0.000000
357.312000	-0.000000
357.486000	-0.000000
357.660000	-0.000000
357.833000	-0.000000
358.007000	-0.000000
358.181000	-0.000000
358.355000	-0.000000
358.529000	-0.000000
358.702000	-0.000000
358.876000	-0.000000
359.050000	-0.000000
359.224000	-0.000000
359.397000	0.000000
359.571000	-0.000000
359.745000	-0.000000
359.919000	-0.000000
360.093000	-0.182548
360.266000	0.063083
360.440000	0.188915
360.614000	0.112711
360.788000	-0.075316
360.962000	-0.227312
361.135000	-0.062509
361.309000	-0.286127
361.483000	-0.349978
361.657000	-0.256711
361.830000	-0.238609
362.004000	-0.018560
362.178000	-0.293795
362.352000	-0.315689
362.526000	-0.119859
362.699000	-0.092879
362.873000	-0.353397
363.047000	-0.340015
363.221000	-0.281243
363.395000	-0.182398
363.568000	-0.224425
363.742000	-0.260012
363.916000	-0.223852
364.090000	-0.367595
364.263000	-0.375082
364.437000	-0.497746
364.611000	-0.177361
364.785000	-0.042172
364.959000	-0.154847
365.132000	-0.238051
365.306000	-0.244190
365.480000	-0.098846
365.656000	-0.205916
365.831000	-0.332496
366.007000	-0.247566
366.183000	-0.146735
366.358000	-0.292045
366.534000	-0.198145
366.710000	-0.484638
366.886000	-0.446357
367.061000	-0.057942
367.237000	0.237460
367.413000	0.001477
367.588000	-0.270229
367.764000	-0.238079
367.940000	-0.355936
368.115000	-0.350196
368.291000	-0.463121
368.467000	-0.302624
368.643000	0.203575
368.818000	-0.187591
368.994000	-0.306313
369.170000	-0.135802
369.345000	-0.125745
369.521000	-0.308493
369.697000	-0.060684
369.872000	-0.152101
370.048000	-0.399726
370.224000	-0.289738
370.399000	-0.427687
370.575000	-0.194564
370.751000	-0.443309
370.927000	-0.371560
371.102000	-0.241149
371.278000	-0.263316
371.454000	-0.366370
371.629000	0.032502
371.805000	0.017008
371.981000	-0.014081
372.156000	0.242363
372.332000	0.062351
372.508000	0.040231
372.683000	-0.075370
372.859000	-0.192090
373.035000	-0.092379
373.211000	0.197959
373.386000	0.001567
373.562000	-0.349799
373.738000	-0.298109
373.913000	-0.573296
374.089000	-0.535912
374.265000	-0.233071
374.440000	-0.077327
374.616000	0.040942
374.792000	-0.243577
374.968000	0.108924
375.143000	-0.122004
375.319000	-0.358373
375.495000	-0.276321
375.670000	-0.267765
375.846000	-0.130369
376.022000	-0.280715
376.197000	-0.138424
376.373000	-0.327302
376.549000	-0.272832
376.724000	-0.515637
376.900000	-0.432070
377.076000	-0.326671
377.252000	-0.043396
377.427000	0.137034
377.603000	-0.333842
377.779000	-0.295841
377.954000	-0.418994
378.130000	-0.290652
378.306000	-0.210272
378.481000	-0.164212
378.657000	-0.245813
378.833000	-0.163101
379.009000	-0.044004
379.184000	-0.058910
379.360000	-0.050908
379.536000	-0.104169
379.711000	-0.190313
379.887000	-0.278249
380.063000	-0.394990
380.238000	-0.420369
380.414000	-0.155804
380.590000	-0.444715
380.765000	-0.330242
380.941000	-0.058153
381.117000	0.008890
381.293000	-0.050257
381.468000	-0.210481
381.644000	-0.169116
381.820000	-0.154416
381.995000	-0.005997
382.171000	0.250063
382.347000	0.106825
382.522000	-0.409942
382.698000	0.008932
382.874000	0.031214
383.050000	-0.350119
383.225000	0.038840
383.401000	0.188841
383.577000	-0.126788
383.752000	-0.398191
383.928000	-0.242218
384.104000	-0.119602
384.279000	-0.180304
384.455000	-0.219381
384.631000	-0.204957
384.806000	-0.336180
384.982000	-0.160909
385.158000	-0.318641
385.334000	-0.101168
385.509000	-0.020612
385.685000	-0.342468
385.861000	-0.215372
386.036000	-0.352533
386.212000	-0.664959
386.388000	-0.364187
386.563000	-0.283205
386.739000	-0.286201
386.915000	-0.441099
387.090000	-0.213800
387.266000	-0.094692
387.442000	0.001478
387.618000	-0.071858
387.793000	-0.390481
387.969000	-0.612032
388.145000	-0.396533
388.320000	-0.426451
388.496000	-0.412795
388.672000	-0.742815
388.847000	-0.224752
389.023000	-0.138069
389.199000	-0.382411
389.375000	-0.158643
389.550000	-0.381322
389.726000	-0.215761
389.902000	-0.423230
390.077000	-0.370828
390.253000	-0.275280
390.429000	-0.218293
390.604000	-0.122213
390.780000	-0.136082
390.956000	-0.235585
391.131000	-0.285316
391.307000	-0.005739
391.483000	-0.177842
391.659000	-0.336704
391.834000	-0.170495
392.010000	-0.291881
392.186000	-0.399607
392.361000	-0.235402
392.537000	-0.332647
392.713000	0.198970
392.888000	0.220464
393.064000	-0.197143
393.240000	-0.203719
393.416000	-0.251677
393.591000	-0.437596
393.767000	-0.531329
393.943000	-0.454519
394.118000	-0.145085
394.294000	0.105953
394.470000	-0.040326
394.645000	0.042970
394.821000	0.224460
394.997000	-0.130234
395.172000	-0.164002
395.348000	-0.198847
395.524000	-0.515678
395.700000	-0.429573
395.875000	-0.108076
396.051000	-0.148923
396.227000	-0.315207
396.402000	-0.289206
396.578000	-0.247060
396.754000	-0.321220
396.929000	-0.251455
397.105000	-0.114623
397.281000	-0.210076
397.457000	-0.338679
397.632000	-0.173611
397.808000	-0.486228
397.984000	-0.671021
398.159000	-0.631378
398.335000	-0.351651
398.511000	0.224967
398.686000	0.001354
398.862000	-0.307927
399.038000	-0.421135
399.213000	-0.178874
399.389000	-0.442384
399.565000	-0.159562
399.741000	0.054914
399.916000	-0.133877
400.092000	0.283940
400.268000	-0.098761
400.443000	-0.248497
400.619000	0.055268
400.795000	-0.066295
400.970000	-0.245651
401.146000	-0.454356
401.322000	-0.133585
401.497000	0.345178
401.673000	-0.005421
401.849000	-0.349860
402.025000	-0.032282
402.200000	-0.139509
402.376000	-0.327165
402.552000	0.021542
402.727000	-0.139369
402.903000	-0.399842
403.079000	-0.286367
403.254000	-0.105806
403.430000	-0.091796
403.606000	-0.138588
403.782000	-0.165032
403.957000	-0.385724
404.133000	-0.500462
404.309000	-0.406668
404.484000	-0.198609
404.660000	-0.205847
404.841000	-0.292910
405.023000	-0.065179
405.204000	-0.192112
405.385000	-0.467736
405.566000	-0.432278
405.748000	-0.322197
405.929000	-0.140903
406.110000	-0.032140
406.292000	-0.117997
406.473000	-0.124934
406.654000	-0.367063
406.835000	-0.272353
407.017000	-0.277975
407.198000	-0.353786
407.379000	-0.234769
407.560000	-0.215769
407.742000	-0.310254
407.923000	-0.211983
408.104000	-0.297225
408.286000	-0.217171
408.467000	-0.262866
408.648000	-0.422679
408.829000	-0.348573
409.011000	-0.196978
409.192000	-0.423363
409.373000	-0.204107
409.555000	-0.137862
409.736000	-0.130354
409.917000	-0.190311
410.098000	-0.202180
410.280000	-0.155099
410.461000	-0.239391
410.642000	-0.148592
410.823000	0.099025
411.005000	-0.109589
411.186000	-0.227157
411.367000	-0.292684
411.549000	-0.299001
411.730000	-0.129226
411.911000	-0.024759
412.092000	-0.239057
412.274000	-0.134101
412.455000	0.085279
412.636000	-0.056905
412.818000	-0.320748
412.999000	-0.414536
413.180000	-0.352682
413.361000	-0.302317
413.543000	-0.397081
413.724000	-0.453743
413.905000	-0.280715
414.087000	-0.351948
414.268000	-0.475131
414.449000	-0.482383
414.630000	-0.465092
414.812000	-0.585287
414.993000	-0.251573
415.174000	-0.030355
415.355000	-0.297788
415.537000	-0.568868
415.718000	-0.182631
415.899000	-0.384405
416.081000	-0.426899
416.262000	-0.193532
416.443000	-0.412419
416.624000	-0.373945
416.806000	-0.268155
416.987000	-0.112057
417.168000	-0.286599
417.350000	-0.380375
417.531000	-0.216406
417.712000	-0.284787
417.893000	-0.048483
418.075000	-0.054494
418.256000	-0.303070
418.437000	-0.254407
418.618000	-0.085739
418.800000	-0.035979
418.981000	-0.276525
419.162000	-0.145958
419.344000	-0.035803
419.525000	-0.166329
419.706000	-0.241071
419.887000	-0.073168
420.069000	0.063181
420.250000	-0.073072
420.431000	-0.227332
420.613000	-0.160135
420.794000	-0.315901
420.975000	-0.004923
421.156000	-0.257744
421.338000	-0.269856
421.519000	-0.319080
421.700000	-0.406520
421.882000	-0.350855
422.063000	-0.122005
422.244000	0.326155
422.425000	0.062772
422.607000	-0.378087
422.788000	-0.221591
422.969000	-0.342997
423.150000	-0.521861
423.332000	-0.544902
423.513000	-0.134198
423.694000	-0.091585
423.876000	-0.153002
424.057000	-0.091322
424.238000	0.044594
424.419000	0.044723
424.601000	-0.240980
424.782000	-0.215918
424.963000	-0.041841
425.145000	-0.214711
425.326000	-0.140069
425.507000	-0.053982
425.688000	-0.165236
425.870000	-0.339216
426.051000	-0.447555
426.232000	-0.349162
426.413000	-0.320299
426.595000	-0.386283
426.776000	-0.355364
426.957000	-0.276626
427.139000	-0.146336
427.320000	-0.264323
427.501000	-0.110357
427.682000	-0.085140
427.864000	0.062894
428.045000	0.217678
428.226000	0.069509
428.408000	-0.376976
428.589000	-0.091374
428.770000	-0.220524
428.951000	-0.447679
429.133000	-0.446345
429.314000	-0.255921
429.495000	-0.334399
429.677000	-0.200860
429.858000	-0.237860
430.039000	-0.213589
430.220000	-0.139962
430.402000	-0.059971
430.583000	-0.244126
430.764000	-0.175950
430.945000	-0.047746
431.127000	-0.047405
431.308000	-0.373873
431.489000	-0.108282
431.671000	-0.004887
431.852000	-0.120133
432.033000	-0.114078
432.214000	-0.023013
432.396000	-0.059193
432.577000	-0.198552
432.758000	-0.326538
432.940000	-0.265560
433.121000	-0.174430
433.302000	-0.185925
433.483000	-0.137360
433.665000	0.055456
433.846000	0.013259
434.027000	-0.142535
434.208000	-0.178234
434.390000	-0.304957
434.571000	-0.022821
434.752000	0.364832
434.934000	0.214618
435.115000	0.256758
435.296000	0.322033
435.477000	0.167061
435.659000	-0.045722
435.840000	-0.028223
436.026000	-0.186422
436.211000	-0.256489
436.397000	-0.442196
436.582000	-0.360540
436.768000	-0.132905
436.953000	-0.144368
437.139000	-0.138245
437.325000	0.145734
437.510000	0.134148
437.696000	0.249132
437.881000	0.214191
438.067000	-0.262198
438.252000	-0.159270
438.438000	-0.245034
438.624000	-0.290848
438.809000	-0.158515
438.995000	-0.038728
439.180000	-0.072675
439.366000	-0.186036
439.551000	-0.225438
439.737000	-0.049744
439.923000	0.012452
440.108000	-0.174104
440.294000	-0.190478
440.479000	-0.077493
440.665000	0.012274
440.850000	-0.048822
441.036000	-0.048934
441.222000	-0.121735
441.407000	-0.299404
441.593000	-0.059845
441.778000	0.089560
441.964000	0.162118
442.149000	-0.153758
442.335000	-0.263047
442.521000	-0.152816
442.706000	0.028469
442.892000	-0.037148
443.077000	-0.190746
443.263000	-0.097160
443.448000	-0.123892
443.634000	-0.189232
443.820000	0.114546
444.005000	-0.015119
444.191000	-0.356031
444.376000	-0.289732
444.562000	0.129528
444.747000	0.135585
444.933000	-0.095497
445.119000	-0.132733
445.304000	-0.250014
445.490000	-0.063063
445.675000	-0.073717
445.861000	-0.256020
446.046000	-0.169951
446.232000	-0.052303
446.418000	0.001066
446.603000	-0.121535
446.789000	-0.105430
446.974000	-0.057681
447.160000	-0.280980
447.345000	-0.231863
447.531000	-0.310996
447.717000	-0.046828
447.902000	0.059849
448.088000	0.038249
448.273000	-0.104643
448.459000	-0.125429
448.644000	-0.220411
448.830000	-0.284747
449.016000	-0.369122
449.201000	-0.268264
449.387000	-0.163014
449.572000	-0.078097
449.758000	-0.199333
449.943000	-0.262989
450.129000	-0.330318
450.315000	-0.224698
450.500000	-0.298457
450.686000	-0.183193
450.871000	-0.304561
451.057000	-0.214616
451.243000	-0.198606
451.428000	-0.104172
451.614000	-0.088179
451.799000	-0.203530
451.985000	0.016779
452.170000	0.079622
452.356000	-0.119348
452.542000	-0.124732
452.727000	-0.108666
452.913000	-0.187340
453.098000	0.021976
453.284000	0.173651
453.469000	-0.072265
453.655000	0.168327
453.841000	0.115869
454.026000	-0.128873
454.212000	-0.066325
454.397000	-0.019717
454.583000	-0.135033
454.768000	-0.212376
454.954000	0.032078
455.140000	0.094006
455.325000	-0.132956
455.511000	-0.252705
455.696000	-0.237192
455.882000	-0.102312
456.067000	0.171635
456.253000	-0.050667
456.439000	-0.283278
456.624000	-0.205062
456.810000	-0.204498
456.995000	-0.240789
457.181000	-0.250417
457.366000	-0.090876
457.552000	-0.039659
457.738000	0.041646
457.923000	0.006105
458.109000	0.194940
458.294000	0.108078
458.480000	0.021438
458.665000	-0.024428
458.851000	-0.095507
459.037000	-0.241216
459.222000	-0.054505
459.408000	-0.150396
459.593000	-0.114513
459.779000	0.121155
459.964000	0.306932
460.150000	0.317525
460.336000	0.221841
460.521000	0.080746
460.707000	-0.088515
460.892000	-0.331533
461.078000	-0.028853
461.263000	0.179278
461.449000	0.030815
461.635000	-0.118162
461.820000	-0.043603
462.006000	0.005921
462.191000	0.025561
462.377000	-0.180363
462.562000	0.138654
462.748000	0.270720
462.934000	-0.097221
463.119000	-0.199410
463.305000	0.044773
463.490000	-0.076521
463.676000	-0.047583
463.861000	-0.067298
464.047000	-0.178893
464.233000	-0.095620
464.418000	-0.056924
464.604000	-0.172323
464.789000	-0.027939
464.975000	0.005762
465.160000	-0.061566
465.346000	-0.119216
465.532000	-0.148274
465.717000	-0.176871
465.903000	-0.027832
466.088000	-0.070932
466.274000	-0.165936
466.459000	-0.142259
466.645000	0.220854
466.831000	0.181465
467.016000	0.114771
467.202000	0.039064
467.387000	-0.065556
467.573000	-0.202499
467.758000	0.052767
467.944000	-0.064986
468.130000	-0.155258
468.315000	0.062516
468.501000	0.241621
468.686000	0.104511
468.872000	0.076291
469.057000	0.109227
469.243000	0.052804
469.429000	-0.032036
469.614000	-0.017859
469.800000	-0.177660
469.985000	0.057161
470.171000	0.136302
470.356000	-0.041230
470.542000	-0.027278
470.728000	-0.031871
470.913000	0.047569
471.099000	0.205992
471.284000	0.052569
471.470000	-0.017862
471.655000	0.043251
471.841000	-0.022494
472.027000	-0.045680
472.212000	0.224861
472.398000	0.272404
472.583000	0.029050
472.769000	0.066658
472.954000	0.174354
473.140000	-0.064403
473.326000	-0.111214
473.511000	0.178141
473.697000	0.239046
473.882000	0.099388
474.068000	0.043213
474.253000	-0.097280
474.439000	0.010306
474.625000	0.113154
474.810000	0.155347
474.996000	0.136630
475.181000	-0.041024
475.367000	0.234265
475.552000	0.489035
475.738000	0.024267
475.924000	0.057063
476.109000	0.117821
476.295000	-0.013098
476.480000	0.094591
476.666000	0.108475
476.851000	0.164495
477.037000	0.118379
477.223000	0.052406
477.408000	-0.017786
477.594000	-0.125317
477.779000	0.033736
477.965000	0.141555
478.151000	-0.031867
478.336000	0.113512
478.522000	0.174074
478.707000	0.099193
478.893000	0.150973
479.078000	-0.050762
479.264000	-0.111893
479.450000	0.019754
479.635000	0.235785
479.821000	0.165621
480.006000	0.231318
480.192000	0.184127
480.377000	0.217479
480.563000	0.306618
480.749000	0.015058
480.934000	0.080853
481.120000	0.267897
481.305000	0.309620
481.491000	0.301489
481.676000	0.292755
481.862000	0.298148
482.048000	0.160469
482.233000	0.225890
482.419000	0.287463
482.604000	0.221931
482.790000	0.212532
482.975000	0.288031
483.161000	0.404477
483.347000	0.417883
483.532000	0.460138
483.718000	0.273610
483.903000	0.297534
484.089000	0.414228
484.274000	0.291660
484.460000	0.442596
484.646000	0.433236
484.831000	0.278373
485.017000	0.385313
485.202000	0.468796
485.388000	0.725640
485.573000	0.752209
485.759000	0.562310
485.945000	0.712158
486.130000	0.529272
486.316000	0.520121
486.501000	0.663360
486.687000	0.429504
486.872000	0.373942
487.058000	0.724120
487.244000	0.766586
487.429000	0.582814
487.615000	0.648104
487.800000	0.722478
487.986000	0.645529
488.171000	0.721393
488.357000	0.737483
488.543000	0.767107
488.728000	0.882782
488.914000	0.749374
489.099000	0.665811
489.285000	0.683792
489.470000	0.870783
489.656000	0.885251
489.842000	0.858913
490.027000	1.053008
490.213000	0.953962
490.398000	0.699109
490.584000	0.985043
490.769000	1.021659
490.955000	1.047314
491.141000	1.108834
491.326000	1.100411
491.512000	1.272470
491.697000	1.192823
491.883000	1.057294
492.068000	1.080097
492.254000	1.118361
492.440000	1.167634
492.625000	1.127953
492.811000	1.125672
492.996000	1.318097
493.182000	1.277925
493.367000	1.114717
493.553000	1.160131
493.739000	1.279992
493.924000	1.430253
494.110000	1.407746
494.295000	1.381062
494.481000	1.598120
494.666000	1.590274
494.852000	1.704281
495.038000	1.624737
495.223000	1.528603
495.409000	1.623344
495.594000	1.585738
495.780000	1.666451
495.965000	1.672604
496.151000	1.880417
496.337000	2.021392
496.522000	1.818076
496.708000	1.953992
496.893000	2.158990
497.079000	2.095723
497.264000	2.016255
497.450000	2.074768
497.636000	2.210002
497.821000	2.075688
498.007000	2.284121
498.192000	2.350463
498.378000	2.372993
498.563000	2.355978
498.749000	2.380622
498.935000	2.425882
499.120000	2.521898
499.306000	2.445643
499.491000	2.514254
499.677000	2.566564
499.862000	2.687306
500.048000	2.807684
500.234000	2.734037
500.419000	2.827925
500.605000	3.048441
500.790000	3.005062
500.976000	2.992089
501.161000	2.977935
501.347000	3.195854
501.533000	3.278047
501.718000	3.155963
501.904000	3.207922
502.089000	3.377987
502.275000	3.556340
502.460000	3.488115
502.646000	3.603322
502.832000	3.747653
503.017000	3.781975
503.203000	3.662253
503.388000	3.684473
503.574000	3.938205
503.759000	3.986236
503.945000	4.104798
504.131000	4.077958
504.316000	4.084412
504.502000	4.242396
504.687000	4.249242
504.873000	4.144005
505.058000	4.188319
505.244000	4.299364
505.430000	4.442188
505.615000	4.645665
505.801000	4.780189
505.986000	4.627128
506.172000	4.768989
506.358000	4.793346
506.543000	4.817710
506.729000	5.081371
506.914000	5.020445
507.100000	5.336013
507.285000	5.159326
507.471000	5.144532
507.657000	5.388172
507.842000	5.335580
508.028000	5.230697
508.213000	5.379701
508.399000	5.490747
508.584000	5.691647
508.770000	5.554564
508.956000	5.531679
509.141000	5.681008
509.327000	5.970044
509.512000	5.833219
509.698000	5.787653
509.883000	5.972061
510.069000	5.969920
510.255000	6.027315
510.440000	6.254006
510.626000	6.287292
510.811000	6.186624
510.997000	6.265687
511.182000	6.491161
511.368000	6.402201
511.554000	6.131459
511.739000	6.269223
511.925000	6.414985
512.110000	6.413521
512.296000	6.718246
512.481000	6.719229
512.667000	6.621121
512.853000	6.425221
513.038000	6.576487
513.224000	6.582679
513.409000	6.545284
513.595000	6.698323
513.780000	6.474390
513.966000	6.495432
514.152000	6.569580
514.337000	6.471347
514.523000	6.526966
514.708000	6.694319
514.894000	6.763427
515.079000	6.425208
515.265000	6.525518
515.451000	6.574261
515.636000	6.500433
515.822000	6.706577
516.007000	6.509561
516.193000	6.691834
516.378000	6.860023
516.564000	6.578470
516.750000	6.539307
516.935000	6.620933
517.121000	6.628878
517.306000	6.750180
517.492000	6.686460
517.677000	6.475974
517.863000	6.421827
518.049000	6.511488
518.234000	6.405152
518.420000	6.551610
518.605000	6.692410
518.791000	6.439999
518.976000	6.340519
519.162000	6.093155
519.348000	6.247005
519.533000	6.182535
519.719000	6.442953
519.904000	6.366964
520.090000	6.132440
520.275000	6.298247
520.461000	6.185733
520.647000	5.855943
520.832000	5.709364
521.018000	5.833414
521.203000	5.722048
521.389000	5.487372
521.574000	5.571461
521.760000	5.689735
521.946000	5.702388
522.131000	5.554220
522.317000	5.429848
522.502000	5.432150
522.688000	5.485507
522.873000	5.360870
523.059000	5.257942
523.245000	5.271570
523.430000	5.004418
523.616000	4.998376
523.801000	4.930651
523.987000	4.958121
524.172000	5.232185
524.358000	5.150609
524.544000	4.998081
524.729000	5.105362
524.915000	4.987468
525.100000	4.818269
525.286000	4.825395
525.471000	4.745711
525.657000	4.666545
525.843000	4.461622
526.028000	4.586424
526.214000	4.453738
526.399000	4.311812
526.585000	4.120322
526.770000	4.016629
526.956000	4.224187
527.142000	4.138788
527.327000	4.176515
527.513000	4.007291
527.698000	3.940994
527.884000	3.997970
528.069000	4.046642
528.255000	4.099279
528.441000	3.928865
528.626000	3.826865
528.812000	4.075482
528.997000	3.817248
529.183000	3.606325
529.368000	3.771203
529.554000	3.747651
529.740000	3.719775
529.925000	3.662905
530.111000	3.561114
530.296000	3.518196
530.482000	3.652420
530.667000	3.513773
530.853000	3.626810
531.039000	3.459849
531.224000	3.473555
531.410000	3.599434
531.595000	3.377985
531.781000	3.393165
531.967000	3.141781
532.152000	3.166384
532.338000	3.019532
532.523000	2.936170
532.709000	2.927150
532.894000	2.971512
533.080000	3.074659
533.266000	2.881908
533.451000	2.847440
533.637000	2.801294
533.822000	2.908519
534.008000	2.673581
534.193000	2.871120
534.379000	2.886523
534.565000	2.693781
534.750000	2.585804
534.936000	2.889065
535.121000	2.731365
535.307000	2.663712
535.492000	2.502288
535.678000	2.308863
535.864000	2.513993
536.049000	2.749647
536.235000	2.425878
536.420000	2.505822
536.606000	2.396166
536.791000	2.234095
536.977000	2.228975
537.163000	2.425804
537.348000	2.385923
537.534000	2.440015
537.719000	2.189599
537.905000	2.154296
538.090000	2.267331
538.276000	2.275334
538.462000	2.188591
538.647000	2.208577
538.833000	2.092073
539.018000	2.113089
539.204000	2.024619
539.389000	1.834751
539.575000	2.232769
539.761000	2.158528
539.946000	1.871313
540.132000	1.895821
540.317000	1.647924
540.503000	1.968845
540.688000	2.085764
540.874000	2.261021
541.060000	2.248627
541.245000	2.060287
541.431000	1.850842
541.616000	1.908904
541.802000	1.798570
541.987000	1.862811
542.173000	1.858061
542.359000	1.729583
542.544000	1.869407
542.730000	1.549356
542.915000	1.481471
543.101000	1.745113
543.286000	1.503368
543.472000	1.458553
543.658000	1.676563
543.843000	1.602157
544.029000	1.698213
544.214000	1.712531
544.400000	1.246655
544.585000	1.334636
544.771000	1.308463
544.957000	1.513309
545.142000	1.673854
545.328000	1.653685
545.513000	1.712159
545.699000	1.707184
545.884000	1.491866
546.070000	1.436857
546.261000	1.330304
546.451000	1.166225
546.642000	0.893654
546.833000	1.113993
547.023000	1.163739
547.214000	1.174722
547.405000	1.193328
547.595000	1.427307
547.786000	1.243613
547.977000	0.854943
548.167000	0.874649
548.358000	1.012002
548.549000	1.207131
548.740000	1.168849
548.930000	0.875666
549.121000	0.807775
549.312000	0.624533
549.502000	0.716213
549.693000	0.876523
549.884000	0.883226
550.074000	0.925097
550.265000	0.726554
550.456000	0.864637
550.646000	0.944766
550.837000	0.769354
551.028000	0.692173
551.218000	0.887471
551.409000	0.649206
551.600000	0.571159
551.790000	0.810142
551.981000	0.698319
552.172000	0.752323
552.362000	1.041733
552.553000	1.033790
552.744000	0.748702
552.934000	0.775827
553.125000	0.644582
553.316000	0.591906
553.506000	0.978794
553.697000	0.915694
553.888000	0.987373
554.079000	1.088163
554.269000	0.808932
554.460000	0.476414
554.651000	0.537187
554.841000	0.303094
555.032000	0.390864
555.223000	0.599896
555.413000	0.650806
555.604000	0.579603
555.795000	0.540675
555.985000	0.710672
556.176000	0.567772
556.367000	0.277757
556.557000	0.285447
556.748000	0.421551
556.939000	0.495337
557.129000	0.427307
557.320000	0.569646
557.511000	0.467292
557.701000	0.365422
557.892000	0.339812
558.083000	0.576105
558.273000	0.495056
558.464000	0.440977
558.655000	0.420325
558.845000	0.446040
559.036000	0.662119
559.227000	0.561394
559.418000	0.650307
559.608000	0.589234
559.799000	0.237560
559.990000	0.155741
560.180000	0.256772
560.371000	0.109058
560.562000	0.149222
560.752000	0.445385
560.943000	0.317702
561.134000	0.061759
561.324000	0.269533
561.515000	0.610342
561.706000	0.389930
561.896000	0.108301
562.087000	0.201668
562.278000	0.261665
562.468000	0.121608
562.659000	0.094622
562.850000	0.528088
563.040000	0.568095
563.231000	-0.032030
563.422000	0.154305
563.612000	0.121183
563.803000	0.134255
563.994000	0.153454
564.185000	0.060751
564.375000	0.292204
564.566000	0.166394
564.757000	0.332390
564.947000	0.186499
565.138000	0.192458
565.329000	0.027627
565.519000	-0.038131
565.710000	0.100031
565.901000	0.258154
566.091000	0.330351
566.282000	0.099797
566.473000	0.217303
566.663000	0.203975
566.854000	-0.063815
567.045000	-0.011691
567.235000	0.189615
567.426000	0.209019
567.617000	0.150055
567.807000	0.124237
567.998000	0.065867
568.189000	-0.011621
568.379000	0.085002
568.570000	0.200634
568.761000	0.116790
568.951000	0.065350
569.142000	0.168085
569.333000	0.020529
569.524000	-0.069026
569.714000	-0.164881
569.905000	-0.311333
570.096000	0.218146
570.286000	0.211483
570.477000	0.287141
570.668000	0.178978
570.858000	0.255125
571.049000	0.083478
571.240000	0.070866
571.430000	0.115007
571.621000	0.114598
571.812000	0.245822
572.002000	0.183437
572.193000	0.013798
572.384000	0.070215
572.574000	0.070271
572.765000	0.070143
572.956000	0.069924
573.146000	0.307627
573.337000	0.088610
573.528000	0.057309
573.718000	0.175206
573.909000	0.348671
574.100000	0.180513
574.290000	0.001232
574.481000	0.025824
574.672000	0.167430
574.863000	0.332298
575.053000	0.178685
575.244000	0.178261
575.435000	-0.059770
575.625000	-0.071650
575.816000	-0.029110
576.007000	0.055794
576.197000	0.122697
576.388000	0.104068
576.579000	0.176616
576.769000	0.188494
576.960000	-0.047088
577.155000	-0.179402
577.350000	0.097407
577.545000	0.193252
577.740000	-0.022739
577.935000	0.395311
578.130000	0.222311
578.326000	-0.141798
578.521000	0.167934
578.716000	0.244220
578.911000	-0.016579
579.106000	0.036573
579.301000	0.165841
579.496000	0.036347
579.691000	-0.262411
579.886000	-0.109832
580.081000	0.094497
580.276000	0.105903
580.471000	0.030253
580.666000	-0.126609
580.861000	-0.155593
581.057000	-0.213788
581.252000	-0.097622
581.447000	-0.039425
581.642000	0.006969
581.837000	-0.004640
582.032000	0.064772
582.227000	0.179389
582.422000	0.138882
582.617000	-0.050273
582.812000	-0.215392
583.007000	-0.158324
583.202000	-0.288780
583.397000	0.074775
583.592000	0.357385
583.788000	-0.004509
583.983000	0.113755
584.178000	0.085462
584.373000	-0.139020
584.568000	-0.043632
584.763000	-0.144463
584.958000	-0.138854
585.153000	0.062713
585.348000	-0.060440
585.543000	0.152375
585.738000	0.034717
585.933000	-0.172508
586.128000	0.146692
586.324000	0.231279
586.519000	0.214282
586.714000	0.276205
586.909000	0.248577
587.104000	0.328402
587.299000	0.220559
587.494000	0.152833
587.689000	0.023646
587.884000	0.029364
588.079000	-0.123110
588.274000	-0.015841
588.469000	-0.015810
588.664000	0.080284
588.859000	0.165328
589.055000	0.199529
589.250000	0.006805
589.445000	-0.078357
589.640000	0.006819
589.835000	0.297341
590.030000	0.445310
590.225000	0.405523
590.420000	0.138023
590.615000	0.200941
590.810000	0.183610
591.005000	0.361853
591.200000	0.270356
591.395000	0.218772
591.591000	0.235547
591.786000	0.406721
591.981000	0.350631
592.176000	0.357087
592.371000	0.489318
592.566000	0.437312
592.761000	0.586442
592.956000	0.564442
593.151000	0.685491
593.346000	0.554756
593.541000	0.640594
593.736000	0.717686
593.931000	0.579254
594.126000	0.713272
594.322000	0.765348
594.517000	0.695734
594.712000	0.655505
594.907000	0.727602
595.102000	0.821665
595.297000	1.013037
595.492000	1.224995
595.687000	0.982193
595.882000	0.959319
596.077000	1.171914
596.272000	1.411632
596.467000	1.570160
596.662000	1.454491
596.857000	1.472064
597.053000	1.562945
597.248000	1.721321
597.443000	1.794391
597.638000	1.828282
597.833000	1.693897
598.028000	1.951839
598.223000	2.157023
598.418000	2.166807
598.613000	2.184320
598.808000	2.221622
599.003000	2.265623
599.198000	2.113761
599.393000	2.279698
599.589000	2.512588
599.784000	2.460608
599.979000	2.661523
600.174000	2.986412
600.369000	2.791909
600.564000	2.885473
600.759000	3.297082
600.954000	3.507294
601.149000	3.385779
601.344000	3.130458
601.539000	3.604058
601.734000	3.629432
601.929000	3.397286
602.124000	3.508797
602.320000	3.980551
602.515000	4.422728
602.710000	4.298519
602.905000	4.043386
603.100000	4.290999
603.295000	4.317073
603.490000	4.499648
603.685000	4.761853
603.880000	4.877227
604.075000	4.846850
604.270000	4.899931
604.465000	5.036765
604.660000	4.955209
604.856000	5.287684
605.051000	5.695865
605.246000	5.838024
605.441000	5.774951
605.636000	5.807225
605.831000	6.081731
606.026000	6.201867
606.221000	6.234922
606.416000	6.624154
606.611000	7.030911
606.806000	7.208993
607.001000	7.489206
607.196000	7.385216
607.391000	7.463420
607.587000	7.806346
607.782000	7.847632
607.977000	7.761135
608.172000	8.460902
608.367000	8.721059
608.562000	8.583239
608.757000	8.667391
608.952000	8.911587
609.147000	9.304455
609.342000	9.511812
609.537000	9.678932
609.732000	9.925337
609.927000	9.992946
610.122000	10.234819
610.318000	10.794826
610.513000	11.213138
610.708000	11.294203
610.903000	11.526187
611.098000	11.852263
611.293000	11.968577
611.488000	12.146123
611.683000	12.312175
611.878000	12.580385
612.073000	13.182220
612.268000	13.524413
612.463000	13.820084
612.658000	14.028816
612.854000	14.381199
613.049000	14.470009
613.244000	14.820600
613.439000	15.257504
613.634000	15.384500
613.829000	15.872193
614.024000	15.941683
614.219000	16.302610
614.414000	17.308161
614.609000	17.199786
614.804000	17.051010
614.999000	17.488587
615.194000	18.033164
615.389000	18.682204
615.585000	18.857671
615.780000	19.413020
615.975000	19.831502
616.170000	20.071236
616.365000	20.704202
616.560000	21.208136
616.755000	21.486212
616.950000	21.955339
617.145000	22.571873
617.340000	22.917847
617.535000	23.092622
617.730000	23.695849
617.925000	23.929556
618.120000	24.243033
618.316000	25.183165
618.511000	25.728916
618.706000	26.009765
618.901000	26.323832
619.096000	27.121017
619.291000	27.517688
619.486000	28.165004
619.681000	28.193672
619.876000	28.689121
620.071000	29.473048
620.266000	30.305261
620.461000	30.995645
620.656000	31.564535
620.852000	32.161207
621.047000	32.538854
621.242000	32.834629
621.437000	33.780032
621.632000	34.654538
621.827000	35.134060
622.022000	35.281516
622.217000	35.954233
622.412000	36.880349
622.607000	37.588924
622.802000	37.837301
622.997000	38.691942
623.192000	39.607191
623.387000	39.973651
623.583000	40.127178
623.778000	41.500662
623.973000	42.193673
624.168000	42.538729
624.363000	43.098583
624.558000	43.968894
624.753000	44.438021
624.948000	45.554850
625.143000	46.478224
625.338000	46.872072
625.533000	47.414932
625.728000	48.482902
625.923000	49.057232
626.119000	49.419048
626.314000	50.245999
626.509000	51.472729
626.704000	52.350826
626.899000	53.236030
627.094000	54.012218
627.289000	54.310518
627.484000	55.290504
627.679000	56.255772
627.874000	57.112393
628.069000	58.065056
628.264000	58.320686
628.459000	59.082392
628.654000	59.958119
628.850000	60.838135
629.045000	61.555297
629.240000	62.309220
629.435000	62.949205
629.630000	63.649329
629.825000	64.420062
630.020000	64.930155
630.215000	64.894705
630.410000	65.737306
630.605000	66.748703
630.800000	67.138661
630.995000	67.461157
631.190000	67.828566
631.385000	68.343460
631.581000	68.445777
631.776000	68.547136
631.971000	68.371628
632.166000	68.445962
632.361000	68.018442
632.556000	68.106271
632.751000	68.123046
632.946000	67.716276
633.141000	66.974423
633.336000	66.546261
633.531000	65.762491
633.726000	65.008326
633.921000	64.561295
634.117000	63.660303
634.312000	62.752806
634.507000	61.980723
634.702000	61.073179
634.897000	59.741038
635.092000	58.890759
635.287000	57.999886
635.482000	56.476657
635.677000	55.139324
635.872000	53.633265
636.067000	52.054826
636.262000	50.653820
636.457000	48.851035
636.652000	47.443771
636.848000	46.348804
637.043000	45.224345
637.238000	43.736059
637.433000	41.587608
637.628000	40.363140
637.823000	39.228078
638.018000	38.091797
638.213000	36.939536
638.408000	35.727787
638.603000	33.869234
638.798000	32.630641
638.993000	31.914602
639.188000	30.665461
639.383000	29.514301
639.579000	28.666221
639.774000	27.590041
639.969000	26.222707
640.164000	25.161700
640.359000	24.443306
640.554000	23.551380
640.749000	22.813677
640.944000	22.275422
641.139000	21.218917
641.334000	20.275062
641.529000	19.261787
641.724000	18.734735
641.919000	18.439992
642.115000	18.203800
642.310000	17.430852
642.505000	16.530214
642.700000	15.897817
642.895000	15.164625
643.090000	14.800426
643.285000	14.685144
643.480000	14.413150
643.675000	13.814024
643.870000	13.479348
644.065000	12.931117
644.260000	12.156715
644.455000	11.738011
644.650000	11.324621
644.846000	11.151047
645.041000	10.498659
645.236000	10.057059
645.431000	9.698842
645.626000	9.312637
645.821000	9.190191
646.016000	9.137619
646.211000	9.202602
646.406000	8.597956
646.601000	8.183206
646.796000	7.838963
646.991000	7.370199
647.186000	7.338613
647.381000	7.495134
647.577000	7.278412
647.772000	7.022919
647.967000	6.523853
648.162000	6.256420
648.357000	6.128343
648.552000	6.005509
648.747000	5.912626
648.942000	5.828007
649.137000	5.531419
649.332000	5.046302
649.527000	4.882812
649.722000	5.074707
649.917000	5.065343
650.113000	4.606796
650.308000	4.402972
650.503000	4.441046
650.698000	4.388997
650.893000	4.043150
651.088000	4.013319
651.283000	3.883721
651.478000	3.550066
651.673000	3.652174
651.868000	3.447672
652.063000	3.601456
652.258000	3.563366
652.453000	3.619088
652.648000	3.061120
652.844000	2.785742
653.039000	2.945833
653.234000	2.594986
653.429000	2.361949
653.624000	2.401145
653.819000	2.628017
654.014000	2.382262
654.209000	2.190988
654.404000	2.344931
654.599000	2.268476
654.794000	2.058846
654.989000	2.271264
655.184000	2.315242
655.380000	1.826260
655.575000	1.719125
655.770000	1.854312
655.965000	1.937502
656.160000	1.839199
656.355000	1.855380
656.550000	1.778066
656.745000	1.787577
656.940000	1.705908
657.135000	1.680558
657.330000	1.548206
657.525000	1.249767
657.720000	1.435333
657.915000	1.434006
658.111000	1.301260
658.306000	1.652464
658.501000	1.363784
658.696000	0.895462
658.891000	1.121515
659.086000	1.121062
659.281000	1.206567
659.476000	0.915008
659.671000	0.537894
659.866000	0.714154
660.061000	0.974655
660.256000	1.033843
660.451000	1.110352
660.646000	0.792231
660.842000	0.877344
661.037000	0.793445
661.232000	0.668057
661.427000	0.768665
661.622000	0.668755
661.817000	0.677017
662.012000	0.831045
662.207000	0.662244
662.402000	0.629951
662.597000	0.723837
662.792000	0.213896
662.987000	0.307011
663.182000	0.741103
663.378000	0.699169
663.573000	0.248976
663.768000	0.282495
663.963000	0.436132
664.158000	0.512328
664.353000	1.010048
664.548000	1.248877
664.743000	0.856902
664.938000	0.412160
665.133000	0.481321
665.328000	0.893738
665.523000	0.766581
665.718000	0.457251
665.913000	0.268565
666.109000	0.415827
666.304000	0.743415
666.499000	0.510237
666.694000	0.693199
666.889000	0.788189
667.084000	0.313907
667.279000	0.296386
667.474000	0.322567
667.669000	0.348495
667.864000	0.357587
668.059000	0.340747
668.254000	0.436919
668.449000	0.184724
668.644000	0.228500
668.840000	0.550469
669.035000	0.158747
669.230000	-0.042010
669.425000	0.343310
669.620000	0.115596
669.815000	0.309372
670.010000	0.440799
670.205000	0.256614
670.400000	0.264930
670.595000	0.353727
670.790000	0.195605
670.985000	0.037045
671.180000	0.399116
671.376000	0.169688
671.571000	-0.069088
671.766000	-0.078127
671.961000	0.001776
672.156000	0.028456
672.351000	0.108513
672.546000	0.037436
672.741000	0.197442
672.936000	0.366904
673.131000	0.921535
673.326000	0.467423
673.521000	-0.159527
673.716000	-0.105752
673.911000	-0.078922
674.107000	0.442075
674.302000	0.694144
674.497000	0.451889
674.692000	0.028826
674.887000	-0.160892
675.082000	-0.188293
675.277000	0.228445
675.472000	0.265053
675.667000	0.038182
675.862000	0.029106
676.057000	0.111042
676.252000	0.029187
676.447000	0.020115
676.643000	0.266768
676.838000	0.560177
677.033000	0.295150
677.228000	0.396968
677.423000	0.332846
677.618000	0.029503
677.813000	-0.173226
678.008000	-0.053614
678.203000	0.029611
678.398000	-0.081580
678.593000	0.215147
678.788000	0.327489
678.983000	-0.072480
679.178000	-0.165486
679.374000	-0.184348
679.569000	0.039188
679.764000	0.067379
679.959000	-0.288924
680.154000	-0.298365
680.349000	-0.355889
680.544000	-0.204973
680.739000	-0.063970
680.934000	-0.224122
681.129000	-0.186976
681.324000	-0.168297
681.519000	-0.017072
681.714000	-0.273256
681.909000	-0.197111
682.105000	-0.406736
682.300000	-0.074413
682.495000	0.106794
682.690000	0.202606
682.885000	0.327107
683.080000	-0.026855
683.275000	-0.180403
683.470000	0.107605
683.665000	0.377444
683.860000	0.648162
684.055000	0.291454
684.250000	-0.181612
684.445000	-0.248837
684.641000	0.253456
684.836000	-0.085272
685.031000	-0.095304
685.226000	0.060376
685.421000	0.509760
685.616000	0.226559
685.811000	-0.135087
686.006000	0.090050
686.201000	0.090170
686.396000	-0.381739
686.591000	-0.293780
686.786000	0.150086
686.981000	0.041475
687.176000	0.011879
687.372000	-0.166490
687.567000	0.210190
687.762000	0.061640
687.957000	0.021871
688.152000	-0.127523
688.347000	-0.007985
688.542000	-0.278152
688.737000	-0.538057
688.932000	-0.599079
689.127000	-0.278890
689.322000	0.183103
689.517000	-0.108631
689.712000	-0.401743
689.908000	-0.088918
690.103000	-0.200453
690.298000	-0.089105
690.493000	-0.109642
690.688000	-0.516362
690.883000	-0.222351
691.078000	0.246912
691.273000	0.124490
691.468000	-0.141091
691.663000	0.012315
691.858000	0.268934
692.053000	0.145752
692.248000	0.248648
692.443000	0.002055
692.639000	-0.111193
692.834000	0.229131
693.029000	0.631893
693.224000	0.510404
693.419000	-0.018691
693.614000	-0.101953
693.809000	-0.289425
694.004000	-0.289971
694.199000	-0.269040
694.394000	-0.071150
694.589000	-0.249290
694.784000	-0.155178
694.979000	0.023068
695.174000	-0.155576
695.370000	0.421864
695.565000	0.212498
695.760000	-0.229854
695.955000	0.224068
696.150000	0.171276
696.345000	-0.241990
696.540000	-0.082931
696.740000	-0.093498
696.940000	0.172252
697.140000	0.344141
697.340000	0.066378
697.539000	0.194955
697.739000	-0.105018
697.939000	-0.169432
698.139000	-0.395036
698.339000	-0.719767
698.539000	-0.471673
698.739000	-0.310975
698.939000	-0.323178
699.138000	-0.421479
699.338000	0.359416
699.538000	0.491191
699.738000	-0.226697
699.938000	-0.335969
700.138000	-0.336538
700.338000	-0.556672
700.538000	-0.316378
700.737000	-0.140566
700.937000	-0.556219
701.137000	-0.502243
701.337000	0.200618
701.537000	-0.108262
701.737000	-0.086060
701.937000	0.002212
702.137000	-0.318495
702.337000	-0.496268
702.536000	-0.508381
702.736000	-0.442312
702.936000	-0.609912
703.136000	0.080371
703.336000	0.013392
703.536000	-0.098482
703.736000	-0.570052
703.936000	-0.546474
704.135000	-0.411889
704.335000	0.002245
704.535000	-0.380406
704.735000	-0.662449
704.935000	-0.278808
705.135000	-0.246274
705.335000	-0.530466
705.535000	-0.281286
705.735000	-0.258557
705.934000	-0.167750
706.134000	-0.462600
706.334000	-0.588714
706.534000	-0.714757
706.734000	-0.646981
706.934000	-0.624166
707.134000	-0.476221
707.334000	-0.134722
707.533000	-0.272228
707.733000	-0.386330
707.933000	-0.329510
708.133000	-0.031997
708.333000	0.163114
708.533000	-0.170321
708.733000	0.220923
708.933000	-0.308644
709.132000	-0.343861
709.332000	-0.390677
709.532000	-0.576884
709.732000	-0.101791
709.932000	-0.670180
710.132000	-0.646585
710.332000	-0.912679
710.532000	-0.229540
710.732000	0.118572
710.931000	-0.172173
711.131000	-0.266277
711.331000	-0.231418
711.531000	-0.337180
711.731000	-0.443663
711.931000	-0.444399
712.131000	-0.690458
712.331000	-0.338292
712.530000	-0.337881
712.730000	-0.468162
712.930000	-0.362175
713.130000	-0.387044
713.330000	-0.517485
713.530000	-0.211076
713.730000	0.322691
713.930000	-0.080647
714.129000	-0.483377
714.329000	-0.615669
714.529000	-0.104513
714.729000	0.109488
714.929000	-0.021422
715.129000	-0.164510
715.329000	-0.343644
715.529000	-0.213261
715.729000	0.397020
715.928000	0.326086
716.128000	-0.201531
716.328000	-0.262287
716.528000	-0.419174
716.728000	-0.359035
716.928000	-0.527761
717.128000	-0.057966
717.328000	-0.166625
717.527000	-0.456962
717.727000	-0.409004
717.927000	-0.191806
718.127000	-0.276942
718.327000	-0.837199
718.527000	-0.727317
718.727000	-0.058434
718.927000	-0.387827
719.127000	-0.744487
719.326000	-0.631710
719.526000	-0.315213
719.726000	-0.364849
719.926000	-0.575123
720.126000	-0.538344
720.326000	-0.304770
720.526000	-0.390867
720.726000	-0.157805
720.925000	-0.071551
721.125000	-0.393751
721.325000	-0.368539
721.525000	-0.220667
721.725000	-0.443863
721.925000	-0.644047
722.125000	-0.631666
722.325000	-0.034812
722.524000	-0.221980
722.724000	-0.609331
722.924000	-1.058772
723.124000	-0.697558
723.324000	-0.210233
723.524000	0.065131
723.724000	-0.574175
723.924000	-0.551071
724.124000	-0.425402
724.323000	-0.085695
724.523000	-0.135985
724.723000	0.179180
724.923000	-0.073208
725.123000	-0.048014
725.323000	-0.149363
725.523000	-0.631566
725.723000	-0.744922
725.922000	-0.580882
726.122000	-0.200617
726.322000	-0.341205
726.522000	-0.787579
726.722000	0.078922
726.922000	-0.353634
727.122000	-0.316570
727.322000	0.079243
727.521000	0.015375
727.721000	-0.241231
727.921000	-0.369563
728.121000	-0.433615
728.321000	-0.627200
728.521000	-0.422640
728.721000	-0.320100
728.921000	0.144511
729.121000	1.036504
729.320000	0.209601
729.520000	-0.424415
729.720000	-0.749136
729.920000	-0.570388
730.120000	-0.192244
730.320000	-0.114588
730.520000	-0.687808
730.720000	-0.546230
730.919000	-0.324019
731.119000	0.094242
731.319000	-0.548021
731.519000	-0.744578
731.719000	-0.285988
731.919000	-0.601158
732.119000	-0.957138
732.319000	-0.881010
732.519000	-0.393235
732.718000	-0.591947
732.918000	-0.605681
733.118000	-0.620449
733.318000	-0.143593
733.518000	-0.130307
733.718000	-0.689726
733.918000	-0.943264
734.118000	-0.756479
734.317000	-0.451992
734.517000	-0.531490
734.717000	-0.346194
734.917000	-0.064554
735.117000	-0.091549
735.317000	-0.118445
735.517000	0.394090
735.717000	0.801340
735.916000	-0.200365
736.116000	-0.619510
736.316000	-0.500844
736.516000	-0.432659
736.716000	-0.310366
736.916000	-0.653332
737.116000	-0.697718
737.316000	-0.120845
737.516000	0.057790
737.715000	-0.176234
737.915000	-0.823718
738.115000	-0.771060
738.315000	-0.522717
738.515000	-0.757655
738.715000	-0.358801
738.915000	0.030636
739.115000	-0.457517
739.314000	-0.429232
739.514000	0.240562
739.714000	0.114976
739.914000	-0.180000
740.114000	-0.462113
740.314000	-0.222769
740.514000	0.468814
740.714000	-0.450565
740.913000	-0.891093
741.113000	-0.764583
741.313000	-0.309813
741.513000	-0.096911
741.713000	-0.425839
741.913000	-0.284277
742.113000	-0.627899
742.313000	-1.275718
742.513000	-0.903038
742.712000	-0.660718
742.912000	-0.848482
743.112000	-0.692084
743.312000	-0.939782
743.512000	-0.520372
743.712000	-0.201234
743.912000	-0.873422
744.112000	-1.034747
744.311000	-1.154781
744.511000	-0.877929
744.711000	-0.261975
744.911000	-0.630818
745.111000	-0.513545
745.311000	0.002957
745.511000	-0.544856
745.711000	-0.945505
745.911000	-0.590595
746.110000	-0.828415
746.310000	-0.952774
746.510000	-0.876209
746.710000	-0.191614
746.910000	0.107879
747.110000	-0.822401
747.310000	-1.139544
747.510000	-0.615705
747.709000	-0.374556
747.909000	-0.466367
748.109000	-0.209663
748.309000	-0.545019
748.509000	-0.850831
748.709000	-0.930506
748.909000	-0.394731
749.109000	-0.565485
749.308000	-0.104598
749.508000	-0.351998
749.708000	-0.707320
749.908000	-0.166829
750.108000	-0.120846
750.308000	-0.836433
750.508000	-0.199512
750.708000	-0.963590
750.908000	-1.387569
751.107000	-0.467083
751.307000	0.237962
751.507000	-0.232681
751.707000	-0.326596
751.907000	-0.390360
752.107000	-0.486442
752.307000	-0.947634
752.507000	-0.616463
752.706000	-0.695431
752.906000	0.273672
753.106000	-0.507730
753.306000	-1.278024
753.506000	-0.221614
753.706000	-0.592151
753.906000	-0.125530
754.106000	-0.238500
754.305000	-0.448575
754.505000	-0.142367
754.705000	-0.175677
754.905000	-0.485457
755.105000	-0.094625
755.305000	-0.993314
755.505000	-0.619332
755.705000	0.019686
755.905000	-0.210614
756.104000	-1.050688
756.304000	-1.714018
756.504000	-1.965754
756.704000	-0.578818
756.904000	0.019948
757.104000	-0.378475
757.304000	-0.727765
757.504000	0.070212
757.703000	-0.147085
757.903000	-0.046912
758.103000	-0.013431
758.303000	-0.181828
758.503000	-0.300471
758.703000	-0.554969
758.903000	-0.690636
759.103000	-0.234244
759.303000	-0.150090
759.502000	-0.219001
759.702000	0.140244
759.902000	-0.701364
760.102000	-0.703043
760.302000	-0.446069
760.502000	-0.117217
760.702000	0.037978
760.902000	-0.359824
761.101000	-0.968072
761.301000	-1.160943
761.501000	-0.639767
761.701000	-0.745572
761.901000	-0.714433
762.101000	-0.066683
762.301000	-0.207070
762.501000	-0.576058
762.700000	-0.825721
762.900000	-0.614217
763.100000	-0.102486
763.300000	0.003548
763.500000	-0.547001
763.703000	-1.093887
763.905000	-1.062510
764.108000	-0.121250
764.311000	-0.549267
764.513000	-1.067721
764.716000	-0.534230
764.919000	-0.140019
765.121000	-0.606985
765.324000	-1.005077
765.527000	-1.209629
765.729000	-1.046623
765.932000	-0.032647
766.135000	-0.141429
766.337000	-0.431763
766.540000	-0.396779
766.743000	-0.106350
766.945000	-1.021133
767.148000	-1.316905
767.351000	-1.096656
767.553000	-0.401281
767.756000	-0.972943
767.958000	-1.341344
768.161000	-0.549543
768.364000	-0.995782
768.566000	-1.202006
768.769000	-0.833790
768.972000	-0.387063
769.174000	-0.518900
769.377000	-1.325298
769.580000	-1.234329
769.782000	-0.708466
769.985000	-1.274799
770.188000	-2.088253
770.390000	-0.981107
770.593000	0.628034
770.796000	0.230955
770.998000	-0.640234
771.201000	-1.228721
771.404000	-0.527881
771.606000	-0.777806
771.809000	-0.243938
772.012000	-0.473541
772.214000	-1.544041
772.417000	-1.123754
772.620000	0.175282
772.822000	-0.322560
773.025000	-1.244388
773.228000	-1.169754
773.430000	-0.709189
773.633000	-0.459530
773.836000	-0.866179
774.038000	-0.442489
774.241000	-0.481174
774.444000	-0.521576
774.646000	0.509488
774.849000	-0.015592
775.052000	-0.346863
775.254000	-0.230399
775.457000	-0.620341
775.659000	-0.328512
775.862000	-0.582857
776.065000	-0.368314
776.267000	0.003925
776.470000	0.516468
776.673000	-0.430030
776.875000	-0.253235
777.078000	-0.628132
777.281000	-1.165862
777.483000	0.023869
777.686000	-0.075726
777.889000	-0.175555
778.091000	0.244221
778.294000	-1.195377
778.497000	-1.176899
778.699000	-1.037620
778.902000	-1.021065
779.105000	-0.800022
779.307000	0.185194
779.510000	-0.661732
779.713000	-0.482027
779.915000	-0.869702
780.118000	0.126108
780.321000	0.329913
780.523000	-0.934885
780.726000	-1.078221
780.929000	-1.179900
781.131000	-1.345286
781.334000	-1.617055
781.537000	-1.559844
781.739000	-0.757978
781.942000	-1.541917
782.145000	-1.301245
782.347000	-1.509402
782.550000	-1.365143
782.753000	-0.994959
782.955000	-1.039406
783.158000	-0.788482
783.361000	-0.163104
783.563000	-0.351359
783.766000	-0.813576
783.968000	1.180237
784.171000	0.869197
784.374000	-0.333363
784.576000	-0.312171
784.779000	-0.438037
784.982000	0.173683
785.184000	-0.634612
785.387000	-0.145032
785.590000	0.324016
785.792000	0.517823
785.995000	0.261451
786.198000	-0.103034
786.400000	-0.814814
786.603000	-0.319838
786.806000	-0.448114
787.008000	-0.404985
787.211000	0.047563
787.414000	-0.603079
787.616000	-0.779563
787.819000	-0.715919
788.022000	-1.175867
788.224000	-0.543384
788.427000	-1.310998
788.630000	-0.589599
788.832000	-0.896626
789.035000	-1.224316
789.238000	-1.362082
789.440000	-1.214847
789.643000	-0.327417
789.846000	-1.060482
790.048000	-0.618261
790.251000	-0.329225
790.454000	-0.461768
790.656000	0.026739
790.859000	-0.576215
791.062000	-0.890455
791.264000	-0.800302
791.467000	-1.724112
791.669000	-1.973934
791.872000	-0.176237
792.075000	-0.762812
792.277000	-0.988656
792.480000	-0.767082
792.683000	-1.285540
792.885000	-1.581295
793.088000	-1.405192
793.291000	-1.545474
793.493000	-1.228585
793.696000	-0.452333
793.899000	-0.201591
794.101000	-0.615361
794.304000	-0.639765
794.507000	-0.640714
794.709000	-0.411380
794.912000	-0.969936
795.115000	-1.157793
795.317000	-0.808837
795.520000	-0.602277
795.723000	-0.932840
795.925000	-1.567960
796.128000	-1.659717
796.331000	-0.936072
796.533000	-1.456956
796.736000	-0.824544
796.939000	-0.897768
797.141000	-1.138269
797.344000	-0.185920
797.547000	0.410155
797.749000	-0.377312
797.952000	-1.339294
798.155000	-1.312419
798.357000	-1.248042
798.560000	-1.109711
798.763000	-0.430841
798.965000	-0.527159
799.168000	-0.722715
799.371000	-1.330570
799.573000	-1.383732
799.776000	-2.020152
799.978000	-1.708891
800.181000	-0.510215
800.384000	1.528097
800.586000	0.423553
800.789000	-1.545796
800.992000	-1.815326
801.194000	-1.375595
801.397000	-1.280287
801.600000	-1.507872
801.802000	-0.019870
802.005000	-0.244183
802.208000	-1.969037
802.410000	-0.669098
802.613000	-0.295903
802.816000	-0.823470
803.018000	-1.102562
803.221000	-1.028961
803.424000	0.384136
803.626000	-0.248051
803.829000	-0.604329
804.032000	0.285142
804.234000	1.226750
804.437000	-0.122693
804.640000	-0.914315
804.842000	-0.865211
805.045000	-1.666999
805.248000	-1.515478
805.450000	-0.999033
805.653000	-1.238570
805.856000	-0.900736
806.058000	0.602334
806.261000	-1.269967
806.464000	-1.088888
806.666000	-0.099147
806.869000	-0.414883
807.072000	-1.911406
807.274000	-2.333027
807.477000	-1.311959
807.679000	-0.785721
807.882000	-1.183933
808.085000	-0.633205
808.287000	-0.021305
808.490000	-1.568940
808.693000	-1.703553
808.895000	-0.823329
809.098000	-0.930706
809.301000	-0.880151
809.503000	-1.126521
809.706000	-0.130067
809.909000	-0.265510
810.111000	0.330997
810.314000	-0.348068
810.517000	-1.295590
810.719000	-1.711748
810.922000	-1.281036
811.125000	-0.404243
811.327000	0.032964
811.530000	-0.104799
811.735000	-0.682922
811.940000	-0.684450
812.146000	-1.158483
812.351000	-0.631949
812.556000	-0.606172
812.761000	-1.528608
812.967000	-0.330573
813.172000	0.117538
813.377000	-0.583894
813.582000	0.625839
813.788000	0.232762
813.993000	-1.240170
814.198000	-0.334437
814.403000	-1.354001
814.609000	-0.649905
814.814000	-0.423771
815.019000	0.348686
815.224000	-0.279948
815.429000	-1.489555
815.635000	-1.003848
815.840000	-1.120447
816.045000	-0.719426
816.250000	-0.052301
816.456000	-1.391246
816.661000	-2.537952
816.866000	-1.898857
817.071000	-1.692667
817.277000	-2.528848
817.482000	-1.411280
817.687000	-0.820264
817.892000	-1.180983
818.097000	-0.678640
818.303000	-0.410751
818.508000	0.065354
818.713000	7.011016
818.918000	4.569977
819.124000	1.082628
819.329000	-1.045178
819.534000	-1.319403
819.739000	-1.891904
819.945000	-0.780914
820.150000	-0.602712
820.355000	-0.603884
820.560000	-0.480590
820.766000	-0.390336
820.971000	-0.484600
821.176000	-2.023047
821.381000	-2.201150
821.586000	-1.505014
821.792000	-0.024759
821.997000	-0.582371
822.202000	-1.172089
822.407000	-1.424457
822.613000	-1.458615
822.818000	-0.649966
823.023000	-0.869764
823.228000	-1.379198
823.434000	-0.497124
823.639000	-0.088287
823.844000	-1.258243
824.049000	-0.246773
824.255000	0.165048
824.460000	-0.758935
824.665000	-1.973424
824.870000	-1.243177
825.075000	-0.346476
825.281000	-0.057920
825.486000	0.427266
825.691000	-1.744066
825.896000	-3.209126
826.102000	-1.131042
826.307000	-1.264118
826.512000	-1.268845
826.717000	-1.108743
826.923000	-1.013219
827.128000	-0.916534
827.333000	-1.519733
827.538000	-1.258975
827.744000	-0.494130
827.949000	-1.459586
828.154000	-1.097451
828.359000	0.173899
828.564000	0.241991
828.770000	-0.330739
828.975000	-0.230013
829.180000	-0.979110
829.385000	-1.930287
829.591000	-1.460629
829.796000	-0.610493
830.001000	-0.474208
830.206000	-1.337489
830.412000	-1.611614
830.617000	-1.028678
830.822000	0.457929
831.027000	-0.443064
831.232000	-1.142239
831.438000	-1.536081
831.643000	-0.939805
831.848000	-1.117875
832.053000	-0.980993
832.259000	-0.664226
832.464000	-3.252510
832.669000	-2.517537
832.874000	-1.980936
833.080000	-2.667188
833.285000	-0.850029
833.490000	-0.064334
833.695000	-1.072091
833.901000	-1.113281
834.106000	-1.657988
834.311000	-1.484749
834.516000	-0.539411
834.721000	-1.055587
834.927000	-0.802323
835.132000	-1.873298
835.337000	-0.288061
835.542000	-0.809881
835.748000	-2.773467
835.953000	-0.029765
836.158000	-0.589307
836.363000	-0.591673
836.569000	-0.709473
836.774000	-1.731434
836.979000	-1.884940
837.184000	-2.724242
837.390000	-2.501146
837.595000	-0.716527
837.800000	-0.565370
838.005000	-0.799441
838.210000	-0.838239
838.416000	-0.764286
838.621000	-1.037271
838.826000	-1.346081
839.031000	-1.819541
839.237000	-2.185666
839.442000	-1.639909
839.647000	-2.342587
839.852000	-2.116633
840.058000	-1.334586
840.263000	-1.222105
840.468000	-2.812081
840.673000	-1.580962
840.878000	-0.946291
841.084000	-1.711876
841.289000	-0.593446
841.494000	1.946185
841.699000	2.074158
841.905000	0.982943
842.110000	0.824906
842.315000	-1.342303
842.520000	-0.686831
842.726000	-1.098277
842.931000	-2.039173
843.136000	-1.105324
843.341000	-2.443200
843.547000	-1.857675
843.752000	-1.859802
843.957000	-2.419127
844.162000	-2.094192
844.367000	-1.803751
844.573000	-0.965013
844.778000	-1.004677
844.983000	-0.753241
845.188000	-0.416832
845.394000	-2.051485
845.599000	-1.361446
845.804000	-1.022419
846.009000	-1.029486
846.215000	-2.337942
846.420000	-1.864943
846.625000	-0.821849
846.830000	-0.383312
847.036000	-1.260553
847.241000	-1.090080
847.446000	0.404335
847.651000	-1.094535
847.856000	-2.128736
848.062000	-2.894378
848.267000	-1.420808
848.472000	-1.515406
848.677000	-2.553711
848.883000	-0.394813
849.088000	1.323329
849.293000	-0.218391
849.498000	-2.172040
849.704000	-0.947803
849.909000	-0.995946
850.114000	-2.823459
850.319000	-1.593465
850.524000	-0.635366
850.730000	-0.129646
850.935000	-0.873978
851.140000	-0.316953
851.345000	0.149133
851.551000	0.289815
851.756000	0.667342
851.961000	-0.697390
852.166000	-1.122060
852.372000	-1.030434
852.577000	-0.609447
852.782000	-1.429629
852.987000	0.200918
853.193000	0.153632
853.398000	-0.374590
853.603000	-1.530586
853.808000	-3.024252
854.013000	-1.831909
854.219000	-1.155520
854.424000	0.594623
854.629000	0.400547
854.834000	-1.612885
855.040000	-1.078846
855.245000	-0.828626
855.450000	-2.842092
855.655000	-3.843773
855.861000	-3.321273
856.066000	-2.045035
856.271000	-3.002206
856.476000	-1.198973
856.682000	-1.911581
856.887000	-4.537274
857.092000	-3.483498
857.297000	-0.803209
857.502000	-1.365086
857.708000	-1.622923
857.913000	-0.603262
858.118000	-0.712013
858.323000	-0.817599
858.529000	-1.281335
858.734000	-2.890847
858.939000	-2.223889
859.144000	-1.762192
859.350000	-3.066020
859.555000	-2.814076
859.760000	-0.936128
859.965000	-0.304942
860.171000	-1.784758
860.376000	-0.731730
860.581000	-2.009668
860.786000	-5.061289
860.991000	-4.332653
861.197000	-3.686940
861.402000	-1.655282
861.607000	-1.602562
861.812000	-3.121701
862.018000	-3.187891
862.223000	-2.053218
862.428000	-1.081835
862.633000	0.284247
862.839000	-0.759079
863.044000	-3.205910
863.249000	-4.690719
863.454000	-1.262436
863.659000	-2.099340
863.865000	-3.672575
864.070000	-2.842800
864.275000	-2.230959
864.480000	-2.184856
864.686000	-3.662415
864.891000	-2.930110
865.096000	-1.466097
865.301000	-0.273272
865.507000	-0.389414
865.712000	-1.019279
865.917000	-1.486880
866.122000	-0.104018
866.328000	-3.475301
866.533000	-3.472875
866.738000	-0.395412
866.943000	-0.629332
867.148000	0.187517
867.354000	-2.291488
867.559000	-3.769053
867.764000	-2.006530
867.969000	-0.525060
868.175000	-1.890971
868.380000	-2.315315
868.585000	-3.513346
868.790000	-1.187149
868.996000	-1.194995
869.201000	-4.102673
869.406000	-5.275044
869.611000	-3.274182
869.817000	-2.419472
870.022000	2.636104
870.227000	0.562771
870.432000	-2.139222
870.637000	-1.464704
870.843000	-2.401711
871.048000	-2.712520
871.253000	0.322221
871.458000	-0.672624
871.664000	-3.810698
871.869000	-4.526722
872.074000	-3.781524
872.279000	-2.136354
872.485000	-1.959282
872.690000	-2.031665
872.895000	-1.334380
873.100000	-2.106703
873.306000	-3.212191
873.511000	-2.779912
873.716000	-0.572824
873.921000	-2.129497
874.126000	-3.563482
874.332000	-1.891231
874.537000	-1.108675
874.742000	-0.513081
874.947000	-0.184964
875.153000	2.147042
875.358000	-0.320806
875.563000	-2.390462
875.768000	-5.015558
875.974000	-5.103497
876.179000	-1.133324
876.384000	-1.138831
876.589000	-2.175177
876.794000	-2.930929
877.000000	-3.550172
877.205000	-3.751020
877.410000	-1.361969
877.615000	-2.733065
877.821000	-4.904953
878.026000	-3.105225
878.231000	-3.866792
878.436000	-4.636834
878.642000	-3.690380
878.847000	-2.507759
879.052000	0.083939
879.257000	-2.737628
879.463000	-3.094682
879.668000	-2.176830
879.873000	-0.553469
880.078000	-2.902161
880.283000	-3.341912
880.489000	-4.484349
880.694000	-4.360399
880.899000	-1.358452
881.104000	0.957680
881.310000	2.045901
881.515000	-0.130439
881.720000	0.159809
881.925000	1.329515
882.131000	2.717640
882.336000	0.382808
882.541000	-3.620757
882.746000	-2.892998
882.952000	-3.783337
883.157000	-2.523461
883.362000	-3.125525
883.567000	-4.565248
883.772000	-4.380285
883.978000	-3.854015
884.183000	-2.341996
884.388000	-2.108939
884.593000	-3.475841
884.799000	-0.365910
885.004000	-0.603002
885.209000	0.015468
885.414000	-0.909498
885.620000	-4.099055
885.825000	-0.766277
886.030000	-1.467126
886.235000	-3.439085
886.440000	-3.546894
886.646000	-4.750198
886.851000	-4.853924
887.056000	-0.304342
887.261000	-0.064123
887.467000	-1.271591
887.672000	0.259292
887.877000	-2.426975
888.082000	-6.039119
888.288000	-5.120228
888.493000	-7.195402
888.698000	-5.920385
888.903000	-2.298180
889.109000	-3.448381
889.314000	0.759405
889.519000	-0.641396
889.724000	1.663439
889.929000	-1.962183
890.135000	-2.876792
890.340000	-2.315277
890.545000	-3.895885
890.750000	-5.489643
890.956000	-2.410761
891.161000	-0.401213
891.366000	-3.839060
891.571000	-3.848072
891.777000	-3.431174
891.982000	-0.743672
892.187000	-1.001471
892.392000	-0.999088
892.598000	-0.493881
892.803000	-2.216339
893.008000	-3.673074
893.213000	-3.321001
893.418000	-3.775389
893.624000	-4.227474
893.829000	-6.395954
894.034000	-2.588154
894.239000	-1.117159
894.445000	-4.162228
894.650000	-4.533267
894.855000	-5.678031
895.060000	-5.581077
895.266000	-5.792812
895.471000	-6.148586
895.676000	0.636452
895.881000	0.106989
896.087000	-3.014091
896.292000	-3.661979
896.497000	0.198429
896.702000	-2.048206
896.907000	-4.750534
897.113000	1.553239
897.318000	1.010900
897.523000	-0.434385
897.728000	-3.433950
897.934000	-4.147303
898.139000	-3.795530
898.344000	-0.073324
898.549000	-1.825114
898.755000	-2.289238
898.960000	-3.417911
899.165000	-5.835361
899.370000	-3.060639
899.575000	1.421965
899.781000	-2.795715
899.986000	-3.734069
900.191000	-1.963938
900.396000	-2.344337
900.602000	-2.833897
900.807000	-5.535467
901.012000	-4.029230
901.217000	-0.270571
901.423000	-3.447579
901.628000	-3.459121
901.833000	0.504945
902.038000	0.215291
902.244000	-3.884119
902.449000	-3.612494
902.654000	-3.551368
902.859000	-1.365758
903.064000	1.014312
903.270000	-0.379240
903.475000	-5.473234
903.680000	-6.166072
903.885000	-5.310094
904.091000	-2.911319
904.296000	-5.967571
904.501000	-4.259087
904.706000	-2.535054
904.912000	1.673840
905.117000	-0.601787
905.322000	-4.790619
905.527000	-4.247835
905.733000	-3.208805
905.938000	-3.438555
906.143000	-5.601751
906.348000	-6.986571
906.553000	-2.866006
906.759000	-1.688604
906.964000	-2.448816
907.169000	-2.786637
907.374000	-4.181393
907.580000	-6.045471
907.785000	-5.047561
907.990000	25.917180
908.195000	18.601313
908.401000	-0.757496
908.606000	-9.498326
908.811000	-11.503037
909.016000	-4.447614
909.221000	-2.668049
909.427000	-3.359687
909.632000	-6.005000
909.837000	-7.421132
910.042000	-9.165460
910.248000	-9.441817
910.453000	-3.572228
910.658000	-3.248863
910.863000	-3.829195
911.069000	-3.843148
911.274000	0.377695
911.479000	2.042603
911.684000	-6.976667
911.890000	-4.876062
912.095000	-4.044463
912.300000	-7.327128
912.506000	-5.642929
912.711000	-4.736623
912.917000	-4.007731
913.123000	-4.255903
913.328000	-4.282200
913.534000	-2.582954
913.740000	5.152123
913.946000	4.549511
914.151000	-4.178831
914.357000	-7.255505
914.563000	-1.861656
914.768000	-7.834716
914.974000	-9.967507
915.180000	-7.089107
915.385000	-5.948577
915.591000	-8.097955
915.797000	-1.551276
916.002000	-0.767538
916.208000	-5.506674
916.414000	-7.831303
916.620000	-8.248463
916.825000	-2.517101
917.031000	-2.519018
917.237000	-7.102558
917.442000	-4.731779
917.648000	-6.002255
917.854000	-7.915554
918.059000	-0.799757
918.265000	1.817856
918.471000	-2.186938
918.676000	-5.567711
918.882000	-8.984028
919.088000	-7.448669
919.294000	-11.913037
919.499000	-7.987388
919.705000	-0.978673
919.911000	-4.864369
920.116000	-2.005923
920.322000	-8.291350
920.528000	-7.308423
920.733000	-12.172171
920.939000	-11.475280
921.145000	-8.318628
921.350000	-7.066377
921.556000	-5.145470
921.762000	-7.106611
921.968000	-6.517755
922.173000	-8.554384
922.379000	-11.725170
922.585000	-10.094119
922.790000	-8.551512
922.996000	-7.517262
923.202000	-10.154762
923.407000	-12.140269
923.613000	-8.467918
923.819000	-3.349017
924.024000	-4.928516
924.230000	-4.154481
924.436000	-7.745755
924.642000	2.657782
924.847000	0.530441
925.053000	-6.921639
925.259000	-11.573884
925.464000	-5.474230
925.670000	-3.968937
925.876000	-8.061189
926.081000	-9.969446
926.287000	-1.495246
926.493000	-0.829975
926.698000	-3.429356
926.904000	-3.752601
927.110000	-7.238503
927.316000	-5.530033
927.521000	0.737826
927.727000	-4.778824
927.933000	-8.023133
928.138000	-5.540042
928.344000	-13.246651
928.550000	-9.803892
928.755000	0.958470
928.961000	-1.434853
929.167000	-4.774983
929.372000	-2.378384
929.578000	-5.588156
929.784000	-8.651372
929.990000	-11.727396
930.195000	-11.568165
930.401000	-9.545763
930.607000	-7.839478
930.812000	-5.005768
931.018000	-6.000659
931.224000	-16.347753
931.429000	-11.463265
931.635000	-13.417440
931.841000	-14.148212
932.046000	-7.777332
932.252000	-4.595117
932.458000	3.904547
932.664000	-0.370172
932.869000	-5.928940
933.075000	-10.114676
933.281000	-8.787105
933.486000	-6.134165
933.692000	-5.947864
933.898000	-8.665900
934.103000	-4.056407
934.309000	-6.344627
934.515000	-3.314034
934.720000	-1.303206
934.926000	-3.353310
935.132000	-2.222223
935.338000	-3.850800
935.543000	-15.066172
935.749000	-16.380904
935.955000	-11.505246
936.160000	-8.538109
936.366000	-0.192026
936.572000	-2.153908
936.777000	-1.448677
936.983000	1.552222
937.189000	-4.239003
937.394000	-10.689589
937.600000	0.051384
937.806000	8.850631
938.012000	-6.519344
938.217000	5.084827
938.423000	3.787478
938.629000	-7.415997
938.834000	-19.559376
939.040000	-17.237857
939.246000	-8.705911
939.451000	-13.251216
939.657000	-4.703377
939.863000	-5.053798
940.068000	-5.102829
940.274000	-13.508163
940.480000	-9.008254
940.686000	-10.661896
940.891000	-4.370639
941.097000	25.580109
941.303000	5.182835
941.508000	-10.850634
941.714000	-6.643306
941.920000	-21.858246
942.125000	-13.591234
942.331000	-6.484335
942.537000	-3.987341
942.742000	-2.454472
942.948000	-11.267025
943.154000	-13.139314
943.360000	-28.334639
943.565000	-15.022536
943.771000	2.009099
943.977000	7.788380
944.182000	-9.895506
944.388000	-11.229171
944.594000	0.392391
944.799000	1.717609
945.005000	-10.652747
945.211000	0.065149
945.416000	-5.556905
945.622000	-22.483005
945.828000	-10.994087
946.034000	6.200118
946.239000	-4.042298
946.445000	-7.352745
946.651000	-20.074680
946.856000	-17.096913
947.062000	-7.025192
947.268000	-7.414566
947.473000	-16.665181
947.679000	-15.392333
947.885000	-1.998944
948.090000	-5.825607
948.296000	6.417825
948.502000	0.764610
948.708000	-15.706182
948.913000	-14.473740
949.119000	-1.702168
949.325000	-10.219490
949.530000	-23.363998
949.736000	-22.929702
949.942000	-16.495499
950.147000	-19.455820
950.353000	-15.770456
950.559000	-12.610486
950.764000	10.381630
950.970000	1.503429
951.176000	-7.531952
951.382000	-18.561964
951.587000	-9.977241
951.793000	-1.424035
951.999000	1.182138
952.204000	-17.457780
952.410000	-37.266312
952.616000	-23.403583
952.821000	-3.987447
953.027000	-7.323024
953.233000	-18.373051
953.438000	-17.747003
953.644000	-0.682289
953.850000	-14.337647
954.056000	-19.472468
954.261000	-16.893593
954.467000	-1.469088
954.673000	8.950407
954.878000	-5.342243
955.084000	-4.573648
955.290000	-21.325973
955.495000	-22.559199
955.701000	-18.995683
955.907000	7.610610
956.112000	0.079285
956.318000	3.221792
956.524000	2.861480
956.730000	-12.836989
956.935000	-17.734624
957.141000	-25.657108
957.347000	-11.344351
957.552000	-18.262430
957.758000	-27.249291
957.964000	-36.591621
958.169000	0.910944
958.375000	2.990506
958.581000	-17.446351
958.786000	-22.895092
958.992000	-30.151672
959.198000	-12.715516
959.404000	-8.843753
959.609000	-16.330059
959.815000	-17.081939
960.021000	-2.511177
960.226000	-12.579686
960.432000	-34.621750
960.638000	-27.700635
960.843000	-14.079405
961.049000	-14.824061
961.255000	-13.348775
961.460000	-30.589360
961.666000	-37.652235
961.872000	-21.507179
962.078000	-20.808924
962.283000	-33.396616
962.489000	-32.524602
962.695000	-24.679805
962.900000	-14.746975
963.106000	-6.468874
963.312000	-6.078077
963.517000	-19.029666
963.723000	-23.125592
963.929000	-8.089354
964.134000	1.057247
964.340000	-20.798331
964.546000	-22.796300
964.752000	-32.430992
964.957000	-43.150064
965.163000	-12.927682
965.369000	-3.959671
965.574000	-5.539264
965.780000	-15.810344
966.000000	-24.556824
966.220000	-15.917876
966.440000	-15.482556
966.661000	-0.418153
966.881000	-20.342742
967.101000	-34.207513
967.321000	-39.283407
967.541000	-15.829476
967.761000	-20.311448
967.981000	-16.538744
968.202000	-16.379324
968.422000	-5.959969
968.642000	-7.592087
968.862000	-11.120657
969.082000	-22.517721
969.302000	-17.408914
969.522000	-13.665663
969.743000	6.262311
969.963000	-13.029367
970.183000	-28.445629
970.403000	-35.092857
970.623000	-27.433772
970.843000	-8.737566
971.063000	-5.275491
971.284000	-28.226465
971.504000	-45.651036
971.724000	-21.321182
971.944000	-35.777886
972.164000	-44.111099
972.384000	-33.170706
972.604000	-48.029065
972.825000	-48.570910
973.045000	-24.202497
973.265000	16.669614
973.485000	6.609837
973.705000	-8.341203
973.925000	-18.390108
974.145000	-54.628493
974.365000	-21.545059
974.586000	-24.397276
974.806000	-41.474892
975.026000	-1.915794
975.246000	-13.789636
975.466000	-39.287199
975.686000	-11.440465
975.906000	-23.039920
976.127000	-61.730869
976.347000	-36.101534
976.567000	1.565067
976.787000	-13.415484
977.007000	-43.396435
977.227000	-38.510278
977.447000	-36.168642
977.668000	-54.211102
977.888000	-30.708584
978.108000	-37.048953
978.328000	-30.579201
978.548000	8.475694
978.768000	15.571466
978.988000	1.771700
979.209000	-22.286190
979.429000	-32.089728
979.649000	-17.182687
979.869000	-35.631493
980.089000	-42.329448
980.309000	-41.289704
980.529000	-56.749061
980.750000	-36.881174
980.970000	-36.256241
981.190000	-21.620954
981.410000	-45.096912
981.630000	-60.212982
981.850000	-35.382264
982.070000	-27.941419
982.291000	-61.573884
982.511000	-42.842545
982.731000	-0.738118
982.951000	-27.639416
983.171000	-33.106082
983.391000	-23.834124
983.611000	-7.301465
983.832000	-35.197108
984.052000	-57.983023
984.272000	-44.106218
984.492000	-34.758070
984.712000	-32.021000
984.932000	-55.183578
985.152000	-51.625790
985.373000	-39.521375
985.593000	-31.145669
985.813000	-33.355420
986.033000	-27.512543
986.253000	2.345935
986.473000	0.202795
986.693000	-36.332796
986.914000	-31.470127
987.134000	8.959698
987.354000	-45.353110
987.574000	195.361905
987.794000	102.295321
988.014000	-49.462614
988.234000	-6.778155
988.455000	-15.108610
988.675000	-16.370516
988.895000	-35.356244
989.115000	-48.218933
989.335000	-21.510558
989.555000	-17.853000
989.775000	-65.638267
989.995000	-56.830124
990.216000	-38.615858
990.436000	-45.469658
990.656000	19.863517
990.876000	-23.302249
991.096000	-17.997164
991.316000	6.718411
991.536000	-32.355349
991.757000	-43.564403
991.977000	-79.641684
992.197000	-17.669471
992.417000	-38.984843
992.637000	-89.719310
992.857000	-94.603452
993.077000	-75.839719
993.298000	-15.868464
993.518000	-41.642293
993.738000	-94.198151
993.958000	-42.694181
994.178000	-73.441895
994.398000	-72.722383
994.618000	-123.730135
994.839000	-131.782925
995.059000	-33.630670
995.279000	-1.311475
995.499000	-32.684009
995.719000	0.318084
995.939000	-20.400859
996.159000	-49.021064
996.380000	-42.561307
996.600000	-97.213617
996.820000	-57.643721
997.040000	-3.122595
997.260000	-65.165856
997.480000	-48.396309
997.700000	-123.900795
997.921000	-75.127365
998.141000	10.853663
998.361000	-31.469627
998.581000	-64.558507
998.801000	-100.160124
999.021000	-47.763729
999.241000	15.983128
999.462000	-26.187717
999.682000	-120.746170
999.902000	-76.307666
1000.122000	-77.510471
1000.342000	-144.232573
1000.562000	-64.754448
1000.782000	-29.362735
1001.003000	-1062.105960
