Wavelength	Irradiance
(nm)	(mW/cm2/nm)

294.396000	0.000000
294.577000	0.000000
294.757000	0.000000
294.938000	-0.000000
295.118000	0.000000
295.299000	0.000000
295.479000	-0.000000
295.660000	-0.000000
295.840000	-0.000000
296.021000	-0.000000
296.202000	-0.000000
296.382000	-0.000000
296.563000	-0.000000
296.743000	-0.000000
296.924000	0.000000
297.104000	-0.000000
297.285000	-0.000000
297.465000	-0.000000
297.646000	-0.000000
297.826000	-0.000000
298.007000	0.000000
298.187000	0.000000
298.368000	-0.000000
298.548000	0.000000
298.729000	0.000000
298.909000	-0.000000
299.090000	-0.000000
299.270000	-0.000000
299.451000	-0.000000
299.631000	-0.000000
299.812000	-0.000000
299.992000	0.000000
300.173000	0.000000
300.353000	-0.000000
300.534000	0.000000
300.714000	0.000000
300.895000	0.000000
301.075000	-0.000000
301.256000	0.000000
301.436000	-0.000000
301.617000	-0.000000
301.797000	-0.000000
301.978000	-0.000000
302.159000	0.000000
302.339000	0.000000
302.520000	0.000000
302.700000	-0.000000
302.881000	0.000000
303.061000	0.000000
303.242000	0.000000
303.422000	0.000000
303.603000	-0.000000
303.783000	-0.000000
303.964000	0.000000
304.144000	-0.000000
304.325000	-0.000000
304.505000	0.000000
304.686000	0.000000
304.866000	0.000000
305.047000	-0.000000
305.227000	-0.000000
305.408000	-0.000000
305.588000	-0.000000
305.769000	-0.000000
305.949000	-0.000000
306.130000	-0.000000
306.310000	-0.000000
306.491000	-0.000000
306.671000	0.000000
306.852000	-0.000000
307.032000	-0.000000
307.213000	-0.000000
307.393000	-0.000000
307.574000	0.000000
307.755000	0.000000
307.935000	0.000000
308.116000	-0.000000
308.296000	-0.000000
308.477000	0.000000
308.657000	0.000000
308.838000	0.000000
309.018000	0.000000
309.199000	-0.000000
309.379000	-0.000000
309.560000	0.000000
309.740000	-0.000000
309.921000	-0.000000
310.101000	-0.000000
310.282000	-0.000000
310.462000	-0.000000
310.643000	-0.000000
310.823000	-0.000000
311.004000	-0.000000
311.184000	-0.000000
311.365000	0.000000
311.545000	0.000000
311.726000	0.000000
311.906000	-0.000000
312.087000	0.000000
312.267000	-0.000000
312.448000	-0.000000
312.628000	-0.000000
312.809000	-0.000000
312.989000	-0.000000
313.170000	-0.000000
313.344000	-0.000000
313.518000	-0.000000
313.691000	-0.000000
313.865000	-0.000000
314.039000	-0.000000
314.213000	-0.000000
314.387000	-0.000000
314.560000	-0.000000
314.734000	-0.000000
314.908000	-0.000000
315.082000	-0.000000
315.255000	0.000000
315.429000	0.000000
315.603000	0.000000
315.777000	-0.000000
315.951000	0.000000
316.124000	-0.000000
316.298000	-0.000000
316.472000	-0.000000
316.646000	-0.000000
316.820000	-0.000000
316.993000	-0.000000
317.167000	-0.000000
317.341000	-0.000000
317.515000	-0.000000
317.688000	-0.000000
317.862000	-0.000000
318.036000	-0.000000
318.210000	-0.000000
318.384000	-0.000000
318.557000	-0.000000
318.731000	-0.000000
318.905000	0.000000
319.079000	0.000000
319.253000	-0.000000
319.426000	0.000000
319.600000	0.000000
319.774000	-0.000000
319.948000	-0.000000
320.122000	0.000000
320.295000	0.000000
320.469000	-0.000000
320.643000	-0.000000
320.817000	-0.000000
320.990000	-0.000000
321.164000	-0.000000
321.338000	-0.000000
321.512000	-0.000000
321.686000	-0.000000
321.859000	-0.000000
322.033000	-0.000000
322.207000	-0.000000
322.381000	-0.000000
322.555000	0.000000
322.728000	-0.000000
322.902000	-0.000000
323.076000	-0.000000
323.250000	-0.000000
323.423000	-0.000000
323.597000	-0.000000
323.771000	-0.000000
323.945000	-0.000000
324.119000	-0.000000
324.292000	0.000000
324.466000	-0.000000
324.640000	0.000000
324.814000	0.000000
324.988000	-0.000000
325.161000	-0.000000
325.335000	-0.000000
325.509000	-0.000000
325.683000	0.000000
325.856000	-0.000000
326.030000	-0.000000
326.204000	-0.000000
326.378000	-0.000000
326.552000	-0.000000
326.725000	-0.000000
326.899000	-0.000000
327.073000	-0.000000
327.247000	-0.000000
327.421000	0.000000
327.594000	-0.000000
327.768000	-0.000000
327.942000	-0.000000
328.116000	0.000000
328.289000	0.000000
328.463000	0.000000
328.637000	0.000000
328.811000	-0.000000
328.985000	-0.000000
329.158000	-0.000000
329.332000	-0.000000
329.506000	0.000000
329.680000	-0.000000
329.854000	-0.000000
330.027000	0.000000
330.201000	0.000000
330.375000	0.000000
330.549000	0.000000
330.723000	0.000000
330.896000	-0.000000
331.070000	-0.000000
331.244000	-0.000000
331.418000	-0.000000
331.591000	-0.000000
331.765000	-0.000000
331.939000	-0.000000
332.113000	-0.000000
332.287000	-0.000000
332.460000	0.000000
332.634000	0.000000
332.808000	-0.000000
332.982000	-0.000000
333.156000	-0.000000
333.329000	-0.000000
333.503000	-0.000000
333.677000	-0.000000
333.851000	-0.000000
334.024000	-0.000000
334.198000	-0.000000
334.372000	-0.000000
334.546000	-0.000000
334.720000	-0.000000
334.893000	-0.000000
335.067000	0.000000
335.241000	0.000000
335.415000	-0.000000
335.589000	-0.000000
335.762000	-0.000000
335.936000	-0.000000
336.110000	-0.000000
336.284000	-0.000000
336.458000	-0.000000
336.631000	-0.000000
336.805000	-0.000000
336.979000	-0.000000
337.153000	-0.000000
337.326000	-0.000000
337.500000	-0.000000
337.674000	-0.000000
337.848000	-0.000000
338.022000	0.000000
338.195000	-0.000000
338.369000	-0.000000
338.543000	-0.000000
338.717000	-0.000000
338.891000	0.000000
339.064000	0.000000
339.238000	-0.000000
339.412000	-0.000000
339.586000	-0.000000
339.759000	-0.000000
339.933000	-0.000000
340.107000	0.000000
340.281000	-0.000000
340.455000	-0.000000
340.628000	-0.000000
340.802000	-0.000000
340.976000	0.000000
341.150000	-0.000000
341.324000	-0.000000
341.497000	-0.000000
341.671000	-0.000000
341.845000	-0.000000
342.019000	-0.000000
342.192000	-0.000000
342.366000	-0.000000
342.540000	-0.000000
342.714000	-0.000000
342.888000	-0.000000
343.061000	-0.000000
343.235000	0.000000
343.409000	-0.000000
343.583000	-0.000000
343.757000	-0.000000
343.930000	-0.000000
344.104000	-0.000000
344.278000	0.000000
344.452000	0.000000
344.626000	-0.000000
344.799000	-0.000000
344.973000	-0.000000
345.147000	-0.000000
345.321000	-0.000000
345.494000	-0.000000
345.668000	0.000000
345.842000	0.000000
346.016000	-0.000000
346.190000	0.000000
346.363000	0.000000
346.537000	-0.000000
346.711000	-0.000000
346.885000	-0.000000
347.059000	-0.000000
347.232000	-0.000000
347.406000	0.000000
347.580000	-0.000000
347.754000	-0.000000
347.927000	0.000000
348.101000	0.000000
348.275000	-0.000000
348.449000	-0.000000
348.623000	-0.000000
348.796000	0.000000
348.970000	0.000000
349.144000	-0.000000
349.318000	-0.000000
349.492000	-0.000000
349.665000	-0.000000
349.839000	-0.000000
350.013000	-0.000000
350.187000	-0.000000
350.361000	-0.000000
350.534000	-0.000000
350.708000	-0.000000
350.882000	-0.000000
351.056000	0.000000
351.229000	0.000000
351.403000	-0.000000
351.577000	-0.000000
351.751000	-0.000000
351.925000	-0.000000
352.098000	-0.000000
352.272000	-0.000000
352.446000	-0.000000
352.620000	-0.000000
352.794000	-0.000000
352.967000	-0.000000
353.141000	0.000000
353.315000	0.000000
353.489000	-0.000000
353.662000	-0.000000
353.836000	-0.000000
354.010000	-0.000000
354.184000	0.000000
354.358000	-0.000000
354.531000	-0.000000
354.705000	-0.000000
354.879000	-0.000000
355.053000	-0.000000
355.227000	0.000000
355.400000	-0.000000
355.574000	0.000000
355.748000	0.000000
355.922000	-0.000000
356.095000	-0.000000
356.269000	0.000000
356.443000	-0.000000
356.617000	-0.000000
356.791000	-0.000000
356.964000	-0.000000
357.138000	-0.000000
357.312000	-0.000000
357.486000	-0.000000
357.660000	-0.000000
357.833000	-0.000000
358.007000	-0.000000
358.181000	-0.000000
358.355000	-0.000000
358.529000	-0.000000
358.702000	-0.000000
358.876000	-0.000000
359.050000	-0.000000
359.224000	-0.000000
359.397000	-0.000000
359.571000	-0.000000
359.745000	-0.000000
359.919000	0.000000
360.093000	0.003254
360.266000	0.046467
360.440000	0.113309
360.614000	0.113000
360.788000	0.036041
360.962000	-0.183416
361.135000	-0.050305
361.309000	-0.157668
361.483000	-0.278985
361.657000	-0.231470
361.830000	-0.220584
362.004000	-0.036810
362.178000	-0.330214
362.352000	-0.270911
362.526000	-0.024825
362.699000	-0.078207
362.873000	-0.415108
363.047000	-0.385214
363.221000	-0.327796
363.395000	-0.193424
363.568000	-0.191263
363.742000	-0.224381
363.916000	-0.209914
364.090000	-0.301031
364.263000	-0.253448
364.437000	-0.362399
364.611000	-0.043053
364.785000	-0.016627
364.959000	-0.205185
365.132000	-0.226454
365.306000	-0.205322
365.480000	-0.056490
365.656000	-0.133130
365.831000	-0.176292
366.007000	-0.168718
366.183000	-0.141449
366.358000	-0.234991
366.534000	-0.116965
366.710000	-0.302126
366.886000	-0.278314
367.061000	-0.072452
367.237000	0.051966
367.413000	-0.037572
367.588000	-0.309631
367.764000	-0.296625
367.940000	-0.301974
368.115000	-0.275518
368.291000	-0.296907
368.467000	-0.162339
368.643000	0.115609
368.818000	-0.278511
368.994000	-0.362393
369.170000	-0.223946
369.345000	-0.188268
369.521000	-0.260074
369.697000	-0.072250
369.872000	-0.110773
370.048000	-0.359753
370.224000	-0.296535
370.399000	-0.465825
370.575000	-0.387716
370.751000	-0.433059
370.927000	-0.329376
371.102000	-0.419818
371.278000	-0.406815
371.454000	-0.221406
371.629000	0.076199
371.805000	-0.035717
371.981000	0.098932
372.156000	0.286744
372.332000	0.078420
372.508000	-0.021302
372.683000	-0.021175
372.859000	-0.079160
373.035000	-0.101930
373.211000	0.322966
373.386000	0.062539
373.562000	-0.342147
373.738000	-0.422731
373.913000	-0.597792
374.089000	-0.406763
374.265000	-0.021534
374.440000	-0.036454
374.616000	0.033436
374.792000	-0.153346
374.968000	0.168603
375.143000	0.011171
375.319000	-0.229682
375.495000	-0.359834
375.670000	-0.200721
375.846000	-0.068444
376.022000	-0.233824
376.197000	-0.177463
376.373000	-0.313690
376.549000	-0.365961
376.724000	-0.499798
376.900000	-0.322683
377.076000	-0.127870
377.252000	0.077165
377.427000	0.130358
377.603000	-0.209502
377.779000	-0.198905
377.954000	-0.318525
378.130000	-0.163953
378.306000	-0.102009
378.481000	-0.122682
378.657000	-0.209491
378.833000	-0.251036
379.009000	-0.112944
379.184000	0.007401
379.360000	-0.093979
379.536000	-0.101804
379.711000	-0.110658
379.887000	-0.264286
380.063000	-0.327812
380.238000	-0.361759
380.414000	-0.048589
380.590000	-0.250240
380.765000	-0.291688
380.941000	-0.072717
381.117000	-0.006568
381.293000	-0.120370
381.468000	-0.344127
381.644000	-0.280031
381.820000	-0.103588
381.995000	-0.048628
382.171000	0.218278
382.347000	0.137268
382.522000	-0.289403
382.698000	0.080236
382.874000	0.166821
383.050000	-0.264984
383.225000	0.125830
383.401000	0.322078
383.577000	-0.091217
383.752000	-0.275971
383.928000	-0.265013
384.104000	-0.091493
384.279000	-0.172880
384.455000	-0.164560
384.631000	-0.168241
384.806000	-0.266840
384.982000	-0.089214
385.158000	-0.208110
385.334000	-0.030448
385.509000	-0.119895
385.685000	-0.432347
385.861000	-0.278838
386.036000	-0.381690
386.212000	-0.566973
386.388000	-0.327281
386.563000	-0.306222
386.739000	-0.340441
386.915000	-0.535270
387.090000	-0.235230
387.266000	-0.023821
387.442000	0.027937
387.618000	-0.129686
387.793000	-0.382741
387.969000	-0.482579
388.145000	-0.388327
388.320000	-0.358422
388.496000	-0.338812
388.672000	-0.564919
388.847000	-0.156305
389.023000	-0.133320
389.199000	-0.464750
389.375000	-0.217006
389.550000	-0.276025
389.726000	-0.134815
389.902000	-0.385945
390.077000	-0.156683
390.253000	-0.067630
390.429000	-0.276554
390.604000	-0.176190
390.780000	-0.084110
390.956000	-0.214181
391.131000	-0.243880
391.307000	0.100768
391.483000	-0.133525
391.659000	-0.332052
391.834000	-0.099957
392.010000	-0.280101
392.186000	-0.390679
392.361000	-0.270951
392.537000	-0.381123
392.713000	0.085938
392.888000	0.283918
393.064000	-0.039381
393.240000	-0.240643
393.416000	-0.353988
393.591000	-0.449067
393.767000	-0.496902
393.943000	-0.372827
394.118000	-0.006185
394.294000	0.244297
394.470000	0.042504
394.645000	0.090883
394.821000	0.358160
394.997000	-0.070798
395.172000	-0.144386
395.348000	-0.218777
395.524000	-0.479016
395.700000	-0.307838
395.875000	-0.073100
396.051000	-0.079380
396.227000	-0.134571
396.402000	-0.235377
396.578000	-0.134940
396.754000	-0.249518
396.929000	-0.245214
397.105000	0.013054
397.281000	-0.091988
397.457000	-0.228189
397.632000	-0.181821
397.808000	-0.454761
397.984000	-0.554339
398.159000	-0.479113
398.335000	-0.230949
398.511000	0.224832
398.686000	-0.006002
398.862000	-0.310302
399.038000	-0.444069
399.213000	-0.158539
399.389000	-0.435796
399.565000	-0.112319
399.741000	0.050315
399.916000	-0.043859
400.092000	0.276628
400.268000	-0.111796
400.443000	-0.258085
400.619000	0.151291
400.795000	0.012943
400.970000	-0.214633
401.146000	-0.259256
401.322000	0.082175
401.497000	0.425045
401.673000	0.136298
401.849000	-0.176191
402.025000	0.022284
402.200000	-0.109237
402.376000	-0.221820
402.552000	0.188808
402.727000	-0.009068
402.903000	-0.358521
403.079000	-0.274458
403.254000	0.034688
403.430000	0.059290
403.606000	-0.021454
403.782000	-0.179805
403.957000	-0.320458
404.133000	-0.414955
404.309000	-0.330552
404.484000	-0.080555
404.660000	0.000312
404.841000	-0.121399
405.023000	0.087215
405.204000	-0.030818
405.385000	-0.356185
405.566000	-0.345244
405.748000	-0.128654
405.929000	0.063542
406.110000	0.003437
406.292000	-0.145087
406.473000	-0.055511
406.654000	-0.234125
406.835000	-0.015264
407.017000	-0.061758
407.198000	-0.110169
407.379000	-0.079262
407.560000	-0.100999
407.742000	-0.129626
407.923000	-0.102348
408.104000	-0.269051
408.286000	-0.092386
408.467000	-0.036678
408.648000	-0.259394
408.829000	-0.335502
409.011000	-0.200195
409.192000	-0.337230
409.373000	-0.126484
409.555000	-0.015156
409.736000	-0.048850
409.917000	-0.218638
410.098000	-0.238634
410.280000	-0.066601
410.461000	-0.042197
410.642000	-0.060523
410.823000	0.164478
411.005000	0.119025
411.186000	-0.145911
411.367000	-0.173476
411.549000	-0.136792
411.730000	0.061219
411.911000	0.179699
412.092000	-0.054264
412.274000	-0.111020
412.455000	0.036480
412.636000	0.081779
412.818000	-0.146977
412.999000	-0.226588
413.180000	-0.131848
413.361000	-0.165499
413.543000	-0.194600
413.724000	-0.227000
413.905000	-0.227007
414.087000	-0.278433
414.268000	-0.230917
414.449000	-0.171952
414.630000	-0.282931
414.812000	-0.350790
414.993000	0.032742
415.174000	0.165561
415.355000	-0.059091
415.537000	-0.253943
415.718000	0.035807
415.899000	-0.082318
416.081000	-0.155438
416.262000	0.073601
416.443000	-0.119631
416.624000	-0.075581
416.806000	0.079235
416.987000	0.223568
417.168000	0.114181
417.350000	-0.110651
417.531000	-0.118692
417.712000	-0.054843
417.893000	0.177232
418.075000	0.257484
418.256000	0.069847
418.437000	0.154515
418.618000	0.252538
418.800000	0.289774
418.981000	0.052137
419.162000	0.086144
419.344000	0.317166
419.525000	0.223303
419.706000	0.165561
419.887000	0.283869
420.069000	0.410758
420.250000	0.335512
420.431000	0.262627
420.613000	0.188562
420.794000	-0.025828
420.975000	0.379389
421.156000	0.262142
421.338000	0.244678
421.519000	0.296371
421.700000	0.204990
421.882000	0.207836
422.063000	0.365481
422.244000	0.829978
422.425000	0.680935
422.607000	0.307901
422.788000	0.309361
422.969000	0.238377
423.150000	0.244397
423.332000	0.157784
423.513000	0.365124
423.694000	0.355491
423.876000	0.426390
424.057000	0.556035
424.238000	0.653503
424.419000	0.722076
424.601000	0.542288
424.782000	0.492517
424.963000	0.723886
425.145000	0.746019
425.326000	0.774352
425.507000	0.813289
425.688000	0.685070
425.870000	0.578029
426.051000	0.505220
426.232000	0.571159
426.413000	0.620688
426.595000	0.574381
426.776000	0.579855
426.957000	0.694735
427.139000	0.806571
427.320000	0.908126
427.501000	1.044755
427.682000	0.993584
427.864000	1.030429
428.045000	1.316252
428.226000	1.300688
428.408000	0.952235
428.589000	1.106651
428.770000	1.144385
428.951000	1.108007
429.133000	1.056063
429.314000	1.237439
429.495000	1.210549
429.677000	1.229126
429.858000	1.247622
430.039000	1.418077
430.220000	1.633179
430.402000	1.650917
430.583000	1.457272
430.764000	1.477129
430.945000	1.579988
431.127000	1.832480
431.308000	1.694205
431.489000	1.939214
431.671000	2.049777
431.852000	1.973777
432.033000	1.900369
432.214000	2.006866
432.396000	2.156598
432.577000	2.017284
432.758000	1.923501
432.940000	2.048771
433.121000	2.213358
433.302000	2.363783
433.483000	2.617754
433.665000	2.756999
433.846000	2.708638
434.027000	2.635782
434.208000	2.520682
434.390000	2.625230
434.571000	3.088775
434.752000	3.572294
434.934000	3.469734
435.115000	3.458987
435.296000	3.638102
435.477000	3.544488
435.659000	3.288356
435.840000	3.498714
436.026000	3.578640
436.211000	3.495466
436.397000	3.267157
436.582000	3.485104
436.768000	3.827711
436.953000	3.833384
437.139000	3.906357
437.325000	4.242738
437.510000	4.288005
437.696000	4.626503
437.881000	4.635322
438.067000	4.293526
438.252000	4.550729
438.438000	4.603618
438.624000	4.651922
438.809000	4.877742
438.995000	5.055437
439.180000	5.090184
439.366000	5.140464
439.551000	5.315985
439.737000	5.534716
439.923000	5.703074
440.108000	5.642813
440.294000	5.870128
440.479000	6.116604
440.665000	6.290359
440.850000	6.395238
441.036000	6.503241
441.222000	6.621978
441.407000	6.565620
441.593000	6.777834
441.778000	7.071801
441.964000	7.353328
442.149000	7.188541
442.335000	7.314199
442.521000	7.588305
442.706000	7.864136
442.892000	7.997594
443.077000	8.129257
443.263000	8.301796
443.448000	8.277111
443.634000	8.425071
443.820000	8.921116
444.005000	9.008549
444.191000	8.938905
444.376000	9.180847
444.562000	9.666692
444.747000	9.837696
444.933000	9.937291
445.119000	10.038355
445.304000	10.151827
445.490000	10.470134
445.675000	10.717048
445.861000	10.883061
446.046000	10.934116
446.232000	11.180574
446.418000	11.533847
446.603000	11.711672
446.789000	11.920190
446.974000	12.173027
447.160000	12.111854
447.345000	12.389215
447.531000	12.605455
447.717000	13.174310
447.902000	13.615792
448.088000	13.625275
448.273000	13.582373
448.459000	13.826996
448.644000	14.016533
448.830000	14.231928
449.016000	14.456987
449.201000	14.781540
449.387000	15.197603
449.572000	15.516554
449.758000	15.599929
449.943000	15.720794
450.129000	15.928119
450.315000	16.184814
450.500000	16.434288
450.686000	16.911535
450.871000	17.021212
451.057000	17.448657
451.243000	17.749720
451.428000	18.048595
451.614000	18.248352
451.799000	18.526334
451.985000	18.919501
452.170000	19.192382
452.356000	19.256790
452.542000	19.399685
452.727000	19.833583
452.913000	19.858981
453.098000	20.296505
453.284000	20.886775
453.469000	20.957909
453.655000	21.338757
453.841000	21.295485
454.026000	21.163477
454.212000	21.395428
454.397000	21.533240
454.583000	21.865055
454.768000	21.826057
454.954000	22.126742
455.140000	22.175937
455.325000	22.238315
455.511000	22.498565
455.696000	22.706126
455.882000	22.797545
456.067000	23.117255
456.253000	23.094656
456.439000	23.093640
456.624000	23.097006
456.810000	23.129390
456.995000	23.213440
457.181000	23.197662
457.366000	23.265454
457.552000	23.067939
457.738000	23.203365
457.923000	23.298821
458.109000	23.612455
458.294000	23.422241
458.480000	23.362994
458.665000	23.151017
458.851000	22.823375
459.037000	22.487868
459.222000	22.621393
459.408000	22.574842
459.593000	22.383840
459.779000	22.223393
459.964000	22.290607
460.150000	22.452067
460.336000	22.150511
460.521000	21.594971
460.707000	21.315005
460.892000	20.914632
461.078000	20.996101
461.263000	20.851333
461.449000	20.510606
461.635000	20.240707
461.820000	20.042970
462.006000	19.863217
462.191000	19.471362
462.377000	18.929213
462.562000	19.079142
462.748000	19.087948
462.934000	18.457476
463.119000	17.868297
463.305000	17.637691
463.490000	17.416574
463.676000	17.279638
463.861000	17.016125
464.047000	16.660581
464.233000	16.397863
464.418000	16.053695
464.604000	15.589504
464.789000	15.688645
464.975000	15.472993
465.160000	15.054612
465.346000	14.763428
465.532000	14.409745
465.717000	14.090306
465.903000	14.081277
466.088000	13.799964
466.274000	13.362484
466.459000	13.126210
466.645000	13.358539
466.831000	13.048587
467.016000	12.790373
467.202000	12.512028
467.387000	12.099914
467.573000	11.684594
467.758000	11.740798
467.944000	11.440968
468.130000	11.197435
468.315000	11.163696
468.501000	11.064457
468.686000	10.765141
468.872000	10.676514
469.057000	10.438582
469.243000	10.255207
469.429000	10.106860
469.614000	9.749278
469.800000	9.576300
469.985000	9.647065
470.171000	9.563122
470.356000	9.268486
470.542000	9.284281
470.728000	9.121044
470.913000	8.897189
471.099000	8.812835
471.284000	8.573285
471.470000	8.508967
471.655000	8.389597
471.841000	8.198980
472.027000	8.044205
472.212000	8.164260
472.398000	8.025064
472.583000	7.777804
472.769000	7.715657
472.954000	7.484923
473.140000	7.278667
473.326000	7.150638
473.511000	7.268882
473.697000	7.227322
473.882000	7.012081
474.068000	6.828166
474.253000	6.600285
474.439000	6.610775
474.625000	6.600874
474.810000	6.433082
474.996000	6.350094
475.181000	6.156940
475.367000	6.309207
475.552000	6.395535
475.738000	6.000199
475.924000	5.880542
476.109000	5.845448
476.295000	5.630251
476.480000	5.568306
476.666000	5.496576
476.851000	5.362805
477.037000	5.347018
477.223000	5.118567
477.408000	4.897190
477.594000	4.693997
477.779000	4.797647
477.965000	4.744644
478.151000	4.535908
478.336000	4.638593
478.522000	4.459374
478.707000	4.338821
478.893000	4.354359
479.078000	4.069015
479.264000	4.030568
479.450000	4.076083
479.635000	4.077133
479.821000	3.897650
480.006000	3.835451
480.192000	3.787978
480.377000	3.811599
480.563000	3.715689
480.749000	3.404066
480.934000	3.332419
481.120000	3.387954
481.305000	3.394191
481.491000	3.307204
481.676000	3.281707
481.862000	3.240853
482.048000	3.006589
482.233000	3.055515
482.419000	2.992281
482.604000	2.839557
482.790000	2.714547
482.975000	2.741220
483.161000	2.844696
483.347000	2.713334
483.532000	2.628598
483.718000	2.417896
483.903000	2.405915
484.089000	2.415453
484.274000	2.236589
484.460000	2.344133
484.646000	2.333364
484.831000	2.212159
485.017000	2.231472
485.202000	2.170468
485.388000	2.313041
485.573000	2.299774
485.759000	2.061086
485.945000	2.201263
486.130000	1.977039
486.316000	1.918867
486.501000	1.996517
486.687000	1.778483
486.872000	1.719170
487.058000	1.903210
487.244000	1.810705
487.429000	1.616457
487.615000	1.792746
487.800000	1.851101
487.986000	1.673090
488.171000	1.752880
488.357000	1.669128
488.543000	1.637202
488.728000	1.672208
488.914000	1.610769
489.099000	1.521454
489.285000	1.460078
489.470000	1.587446
489.656000	1.558539
489.842000	1.494748
490.027000	1.564935
490.213000	1.351584
490.398000	1.089146
490.584000	1.350224
490.769000	1.339540
490.955000	1.326568
491.141000	1.304491
491.326000	1.297807
491.512000	1.439196
491.697000	1.313586
491.883000	1.108889
492.068000	1.026500
492.254000	1.077085
492.440000	1.197203
492.625000	1.069020
492.811000	0.980431
492.996000	1.078025
493.182000	1.045212
493.367000	0.879839
493.553000	0.804303
493.739000	0.882963
493.924000	0.926057
494.110000	0.908443
494.295000	0.801124
494.481000	0.881673
494.666000	0.938870
494.852000	1.077525
495.038000	0.868644
495.223000	0.713139
495.409000	0.790725
495.594000	0.750248
495.780000	0.752463
495.965000	0.613467
496.151000	0.823151
496.337000	0.884827
496.522000	0.661622
496.708000	0.755585
496.893000	0.863745
497.079000	0.683067
497.264000	0.650688
497.450000	0.665448
497.636000	0.759395
497.821000	0.593978
498.007000	0.776063
498.192000	0.812175
498.378000	0.605523
498.563000	0.537286
498.749000	0.548213
498.935000	0.555676
499.120000	0.647370
499.306000	0.472298
499.491000	0.390487
499.677000	0.526613
499.862000	0.601136
500.048000	0.629179
500.234000	0.476438
500.419000	0.458638
500.605000	0.593998
500.790000	0.479275
500.976000	0.328409
501.161000	0.259791
501.347000	0.430059
501.533000	0.542542
501.718000	0.432158
501.904000	0.335333
502.089000	0.444234
502.275000	0.492981
502.460000	0.367143
502.646000	0.409076
502.832000	0.479900
503.017000	0.470465
503.203000	0.229415
503.388000	0.152684
503.574000	0.371024
503.759000	0.416743
503.945000	0.421626
504.131000	0.323572
504.316000	0.292101
504.502000	0.300555
504.687000	0.246984
504.873000	0.094371
505.058000	0.075529
505.244000	0.098520
505.430000	0.161575
505.615000	0.283482
505.801000	0.336547
505.986000	0.150831
506.172000	0.180228
506.358000	0.184834
506.543000	0.193122
506.729000	0.415640
506.914000	0.349265
507.100000	0.441186
507.285000	0.245376
507.471000	0.124768
507.657000	0.287291
507.842000	0.179388
508.028000	0.042399
508.213000	0.101715
508.399000	0.161259
508.584000	0.271719
508.770000	0.097612
508.956000	0.044712
509.141000	0.152649
509.327000	0.214489
509.512000	0.131227
509.698000	0.110263
509.883000	0.157260
510.069000	0.127892
510.255000	0.176914
510.440000	0.206975
510.626000	0.098214
510.811000	0.066353
510.997000	0.168798
511.182000	0.415845
511.368000	0.303208
511.554000	-0.036082
511.739000	0.047153
511.925000	0.211576
512.110000	0.202845
512.296000	0.325236
512.481000	0.388912
512.667000	0.250361
512.853000	0.045120
513.038000	0.109425
513.224000	0.081606
513.409000	0.002356
513.595000	0.128922
513.780000	-0.044810
513.966000	0.045130
514.152000	-0.001925
514.337000	-0.063986
514.523000	0.057999
514.708000	0.088052
514.894000	0.122667
515.079000	0.013053
515.265000	0.015246
515.451000	0.015252
515.636000	-0.010518
515.822000	0.129170
516.007000	-0.001935
516.193000	0.150538
516.378000	0.189516
516.564000	0.041027
516.750000	0.043190
516.935000	0.157154
517.121000	0.146377
517.306000	0.234718
517.492000	0.207061
517.677000	-0.021307
517.863000	-0.049295
518.049000	0.043281
518.234000	-0.044969
518.420000	0.086388
518.605000	0.301717
518.791000	0.290804
518.976000	0.095302
519.162000	-0.032141
519.348000	0.086517
519.533000	0.073465
519.719000	0.278415
519.904000	0.211800
520.090000	0.144577
520.275000	0.293444
520.461000	0.283223
520.647000	0.043415
520.832000	-0.151390
521.018000	-0.036507
521.203000	0.026053
521.389000	-0.107362
521.574000	-0.064397
521.760000	0.062757
521.946000	0.047806
522.131000	-0.105870
522.317000	-0.060311
522.502000	-0.008427
522.688000	0.112625
522.873000	0.037000
523.059000	0.041357
523.245000	0.004543
523.430000	-0.151404
523.616000	-0.144866
523.801000	-0.151562
523.987000	-0.095358
524.172000	0.021937
524.358000	0.050193
524.544000	0.034926
524.729000	0.158156
524.915000	0.171547
525.100000	0.041407
525.286000	0.074034
525.471000	0.100370
525.657000	0.130986
525.843000	-0.121975
526.028000	0.008953
526.214000	-0.028157
526.399000	-0.115801
526.585000	-0.199025
526.770000	-0.199002
526.956000	-0.078790
527.142000	-0.120468
527.327000	0.039763
527.513000	-0.078964
527.698000	-0.149517
527.884000	-0.077131
528.069000	-0.041686
528.255000	0.066476
528.441000	-0.094858
528.626000	-0.059662
528.812000	0.193026
528.997000	0.033531
529.183000	-0.117420
529.368000	-0.091206
529.554000	-0.053437
529.740000	-0.031166
529.925000	-0.060328
530.111000	-0.044678
530.296000	0.015964
530.482000	0.106163
530.667000	0.025029
530.853000	0.106545
531.039000	0.000227
531.224000	0.057209
531.410000	0.162004
531.595000	0.032157
531.781000	0.077782
531.967000	-0.041058
532.152000	0.085364
532.338000	0.027896
532.523000	-0.154530
532.709000	-0.199151
532.894000	-0.053353
533.080000	0.011895
533.266000	-0.158483
533.451000	-0.152044
533.637000	-0.117283
533.822000	0.059229
534.008000	-0.082282
534.193000	-0.075488
534.379000	0.009737
534.565000	-0.030760
534.750000	-0.057200
534.936000	0.173213
535.121000	-0.016619
535.307000	0.014718
535.492000	0.031658
535.678000	-0.179659
535.864000	-0.009528
536.049000	0.302486
536.235000	0.054365
536.420000	0.022488
536.606000	-0.017100
536.791000	-0.109443
536.977000	-0.122213
537.163000	0.125699
537.348000	0.088580
537.534000	0.134903
537.719000	-0.032855
537.905000	-0.211960
538.090000	0.059296
538.276000	0.172849
538.462000	0.126893
538.647000	0.161139
538.833000	0.023742
539.018000	0.152294
539.204000	0.105184
539.389000	-0.081607
539.575000	0.243441
539.761000	0.194184
539.946000	-0.066457
540.132000	0.002947
540.317000	-0.101839
540.503000	0.051433
540.688000	0.027369
540.874000	0.318283
541.060000	0.435014
541.245000	0.251423
541.431000	0.115364
541.616000	0.242077
541.802000	0.278036
541.987000	0.345022
542.173000	0.340803
542.359000	0.202616
542.544000	0.293657
542.730000	0.158667
542.915000	0.133981
543.101000	0.337516
543.286000	0.190195
543.472000	0.042436
543.658000	0.124025
543.843000	0.129969
544.029000	0.328370
544.214000	0.198521
544.400000	-0.107452
544.585000	0.077001
544.771000	0.171326
544.957000	0.445953
545.142000	0.552110
545.328000	0.573630
545.513000	0.586188
545.699000	0.531028
545.884000	0.312022
546.070000	0.286175
546.261000	0.226355
546.451000	-0.011338
546.642000	-0.206481
546.833000	-0.063889
547.023000	-0.174707
547.214000	-0.140272
547.405000	0.035428
547.595000	0.287597
547.786000	0.221017
547.977000	-0.046921
548.167000	-0.132611
548.358000	-0.073866
548.549000	0.274220
548.740000	0.110462
548.930000	-0.240957
549.121000	-0.217754
549.312000	-0.239576
549.502000	-0.261194
549.693000	-0.134846
549.884000	-0.023733
550.074000	0.081700
550.265000	-0.096399
550.456000	-0.011814
550.646000	0.030668
550.837000	0.027641
551.028000	-0.054444
551.218000	0.048956
551.409000	-0.085208
551.600000	-0.066941
551.790000	0.098506
551.981000	-0.162327
552.172000	-0.171853
552.362000	0.233852
552.553000	0.284458
552.744000	0.046606
552.934000	0.009576
553.125000	-0.067774
553.316000	-0.170007
553.506000	0.239246
553.697000	0.090635
553.888000	0.034511
554.079000	0.202564
554.269000	0.196538
554.460000	-0.155816
554.651000	-0.196611
554.841000	-0.312616
555.032000	-0.181463
555.223000	-0.065594
555.413000	0.056555
555.604000	-0.018513
555.795000	-0.116090
555.985000	-0.028058
556.176000	-0.131851
556.367000	-0.361489
556.557000	-0.179611
556.748000	-0.081915
556.939000	-0.160736
557.129000	-0.293120
557.320000	-0.100714
557.511000	-0.106829
557.701000	-0.128684
557.892000	-0.088134
558.083000	0.142313
558.273000	0.035033
558.464000	-0.233249
558.655000	-0.188898
558.845000	-0.062571
559.036000	0.063245
559.227000	0.069589
559.418000	0.189594
559.608000	0.176905
559.799000	-0.232746
559.990000	-0.319225
560.180000	-0.247496
560.371000	-0.386103
560.562000	-0.247494
560.752000	-0.046781
560.943000	-0.194435
561.134000	-0.347415
561.324000	-0.171777
561.515000	0.056528
561.706000	-0.121624
561.896000	-0.317907
562.087000	-0.217828
562.278000	-0.252009
562.468000	-0.398813
562.659000	-0.291995
562.850000	0.090548
563.040000	0.146558
563.231000	-0.392061
563.422000	-0.251100
563.612000	-0.301093
563.803000	-0.179583
563.994000	-0.181808
564.185000	-0.295521
564.375000	-0.098415
564.566000	-0.129109
564.757000	-0.154188
564.947000	-0.265111
565.138000	-0.150408
565.329000	-0.205358
565.519000	-0.377062
565.710000	-0.282237
565.901000	-0.030425
566.091000	0.077082
566.282000	-0.165146
566.473000	-0.131036
566.663000	-0.088171
566.854000	-0.318771
567.045000	-0.190645
567.235000	-0.120912
567.426000	-0.084516
567.617000	-0.032900
567.807000	-0.069150
567.998000	-0.008739
568.189000	-0.171426
568.379000	-0.101874
568.570000	0.024308
568.761000	-0.077561
568.951000	-0.188062
569.142000	-0.296094
569.333000	-0.287108
569.524000	-0.303928
569.714000	-0.408282
569.905000	-0.556444
570.096000	-0.097932
570.286000	0.074614
570.477000	0.095163
570.668000	-0.109291
570.858000	-0.064860
571.049000	-0.209244
571.240000	-0.292026
571.430000	-0.085223
571.621000	-0.128997
571.812000	-0.119692
572.002000	-0.128699
572.193000	-0.248491
572.384000	-0.055294
572.574000	-0.052410
572.765000	-0.122458
572.956000	-0.124988
573.146000	0.029470
573.337000	-0.139487
573.528000	-0.156687
573.718000	-0.022905
573.909000	0.014766
574.100000	-0.025676
574.290000	-0.134871
574.481000	-0.157524
574.672000	-0.160577
574.863000	0.028897
575.053000	-0.079674
575.244000	-0.008262
575.435000	-0.142024
575.625000	-0.104561
575.816000	-0.155373
576.007000	-0.132733
576.197000	-0.098927
576.388000	-0.087248
576.579000	0.084961
576.769000	0.051030
576.960000	-0.230729
577.155000	-0.367754
577.350000	-0.212973
577.545000	0.000280
577.740000	-0.128173
577.935000	0.214853
578.130000	0.148088
578.326000	-0.205467
578.521000	0.050301
578.716000	0.121992
578.911000	-0.190385
579.106000	-0.085062
579.301000	0.033207
579.496000	-0.117365
579.691000	-0.415211
579.886000	-0.209654
580.081000	-0.029671
580.276000	-0.075761
580.471000	-0.195208
580.666000	-0.278888
580.861000	-0.286917
581.057000	-0.300659
581.252000	-0.100063
581.447000	-0.189125
581.642000	-0.165051
581.837000	-0.170242
582.032000	-0.191348
582.227000	0.064664
582.422000	0.010980
582.617000	-0.202351
582.812000	-0.257673
583.007000	-0.225640
583.202000	-0.365825
583.397000	-0.047320
583.592000	0.237767
583.788000	-0.026042
583.983000	-0.078577
584.178000	-0.025976
584.373000	-0.180240
584.568000	-0.200747
584.763000	-0.245363
584.958000	-0.289764
585.153000	-0.193103
585.348000	-0.179939
585.543000	-0.054638
585.738000	-0.133006
585.933000	-0.360436
586.128000	-0.031093
586.324000	0.008121
586.519000	0.000262
586.714000	0.073617
586.909000	0.139361
587.104000	0.137192
587.299000	-0.054877
587.494000	-0.041692
587.689000	-0.081184
587.884000	-0.070887
588.079000	-0.078798
588.274000	-0.073663
588.469000	-0.120945
588.664000	0.013456
588.859000	-0.031443
589.055000	-0.097611
589.250000	-0.132063
589.445000	-0.235562
589.640000	-0.195974
589.835000	0.048114
590.030000	0.141110
590.225000	0.130504
590.420000	-0.103537
590.615000	-0.210189
590.810000	-0.159395
591.005000	-0.098593
591.200000	-0.144075
591.395000	-0.250958
591.591000	-0.141138
591.786000	-0.010397
591.981000	-0.136089
592.176000	-0.098859
592.371000	-0.128379
592.566000	-0.149711
592.761000	0.069891
592.956000	0.064645
593.151000	0.040524
593.346000	-0.026642
593.541000	-0.010485
593.736000	-0.045573
593.931000	-0.202065
594.126000	-0.096994
594.322000	-0.034852
594.517000	-0.226625
594.712000	-0.305091
594.907000	-0.327886
595.102000	-0.170812
595.297000	-0.056719
595.492000	0.016590
595.687000	-0.157782
595.882000	-0.256013
596.077000	-0.133582
596.272000	-0.018845
596.467000	0.033058
596.662000	-0.100912
596.857000	-0.134263
597.053000	-0.148240
597.248000	-0.040961
597.443000	0.055330
597.638000	-0.101821
597.833000	-0.289734
598.028000	-0.057653
598.223000	0.027915
598.418000	-0.102170
598.613000	-0.182442
598.808000	-0.038511
599.003000	-0.044100
599.198000	-0.227444
599.393000	-0.221822
599.589000	-0.069317
599.784000	-0.217009
599.979000	-0.139214
600.174000	0.036572
600.369000	-0.175787
600.564000	-0.114452
600.759000	0.084328
600.954000	0.159702
601.149000	0.059195
601.344000	-0.255275
601.539000	-0.109371
601.734000	-0.229968
601.929000	-0.374112
602.124000	-0.244827
602.320000	-0.092851
602.515000	0.107544
602.710000	0.116252
602.905000	-0.220310
603.100000	-0.341368
603.295000	-0.271277
603.490000	-0.147232
603.685000	-0.073487
603.880000	-0.116188
604.075000	-0.304449
604.270000	-0.293678
604.465000	-0.139455
604.660000	-0.302254
604.856000	-0.173689
605.051000	-0.034005
605.246000	-0.045397
605.441000	-0.216867
605.636000	-0.316962
605.831000	-0.168651
606.026000	-0.283066
606.221000	-0.317847
606.416000	-0.120242
606.611000	0.017523
606.806000	0.049077
607.001000	0.184203
607.196000	-0.083126
607.391000	-0.267585
607.587000	0.029151
607.782000	-0.083521
607.977000	-0.331279
608.172000	0.069702
608.367000	0.087054
608.562000	-0.101138
608.757000	-0.127178
608.952000	-0.185549
609.147000	0.232301
609.342000	0.113571
609.537000	-0.136477
609.732000	-0.101718
609.927000	-0.075338
610.122000	-0.008450
610.318000	0.268621
610.513000	0.446766
610.708000	0.391748
610.903000	0.482848
611.098000	0.516119
611.293000	0.460559
611.488000	0.431301
611.683000	0.299885
611.878000	0.247091
612.073000	0.297123
612.268000	0.306273
612.463000	0.371830
612.658000	0.321707
612.854000	0.168726
613.049000	0.029858
613.244000	0.195521
613.439000	0.242942
613.634000	-0.067932
613.829000	0.068545
614.024000	-0.100831
614.219000	-0.109738
614.414000	0.235392
614.609000	0.045003
614.804000	-0.196454
614.999000	-0.199253
615.194000	-0.011646
615.389000	-0.005680
615.585000	-0.251290
615.780000	0.003297
615.975000	-0.125851
616.170000	-0.162011
616.365000	0.150742
616.560000	0.229192
616.755000	0.145304
616.950000	0.030524
617.145000	0.127351
617.340000	-0.129895
617.535000	-0.329728
617.730000	-0.033048
617.925000	-0.227461
618.120000	-0.260948
618.316000	0.085549
618.511000	-0.021026
618.706000	-0.186233
618.901000	-0.066936
619.096000	0.046328
619.291000	-0.113113
619.486000	-0.058120
619.681000	-0.307445
619.876000	-0.393447
620.071000	-0.239847
620.266000	0.102160
620.461000	0.142538
620.656000	0.037482
620.852000	-0.021347
621.047000	-0.123744
621.242000	-0.229491
621.437000	0.056342
621.632000	0.159407
621.827000	-0.055889
622.022000	-0.330907
622.217000	-0.146945
622.412000	0.031679
622.607000	0.037989
622.802000	-0.181876
622.997000	-0.248706
623.192000	-0.116305
623.387000	-0.065889
623.583000	-0.325041
623.778000	0.057332
623.973000	0.032013
624.168000	-0.015568
624.363000	0.032040
624.558000	0.089292
624.753000	-0.171826
624.948000	-0.006068
625.143000	0.022693
625.338000	-0.025292
625.533000	-0.124579
625.728000	-0.041357
625.923000	0.167140
626.119000	0.058201
626.314000	-0.266822
626.509000	-0.358039
626.704000	-0.300719
626.899000	-0.177865
627.094000	-0.194334
627.289000	-0.237054
627.484000	-0.279984
627.679000	-0.234562
627.874000	-0.176067
628.069000	0.160622
628.264000	0.000327
628.459000	-0.140542
628.654000	-0.124275
628.850000	-0.279364
629.045000	-0.170967
629.240000	-0.190923
629.435000	-0.277017
629.630000	-0.122064
629.825000	-0.141908
630.020000	-0.056124
630.215000	-0.268516
630.410000	-0.222928
630.605000	-0.226445
630.800000	-0.146383
630.995000	0.000334
631.190000	0.274964
631.385000	0.043900
631.581000	-0.076872
631.776000	0.010413
631.971000	-0.154678
632.166000	-0.114327
632.361000	-0.300096
632.556000	-0.226147
632.751000	0.041035
632.946000	-0.118395
633.141000	-0.295697
633.336000	-0.193919
633.531000	-0.088541
633.726000	-0.102089
633.921000	-0.235888
634.117000	-0.390815
634.312000	-0.470206
634.507000	-0.419138
634.702000	-0.244218
634.897000	-0.192824
635.092000	-0.141455
635.287000	-0.010050
635.482000	-0.145587
635.677000	-0.093498
635.872000	-0.003129
636.067000	0.094421
636.262000	-0.045121
636.457000	-0.396778
636.652000	-0.477612
636.848000	-0.422715
637.043000	-0.319140
637.238000	-0.270695
637.433000	-0.358969
637.628000	-0.337819
637.823000	-0.126648
638.018000	-0.070338
638.213000	-0.265332
638.408000	-0.308128
638.603000	-0.308571
638.798000	-0.355247
638.993000	-0.309613
639.188000	-0.263387
639.383000	-0.277878
639.579000	0.132201
639.774000	-0.106842
639.969000	-0.278477
640.164000	-0.361522
640.359000	-0.390607
640.554000	-0.093019
640.749000	-0.179709
640.944000	-0.122352
641.139000	-0.118500
641.334000	-0.320778
641.529000	-0.664889
641.724000	-0.491950
641.919000	-0.300726
642.115000	0.043999
642.310000	0.058461
642.505000	-0.119421
642.700000	-0.108728
642.895000	-0.324260
643.090000	-0.127257
643.285000	0.135296
643.480000	0.047882
643.675000	0.011341
643.870000	0.289924
644.065000	0.147264
644.260000	-0.234606
644.455000	-0.132051
644.650000	-0.198752
644.846000	-0.073382
645.041000	-0.338739
645.236000	-0.535395
645.431000	-0.428857
645.626000	-0.617197
645.821000	-0.384073
646.016000	-0.322171
646.211000	0.104374
646.406000	0.007815
646.601000	-0.025652
646.796000	-0.092551
646.991000	-0.367660
647.186000	-0.323765
647.381000	-0.122655
647.577000	-0.081724
647.772000	-0.100388
647.967000	-0.167891
648.162000	-0.126860
648.357000	-0.164504
648.552000	0.007866
648.747000	-0.037104
648.942000	-0.029628
649.137000	-0.078621
649.332000	-0.240692
649.527000	-0.202940
649.722000	0.068125
649.917000	0.087200
650.113000	-0.278627
650.308000	-0.354536
650.503000	-0.275099
650.698000	-0.105589
650.893000	-0.238217
651.088000	-0.071626
651.283000	0.064946
651.478000	-0.227502
651.673000	-0.048945
651.868000	-0.280952
652.063000	0.004190
652.258000	0.255802
652.453000	0.327364
652.648000	-0.098611
652.844000	-0.148214
653.039000	-0.022518
653.234000	-0.453932
653.429000	-0.580953
653.624000	-0.297714
653.819000	-0.057069
654.014000	-0.137529
654.209000	-0.287687
654.404000	-0.137747
654.599000	-0.261193
654.794000	-0.326025
654.989000	0.000385
655.184000	-0.088302
655.380000	-0.361784
655.575000	-0.377239
655.770000	-0.277513
655.965000	-0.173344
656.160000	-0.324081
656.355000	-0.165677
656.550000	-0.131321
656.745000	-0.108152
656.940000	-0.197471
657.135000	-0.181908
657.330000	-0.127659
657.525000	-0.333549
657.720000	-0.127974
657.915000	-0.003498
658.111000	-0.127904
658.306000	0.140457
658.501000	-0.140000
658.696000	-0.405018
658.891000	-0.058109
659.086000	-0.136053
659.281000	-0.116752
659.476000	-0.414100
659.671000	-0.816783
659.866000	-0.539415
660.061000	-0.093551
660.256000	-0.007441
660.451000	-0.089758
660.646000	-0.337133
660.842000	-0.282512
661.037000	-0.396610
661.232000	-0.346006
661.427000	-0.208068
661.622000	-0.299082
661.817000	-0.393548
662.012000	-0.240512
662.207000	-0.461990
662.402000	-0.498811
662.597000	-0.257308
662.792000	-0.581876
662.987000	-0.561610
663.182000	-0.316895
663.378000	-0.281425
663.573000	-0.616358
663.768000	-0.587284
663.963000	-0.409044
664.158000	-0.305411
664.353000	0.211751
664.548000	0.323296
664.743000	-0.051483
664.938000	-0.354754
665.133000	-0.283369
665.328000	0.088459
665.523000	0.040506
665.718000	-0.200148
665.913000	-0.168312
666.109000	-0.212975
666.304000	-0.104239
666.499000	-0.224837
666.694000	-0.011697
666.889000	0.274656
667.084000	-0.092669
667.279000	-0.230118
667.474000	-0.214062
667.669000	-0.218055
667.864000	-0.165659
668.059000	-0.056386
668.254000	-0.105197
668.449000	-0.276099
668.644000	-0.199022
668.840000	0.000406
669.035000	-0.280453
669.230000	-0.591810
669.425000	-0.199856
669.620000	-0.232535
669.815000	-0.270290
670.010000	-0.294627
670.205000	-0.184141
670.400000	-0.179719
670.595000	-0.167947
670.790000	-0.225738
670.985000	-0.271252
671.180000	-0.123208
671.376000	-0.412024
671.571000	-0.487340
671.766000	-0.401464
671.961000	-0.443063
672.156000	-0.460214
672.351000	-0.281838
672.546000	-0.303229
672.741000	-0.194655
672.936000	-0.128416
673.131000	0.404630
673.326000	-0.062263
673.521000	-0.455460
673.716000	-0.560006
673.911000	-0.673408
674.107000	-0.028933
674.302000	0.193437
674.497000	-0.049990
674.692000	-0.344293
674.887000	-0.417175
675.082000	-0.278396
675.277000	0.055419
675.472000	-0.109713
675.667000	-0.309278
675.862000	-0.334904
676.057000	-0.216198
676.252000	-0.212399
676.447000	-0.357994
676.643000	-0.144530
676.838000	0.149930
677.033000	-0.127898
677.228000	0.167670
677.423000	0.180644
677.618000	-0.399698
677.813000	-0.605861
678.008000	-0.284277
678.203000	-0.051388
678.398000	-0.311054
678.593000	-0.151036
678.788000	-0.025616
678.983000	-0.333470
679.178000	-0.281574
679.374000	-0.329777
679.569000	-0.278237
679.764000	-0.379507
679.959000	-0.516124
680.154000	-0.516228
680.349000	-0.711339
680.544000	-0.548037
680.739000	-0.425403
680.934000	-0.478566
681.129000	-0.528381
681.324000	-0.551094
681.519000	-0.238572
681.714000	-0.300645
681.909000	-0.379882
682.105000	-0.513996
682.300000	-0.248869
682.495000	-0.084100
682.690000	-0.008474
682.885000	-0.155774
683.080000	-0.384474
683.275000	-0.344365
683.470000	0.000448
683.665000	0.198158
683.860000	0.464066
684.055000	0.234643
684.250000	-0.279051
684.445000	-0.346122
684.641000	0.086226
684.836000	-0.252778
685.031000	-0.231000
685.226000	-0.181323
685.421000	0.169074
685.616000	-0.127147
685.811000	-0.314746
686.006000	-0.017814
686.201000	-0.059003
686.396000	-0.559687
686.591000	-0.524007
686.786000	0.009677
686.981000	-0.151614
687.176000	-0.064211
687.372000	-0.179902
687.567000	0.009716
687.762000	-0.110885
687.957000	-0.143357
688.152000	-0.208752
688.347000	-0.195156
688.542000	-0.583186
688.737000	-0.844289
688.932000	-0.752222
689.127000	-0.402150
689.322000	-0.079345
689.517000	-0.220146
689.712000	-0.489427
689.908000	-0.461630
690.103000	-0.405832
690.298000	-0.325570
690.493000	-0.378536
690.688000	-0.601948
690.883000	-0.404107
691.078000	0.000476
691.273000	0.067143
691.468000	-0.285794
691.663000	-0.243777
691.858000	-0.033052
692.053000	-0.080951
692.248000	-0.028290
692.443000	-0.037878
692.639000	-0.172486
692.834000	0.005298
693.029000	0.520864
693.224000	0.441036
693.419000	-0.227264
693.614000	-0.451020
693.809000	-0.538802
694.004000	-0.583627
694.199000	-0.495881
694.394000	-0.233889
694.589000	-0.571411
694.784000	-0.503490
694.979000	-0.160985
695.174000	-0.264409
695.370000	0.181688
695.565000	-0.122239
695.760000	-0.486629
695.955000	-0.009371
696.150000	0.104105
696.345000	-0.341262
696.540000	-0.103699
696.740000	-0.168083
696.940000	-0.054086
697.140000	0.050374
697.340000	-0.209341
697.539000	-0.054488
697.739000	-0.179530
697.939000	-0.109594
698.139000	-0.455365
698.339000	-0.748716
698.539000	-0.466863
698.739000	-0.483234
698.939000	-0.485346
699.138000	-0.699061
699.338000	0.015661
699.538000	0.325070
699.738000	-0.192765
699.938000	-0.401635
700.138000	-0.478802
700.338000	-0.582460
700.538000	-0.271192
700.737000	-0.276227
700.937000	-0.755713
701.137000	-0.700582
701.337000	-0.061214
701.537000	-0.014951
701.737000	-0.298120
701.937000	-0.319437
702.137000	-0.288489
702.337000	-0.475073
702.536000	-0.579643
702.736000	-0.549223
702.936000	-0.711044
703.136000	-0.322452
703.336000	-0.239050
703.536000	-0.365055
703.736000	-0.716904
703.936000	-0.673612
704.135000	-0.652382
704.335000	-0.140898
704.535000	-0.409143
704.735000	-0.567288
704.935000	-0.120142
705.135000	-0.120727
705.335000	-0.438503
705.535000	-0.163554
705.735000	-0.110605
705.934000	-0.158153
706.134000	-0.470386
706.334000	-0.466198
706.534000	-0.599652
706.734000	-0.477870
706.934000	-0.467213
707.134000	-0.499234
707.334000	-0.255210
707.533000	-0.287708
707.733000	-0.404847
707.933000	-0.501359
708.133000	-0.191448
708.333000	-0.144199
708.533000	-0.273357
708.733000	-0.058529
708.933000	-0.397168
709.132000	-0.462559
709.332000	-0.377038
709.532000	-0.421118
709.732000	-0.274758
709.932000	-0.735342
710.132000	-0.734882
710.332000	-0.923721
710.532000	-0.324061
710.732000	0.043941
710.931000	-0.281759
711.131000	-0.277411
711.331000	-0.223081
711.531000	-0.365512
711.731000	-0.322614
711.931000	-0.372527
712.131000	-0.339201
712.331000	-0.125528
712.530000	-0.234874
712.730000	-0.537406
712.930000	-0.438451
713.130000	-0.412454
713.330000	-0.484640
713.530000	-0.292739
713.730000	0.382562
713.930000	0.033761
714.129000	-0.452810
714.329000	-0.681673
714.529000	-0.359699
714.729000	0.094969
714.929000	-0.177171
715.129000	-0.444495
715.329000	-0.350246
715.529000	-0.396410
715.729000	0.173557
715.928000	0.017343
716.128000	-0.318531
716.328000	-0.179109
716.528000	-0.392916
716.728000	-0.353653
716.928000	-0.488641
717.128000	-0.202318
717.328000	-0.275535
717.527000	-0.450756
717.727000	-0.451196
717.927000	-0.390330
718.127000	-0.430232
718.327000	-0.873948
718.527000	-0.759994
718.727000	-0.351659
718.927000	-0.375062
719.127000	-0.633712
719.326000	-0.591303
719.526000	-0.107759
719.726000	-0.256537
719.926000	-0.733487
720.126000	-0.704927
720.326000	-0.509835
720.526000	-0.601705
720.726000	-0.425170
720.925000	-0.160620
721.125000	-0.710155
721.325000	-0.363015
721.525000	-0.300257
721.725000	-0.508583
721.925000	-0.504214
722.125000	-0.620309
722.325000	-0.074847
722.524000	-0.319502
722.724000	-0.809361
722.924000	-0.920016
723.124000	-0.600300
723.324000	-0.285567
723.524000	-0.209840
723.724000	-0.707313
723.924000	-0.510223
724.124000	-0.281336
724.323000	0.000588
724.523000	-0.105179
724.723000	0.153691
724.923000	0.000589
725.123000	-0.152719
725.323000	0.053754
725.523000	-0.289404
725.723000	-0.513760
725.922000	-0.366370
726.122000	-0.194946
726.322000	-0.373713
726.522000	-0.516812
726.722000	0.166924
726.922000	-0.052833
727.122000	-0.327037
727.322000	-0.082907
727.521000	-0.262487
727.721000	-0.412574
727.921000	-0.173062
728.121000	-0.280781
728.321000	-0.743130
728.521000	-0.546597
728.721000	-0.396942
728.921000	0.102964
729.121000	0.832908
729.320000	0.079096
729.520000	-0.440201
729.720000	-0.598185
729.920000	-0.515953
730.120000	-0.447964
730.320000	-0.321453
730.520000	-0.589066
730.720000	-0.590922
730.919000	-0.511549
731.119000	-0.084905
731.319000	-0.574505
731.519000	-0.709010
731.719000	-0.140195
731.919000	-0.354657
732.119000	-1.036285
732.319000	-1.138015
732.519000	-0.473554
732.718000	-0.696155
732.918000	-0.604182
733.118000	-0.376777
733.318000	-0.098653
733.518000	-0.377891
733.718000	-0.875517
733.918000	-0.813854
734.118000	-0.658190
734.317000	-0.573504
734.517000	-0.797057
734.717000	-0.512850
734.917000	0.044560
735.117000	-0.055916
735.317000	-0.212931
735.517000	0.151788
735.717000	0.461763
735.916000	-0.479523
736.116000	-0.731599
736.316000	-0.507467
736.516000	-0.418419
736.716000	-0.444041
736.916000	-0.796665
737.116000	-0.512118
737.316000	0.071134
737.516000	-0.044306
737.715000	-0.172838
737.915000	-0.674310
738.115000	-0.734488
738.315000	-0.393006
738.515000	-0.741341
738.715000	-0.576956
738.915000	0.111127
739.115000	-0.494063
739.314000	-0.513128
739.514000	0.137717
739.714000	0.242758
739.914000	-0.261843
740.114000	-0.499026
740.314000	-0.203312
740.514000	0.290608
740.714000	-0.396063
740.913000	-0.899890
741.113000	-0.708968
741.313000	-0.390630
741.513000	-0.345174
741.713000	-0.452799
741.913000	-0.421439
742.113000	-0.420797
742.313000	-0.917808
742.513000	-0.576430
742.712000	-0.362866
742.912000	-0.625587
743.112000	-0.654729
743.312000	-0.960376
743.512000	-0.541982
743.712000	-0.339570
743.912000	-1.014903
744.112000	-1.151960
744.311000	-1.031975
744.511000	-0.485748
744.711000	-0.232834
744.911000	-0.735267
745.111000	-0.867026
745.311000	-0.323604
745.511000	-0.406964
745.711000	-0.753143
745.911000	-0.511750
746.110000	-0.830691
746.310000	-0.981945
746.510000	-0.722525
746.710000	-0.090119
746.910000	-0.069222
747.110000	-0.678631
747.310000	-0.995522
747.510000	-0.773958
747.709000	-0.422181
747.909000	-0.394999
748.109000	-0.084371
748.309000	-0.375830
748.509000	-0.846054
748.709000	-0.942035
748.909000	-0.491935
749.109000	-0.594477
749.308000	-0.027995
749.508000	-0.273055
749.708000	-0.410081
749.908000	0.000721
750.108000	-0.136648
750.308000	-0.971486
750.508000	-0.202941
750.708000	-0.712350
750.908000	-1.107659
751.107000	-0.284534
751.307000	0.336800
751.507000	-0.285401
751.707000	-0.270384
751.907000	-0.293085
752.107000	-0.198262
752.307000	-0.738774
752.507000	-0.585004
752.706000	-0.592016
752.906000	0.312601
753.106000	-0.491018
753.306000	-1.030640
753.506000	0.023232
753.706000	-0.427271
753.906000	-0.389786
754.106000	-0.119572
754.305000	-0.225148
754.505000	-0.089842
754.705000	-0.371200
754.905000	-0.561805
755.105000	-0.273325
755.305000	-0.898884
755.505000	-0.740905
755.705000	-0.205936
755.905000	-0.344771
756.104000	-0.967577
756.304000	-1.309237
756.504000	-1.559035
756.704000	-0.348510
756.904000	-0.231949
757.104000	-0.479512
757.304000	-0.456709
757.504000	0.047588
757.703000	-0.264418
757.903000	-0.053949
758.103000	0.126140
758.303000	-0.297772
758.503000	-0.503373
758.703000	-0.686154
758.903000	-0.852349
759.103000	-0.529934
759.303000	-0.492681
759.502000	-0.621987
759.702000	-0.262587
759.902000	-0.584813
760.102000	-0.473635
760.302000	-0.539778
760.502000	-0.320969
760.702000	-0.184480
760.902000	-0.499717
761.101000	-0.833097
761.301000	-1.012986
761.501000	-0.737470
761.701000	-0.706435
761.901000	-0.522166
762.101000	-0.056505
762.301000	-0.326749
762.501000	-0.728619
762.700000	-0.756676
762.900000	-0.740473
763.100000	-0.568150
763.300000	-0.322080
763.500000	-0.571036
763.703000	-0.709552
763.905000	-0.936122
764.108000	-0.148948
764.311000	-0.440246
764.513000	-0.549097
764.716000	-0.308706
764.919000	-0.300742
765.121000	-0.778545
765.324000	-0.974216
765.527000	-0.945612
765.729000	-0.717426
765.932000	0.093951
766.135000	0.102385
766.337000	-0.227734
766.540000	-0.525763
766.743000	-0.213066
766.945000	-0.810440
767.148000	-1.368628
767.351000	-1.180158
767.553000	-0.188123
767.756000	-0.583889
767.958000	-0.919165
768.161000	-0.455248
768.364000	-0.811063
768.566000	-1.349536
768.769000	-0.746068
768.972000	-0.303075
769.174000	-0.809210
769.377000	-1.300714
769.580000	-1.145913
769.782000	-0.453943
769.985000	-1.016956
770.188000	-1.881313
770.390000	-1.059772
770.593000	0.671794
770.796000	0.363092
770.998000	-0.370376
771.201000	-0.830904
771.404000	-0.406734
771.606000	-0.826483
771.809000	-0.568299
772.012000	-0.480287
772.214000	-1.301096
772.417000	-1.319074
772.620000	-0.310300
772.822000	-0.796545
773.025000	-1.271657
773.228000	-1.040594
773.430000	-0.988368
773.633000	-0.593785
773.836000	-0.450233
774.038000	-0.252685
774.241000	-0.406541
774.444000	-0.725665
774.646000	0.227779
774.849000	-0.235569
775.052000	-0.462873
775.254000	-0.281556
775.457000	-0.745579
775.659000	-0.455355
775.862000	-0.847946
776.065000	-0.693919
776.267000	0.010074
776.470000	0.368887
776.673000	-0.431739
776.875000	0.065551
777.078000	-0.183436
777.281000	-1.090914
777.483000	-0.379648
777.686000	-0.138566
777.889000	-0.194573
778.091000	-0.111167
778.294000	-1.137141
778.497000	-1.007836
778.699000	-0.831031
778.902000	-0.815110
779.105000	-0.590033
779.307000	0.414271
779.510000	-0.629856
779.713000	-0.329858
779.915000	-0.662843
780.118000	0.447074
780.321000	0.390601
780.523000	-0.561067
780.726000	-0.990139
780.929000	-1.132677
781.131000	-1.010395
781.334000	-1.282289
781.537000	-1.218654
781.739000	-0.258564
781.942000	-0.701284
782.145000	-1.497813
782.347000	-1.440704
782.550000	-0.967218
782.753000	-1.213239
782.955000	-1.070436
783.158000	-0.943258
783.361000	-0.740661
783.563000	-0.574863
783.766000	-0.674206
783.968000	0.902609
784.171000	0.670463
784.374000	-0.461785
784.576000	-0.333686
784.779000	-0.136606
784.982000	0.089948
785.184000	-0.684728
785.387000	0.090574
785.590000	0.647605
785.792000	0.390436
785.995000	0.121010
786.198000	-0.049084
786.400000	-0.501966
786.603000	-0.523410
786.806000	-0.732924
787.008000	-0.602164
787.211000	-0.362199
787.414000	-1.163205
787.616000	-0.913555
787.819000	-0.803663
788.022000	-1.345326
788.224000	-0.786300
788.427000	-1.380129
788.630000	-0.727906
788.832000	-0.439962
789.035000	-1.074092
789.238000	-1.562353
789.440000	-1.240415
789.643000	-0.040264
789.846000	-0.464867
790.048000	-0.196153
790.251000	-0.289629
790.454000	-0.610215
790.656000	0.375383
790.859000	-0.520082
791.062000	-1.116126
791.264000	-0.520569
791.467000	-1.161830
791.669000	-1.730078
791.872000	-0.631591
792.075000	-1.010011
792.277000	-0.831103
792.480000	-0.539076
792.683000	-0.991767
792.885000	-1.130165
793.088000	-0.953923
793.291000	-1.424359
793.493000	-1.533524
793.696000	-0.404054
793.899000	-0.180668
794.101000	-0.588267
794.304000	-0.675512
794.507000	-0.547449
794.709000	-0.149915
794.912000	-0.583663
795.115000	-1.159808
795.317000	-0.714783
795.520000	-0.696121
795.723000	-1.027062
795.925000	-1.236686
796.128000	-1.530471
796.331000	-1.118425
796.533000	-1.517152
796.736000	-0.795005
796.939000	-0.508735
797.141000	-0.676770
797.344000	-0.087875
797.547000	-0.388375
797.749000	-0.255203
797.952000	-0.850140
798.155000	-1.250630
798.357000	-1.348111
798.560000	-1.106965
798.763000	-0.484575
798.965000	-0.766235
799.168000	-0.802423
799.371000	-0.565411
799.573000	-0.953833
799.776000	-1.638405
799.978000	-1.506990
800.181000	-0.720024
800.384000	1.032981
800.586000	0.185017
800.789000	-1.262400
800.992000	-1.284503
801.194000	-1.505923
801.397000	-1.382941
801.600000	-1.468687
801.802000	-0.045204
802.005000	-0.208137
802.208000	-1.479776
802.410000	-0.441572
802.613000	-0.537140
802.816000	-0.924395
803.018000	-1.760910
803.221000	-1.434661
803.424000	0.319608
803.626000	-0.140562
803.829000	-0.697941
804.032000	0.060593
804.234000	0.796964
804.437000	-0.619087
804.640000	-0.630486
804.842000	-0.548308
805.045000	-1.103272
805.248000	-0.961005
805.450000	-0.936036
805.653000	-0.808957
805.856000	-0.965099
806.058000	0.061791
806.261000	-1.164657
806.464000	-1.141509
806.666000	-0.461466
806.869000	-0.807534
807.072000	-2.106223
807.274000	-2.242473
807.477000	-0.994595
807.679000	-0.737031
807.882000	-1.318358
808.085000	-1.190673
808.287000	-0.346743
808.490000	-1.455627
808.693000	-1.120215
808.895000	-0.797133
809.098000	-1.034652
809.301000	-0.787664
809.503000	-0.803657
809.706000	0.140364
809.909000	0.279418
810.111000	-0.024056
810.314000	-0.430190
810.517000	-0.909443
810.719000	-1.168968
810.922000	-0.867345
811.125000	0.001275
811.327000	0.129475
811.530000	-0.513517
811.735000	-0.923964
811.940000	-1.196500
812.146000	-1.214467
812.351000	-0.541961
812.556000	-0.556677
812.761000	-1.131207
812.967000	-0.103281
813.172000	-0.390486
813.377000	-0.837102
813.582000	-0.117086
813.788000	-0.369580
813.993000	-1.703204
814.198000	-0.686446
814.403000	-1.175167
814.609000	-0.583965
814.814000	-0.680133
815.019000	0.268088
815.224000	-0.105314
815.429000	-1.005114
815.635000	-0.617886
815.840000	-0.578128
816.045000	-0.594300
816.250000	-0.039322
816.456000	-1.397649
816.661000	-2.413783
816.866000	-1.434496
817.071000	-1.324263
817.277000	-2.213086
817.482000	-1.155990
817.687000	-0.673325
817.892000	-0.995626
818.097000	-0.415320
818.303000	-0.123622
818.508000	0.306373
818.713000	1.698502
818.918000	0.460776
819.124000	0.071178
819.329000	-0.965688
819.534000	-1.221602
819.739000	-1.235763
819.945000	-1.086216
820.150000	-0.708846
820.355000	-0.553662
820.560000	-0.254084
820.766000	-0.695896
820.971000	-0.599718
821.176000	-1.863785
821.381000	-2.673877
821.586000	-1.797587
821.792000	-0.186309
821.997000	-0.721355
822.202000	-0.751005
822.407000	-1.246763
822.613000	-1.438461
822.818000	-0.640175
823.023000	-0.436551
823.228000	-0.836126
823.434000	-0.218777
823.639000	0.325190
823.844000	-0.588655
824.049000	-0.131401
824.255000	0.045917
824.460000	-0.638399
824.665000	-0.877716
824.870000	0.016448
825.075000	-0.312898
825.281000	-0.238759
825.486000	0.862516
825.691000	-1.617205
825.896000	-2.832995
826.102000	-0.969186
826.307000	-0.591442
826.512000	-0.990441
826.717000	-1.146576
826.923000	-1.349424
827.128000	-0.629265
827.333000	-1.670821
827.538000	-0.620162
827.744000	-0.014023
827.949000	-1.273638
828.154000	-1.138271
828.359000	-0.154503
828.564000	-0.468970
828.770000	-0.675652
828.975000	0.064719
829.180000	-0.601291
829.385000	-1.980810
829.591000	-1.654697
829.796000	-1.022748
830.001000	-1.024701
830.206000	-1.430103
830.412000	-1.332222
830.617000	-1.496530
830.822000	0.001619
831.027000	-0.644520
831.232000	-1.526004
831.438000	-1.651346
831.643000	-0.800237
831.848000	-0.851413
832.053000	-0.607651
832.259000	-0.674355
832.464000	-2.395803
832.669000	-2.205334
832.874000	-1.704741
833.080000	-1.961881
833.285000	-0.231675
833.490000	-0.181802
833.695000	-1.576478
833.901000	-1.128462
834.106000	-1.451162
834.311000	-1.204054
834.516000	-0.355477
834.721000	-1.058764
834.927000	-0.324610
835.132000	-0.325246
835.337000	1.259835
835.542000	-0.154298
835.748000	-1.590170
835.953000	0.592082
836.158000	0.140986
836.363000	-0.382715
836.569000	-0.561792
836.774000	-1.744792
836.979000	-1.517289
837.184000	-1.981336
837.390000	-1.860781
837.595000	-1.278824
837.800000	-0.764777
838.005000	-0.554228
838.210000	-1.361946
838.416000	-1.529344
838.621000	-1.370901
838.826000	-1.676928
839.031000	-1.195661
839.237000	-1.844368
839.442000	-2.341644
839.647000	-2.374709
839.852000	-1.962672
840.058000	-1.269567
840.263000	-1.553555
840.468000	-2.574564
840.673000	-1.314290
840.878000	-0.870217
841.084000	-1.659346
841.289000	-0.971167
841.494000	1.735416
841.699000	2.043639
841.905000	0.854862
842.110000	0.516451
842.315000	-1.392230
842.520000	-0.589530
842.726000	-1.260287
842.931000	-2.252918
843.136000	-1.460842
843.341000	-2.576994
843.547000	-1.333269
843.752000	-1.121693
843.957000	-2.185585
844.162000	-2.195958
844.367000	-1.296060
844.573000	-0.353556
844.778000	-0.766313
844.983000	-0.531218
845.188000	0.458516
845.394000	-1.480102
845.599000	-1.416531
845.804000	-1.621838
846.009000	-0.664120
846.215000	-1.823131
846.420000	-2.092397
846.625000	-0.793580
846.830000	0.266285
847.036000	-0.876260
847.241000	-1.741490
847.446000	0.002051
847.651000	-0.327478
847.856000	-2.076185
848.062000	-2.165721
848.267000	-0.102167
848.472000	-1.336965
848.677000	-2.683495
848.883000	-0.877263
849.088000	0.509693
849.293000	-0.825944
849.498000	-1.418642
849.704000	-0.827202
849.909000	-1.170465
850.114000	-2.002006
850.319000	-0.510703
850.524000	-0.749855
850.730000	-0.991794
850.935000	-1.473056
851.140000	-0.585121
851.345000	-0.258809
851.551000	0.002181
851.756000	-0.019738
851.961000	-1.207238
852.166000	-1.207865
852.372000	-0.791890
852.577000	-0.797677
852.782000	-1.587304
852.987000	-0.332631
853.193000	-0.356234
853.398000	-0.535631
853.603000	-2.535895
853.808000	-2.986689
854.013000	-1.422557
854.219000	-0.654795
854.424000	1.366984
854.629000	1.370002
854.834000	-1.190978
855.040000	-0.528865
855.245000	-0.388994
855.450000	-2.636557
855.655000	-3.755830
855.861000	-3.849295
856.066000	-2.360144
856.271000	-2.059373
856.476000	-0.326779
856.682000	-1.295627
856.887000	-3.841020
857.092000	-2.951185
857.297000	0.215884
857.502000	-0.187784
857.708000	-0.926461
857.913000	-0.331624
858.118000	-1.177401
858.323000	-1.205009
858.529000	-0.937923
858.734000	-0.940475
858.939000	-1.064488
859.144000	-2.016962
859.350000	-3.185255
859.555000	-2.902299
859.760000	-0.709283
859.965000	0.002454
860.171000	-1.574600
860.376000	-0.244971
860.581000	-2.478591
860.786000	-5.279473
860.991000	-3.801081
861.197000	-2.773422
861.402000	-1.477214
861.607000	-1.553445
861.812000	-2.895944
862.018000	-3.438369
862.223000	-2.025335
862.428000	-0.583900
862.633000	0.155607
862.839000	-0.716174
863.044000	-1.421028
863.249000	-2.759485
863.454000	-0.927632
863.659000	-1.448804
863.865000	-2.367639
864.070000	-1.799321
864.275000	-1.723855
864.480000	-1.784299
864.686000	-4.349307
864.891000	-3.877776
865.096000	-1.243720
865.301000	-0.581843
865.507000	-0.852510
865.712000	-0.799008
865.917000	-1.315139
866.122000	-0.563623
866.328000	-3.089027
866.533000	-3.493395
866.738000	-0.540009
866.943000	-0.513955
867.148000	0.959853
867.354000	-1.898943
867.559000	-3.112521
867.764000	-1.631740
867.969000	-0.721162
868.175000	-2.328233
868.380000	-3.116127
868.585000	-3.315371
868.790000	-0.612761
868.996000	-1.405427
869.201000	-3.159905
869.406000	-4.137790
869.611000	-2.894020
869.817000	-2.522006
870.022000	2.081627
870.227000	-0.396794
870.432000	-2.349456
870.637000	-0.858719
870.843000	-1.788078
871.048000	-1.904544
871.253000	-0.199529
871.458000	-0.985270
871.664000	-3.097446
871.869000	-4.027816
872.074000	-3.538276
872.279000	-2.297739
872.485000	-2.550035
872.690000	-2.262943
872.895000	-2.421986
873.100000	-3.084264
873.306000	-2.796369
873.511000	-2.058088
873.716000	-0.088093
873.921000	-1.966322
874.126000	-2.849485
874.332000	-2.295306
874.537000	-1.074799
874.742000	-0.733662
874.947000	-0.767601
875.153000	0.843259
875.358000	-0.932566
875.563000	-1.991162
875.768000	-4.690575
875.974000	-4.709850
876.179000	-0.594995
876.384000	-0.977497
876.589000	-3.029288
876.794000	-2.105978
877.000000	-2.715402
877.205000	-4.309110
877.410000	-0.991898
877.615000	-2.496382
877.821000	-4.910957
878.026000	-3.166683
878.231000	-3.748062
878.436000	-3.916320
878.642000	-2.703949
878.847000	-1.663900
879.052000	-0.682239
879.257000	-2.433290
879.463000	-3.096095
879.668000	-2.206514
879.873000	-0.625846
880.078000	-4.345180
880.283000	-5.828352
880.489000	-5.328377
880.694000	-4.180150
880.899000	-2.458220
881.104000	-0.775334
881.310000	1.594642
881.515000	0.138652
881.720000	1.054257
881.925000	2.048816
882.131000	3.753557
882.336000	0.450045
882.541000	-3.389760
882.746000	-3.023730
882.952000	-2.881195
883.157000	-2.261160
883.362000	-3.311461
883.567000	-4.411571
883.772000	-4.735456
883.978000	-3.678511
884.183000	-1.451328
884.388000	-2.297580
884.593000	-4.210979
884.799000	0.608325
885.004000	-0.104623
885.209000	-2.089758
885.414000	-1.255313
885.620000	-4.054027
885.825000	-1.419436
886.030000	-1.780841
886.235000	-2.817746
886.440000	-1.474178
886.646000	-4.333431
886.851000	-4.690529
887.056000	-0.257890
887.261000	-1.006202
887.467000	-3.601767
887.672000	-1.697824
887.877000	-3.568794
888.082000	-5.762530
888.288000	-5.931746
888.493000	-7.492069
888.698000	-6.268351
888.903000	-2.542328
889.109000	-3.499529
889.314000	-0.805079
889.519000	-1.914868
889.724000	0.195989
889.929000	-1.111904
890.135000	-1.809293
890.340000	-1.317543
890.545000	-3.181640
890.750000	-5.330015
890.956000	-3.785229
891.161000	-1.478358
891.366000	-3.516624
891.571000	-1.682061
891.777000	-2.743258
891.982000	-0.942548
892.187000	-1.065406
892.392000	-0.075073
892.598000	0.719249
892.803000	0.284631
893.008000	-2.919579
893.213000	-3.790620
893.418000	-4.139137
893.624000	-4.523743
893.829000	-5.981690
894.034000	-2.670952
894.239000	-0.851252
894.445000	-3.856301
894.650000	-4.039100
894.855000	-4.698396
895.060000	-5.017138
895.266000	-4.104269
895.471000	-4.887744
895.676000	-1.522182
895.881000	-1.077612
896.087000	-2.492719
896.292000	-4.184350
896.497000	0.088391
896.702000	-1.756547
896.907000	-3.564700
897.113000	0.678489
897.318000	0.256937
897.523000	0.342078
897.728000	-1.903510
897.934000	-2.615759
898.139000	-2.834843
898.344000	-0.252358
898.549000	-1.716345
898.755000	-3.226472
898.960000	-3.159710
899.165000	-5.112445
899.370000	-2.477749
899.575000	1.357727
899.781000	-2.885153
899.986000	-3.848530
900.191000	-2.419043
900.396000	-2.377738
900.602000	-2.125740
900.807000	-2.900533
901.012000	-2.019756
901.217000	0.139795
901.423000	-2.736877
901.628000	-3.918405
901.833000	0.321740
902.038000	0.004567
902.244000	-4.230892
902.449000	-3.522836
902.654000	-3.884020
902.859000	-2.581745
903.064000	0.236673
903.270000	-0.321356
903.475000	-5.168944
903.680000	-7.026129
903.885000	-5.674158
904.091000	-4.240956
904.296000	-5.868112
904.501000	-6.081596
904.706000	-4.813194
904.912000	0.197692
905.117000	-1.786685
905.322000	-5.803832
905.527000	-5.679744
905.733000	-3.835981
905.938000	-3.419685
906.143000	-3.708331
906.348000	-6.337464
906.553000	-1.991233
906.759000	-0.643380
906.964000	-2.601330
907.169000	-2.515174
907.374000	-5.376179
907.580000	-3.786906
907.785000	-2.154949
907.990000	27.117500
908.195000	18.377920
908.401000	-0.150756
908.606000	-8.305808
908.811000	-10.386302
909.016000	-3.436657
909.221000	-2.662818
909.427000	-4.256355
909.632000	-5.885962
909.837000	-4.483983
910.042000	-6.158546
910.248000	-8.397600
910.453000	-4.053937
910.658000	-4.412064
910.863000	-2.882014
911.069000	-4.751600
911.274000	-1.757067
911.479000	-1.102847
911.684000	-7.247981
911.890000	-4.400407
912.095000	-4.461673
912.300000	-6.799285
912.506000	-6.296448
912.711000	-6.944606
912.917000	-3.757655
913.123000	-1.135723
913.328000	-2.406071
913.534000	-4.166669
913.740000	5.783216
913.946000	2.645084
914.151000	-5.701726
914.357000	-6.551244
914.563000	-1.813857
914.768000	-5.082001
914.974000	-6.929424
915.180000	-6.755349
915.385000	-5.145909
915.591000	-8.126782
915.797000	-3.858909
916.002000	-0.055580
916.208000	-2.944797
916.414000	-6.209105
916.620000	-8.589257
916.825000	-4.679844
917.031000	-3.057660
917.237000	-9.096117
917.442000	-6.592764
917.648000	-7.092162
917.854000	-8.685198
918.059000	-2.052709
918.265000	-1.214658
918.471000	-3.158603
918.676000	-6.064795
918.882000	-9.061946
919.088000	-7.761852
919.294000	-11.470445
919.499000	-7.608536
919.705000	-1.605216
919.911000	-4.090100
920.116000	-1.689046
920.322000	-7.282180
920.528000	-5.608995
920.733000	-7.839989
920.939000	-7.872321
921.145000	-7.645783
921.350000	-6.968736
921.556000	-3.616037
921.762000	-3.677823
921.968000	-7.099480
922.173000	-8.792517
922.379000	-9.016109
922.585000	-4.354387
922.790000	-6.255504
922.996000	-7.698641
923.202000	-9.425784
923.407000	-9.335301
923.613000	-7.252258
923.819000	-4.726193
924.024000	-4.398328
924.230000	-3.524331
924.436000	-5.512774
924.642000	4.524792
924.847000	1.245432
925.053000	-6.019729
925.259000	-11.289788
925.464000	-5.132647
925.670000	-5.673246
925.876000	-8.885297
926.081000	-9.012063
926.287000	-5.225432
926.493000	-2.493382
926.698000	-3.386633
926.904000	-2.482225
927.110000	-5.406365
927.316000	-6.159552
927.521000	1.237908
927.727000	-3.153786
927.933000	-4.755378
928.138000	-3.768907
928.344000	-10.860555
928.550000	-6.964773
928.755000	-2.227828
928.961000	-7.030777
929.167000	-8.541915
929.372000	-1.552143
929.578000	-1.041372
929.784000	-6.778797
929.990000	-9.909460
930.195000	-6.472845
930.401000	-5.984312
930.607000	-5.998738
930.812000	-3.522146
931.018000	-7.264435
931.224000	-14.548448
931.429000	-11.004470
931.635000	-12.643001
931.841000	-12.486929
932.046000	-7.006280
932.252000	-0.743012
932.458000	5.893426
932.664000	0.297508
932.869000	-5.946782
933.075000	-9.179206
933.281000	-9.113644
933.486000	-1.580400
933.692000	-5.082072
933.898000	-9.505586
934.103000	-2.809278
934.309000	-7.803010
934.515000	-5.423372
934.720000	-1.981771
934.926000	1.279394
935.132000	-0.412699
935.338000	-4.161003
935.543000	-11.707284
935.749000	-12.364688
935.955000	-14.842082
936.160000	-10.450837
936.366000	-2.005066
936.572000	-4.329028
936.777000	-1.736747
936.983000	1.881026
937.189000	-4.462728
937.394000	-11.683533
937.600000	-2.266026
937.806000	3.635142
938.012000	-5.630820
938.217000	1.866202
938.423000	-1.854619
938.629000	-8.950771
938.834000	-15.534659
939.040000	-16.255189
939.246000	-10.080240
939.451000	-10.207318
939.657000	-7.825896
939.863000	-10.983966
940.068000	-3.331172
940.274000	-9.280608
940.480000	-3.671546
940.686000	-2.904721
940.891000	-7.979370
941.097000	20.329982
941.303000	8.451235
941.508000	-10.028249
941.714000	-6.100871
941.920000	-13.528649
942.125000	-6.357056
942.331000	-5.804727
942.537000	5.102550
942.742000	4.126449
942.948000	-6.888202
943.154000	-11.133840
943.360000	-23.839381
943.565000	-11.819013
943.771000	2.434682
943.977000	5.722207
944.182000	-11.679696
944.388000	-13.687972
944.594000	-2.273687
944.799000	6.335335
945.005000	-0.287971
945.211000	4.575596
945.416000	0.478511
945.622000	-11.126545
945.828000	-13.123632
946.034000	-2.368763
946.239000	-0.143878
946.445000	-8.955958
946.651000	-18.000073
946.856000	-14.276595
947.062000	0.488611
947.268000	0.492037
947.473000	-13.211482
947.679000	-18.422698
947.885000	-3.039773
948.090000	0.339827
948.296000	11.700189
948.502000	-2.254440
948.708000	-10.454427
948.913000	-12.896291
949.119000	-3.293223
949.325000	-8.097527
949.530000	-22.850321
949.736000	-27.890727
949.942000	-19.063815
950.147000	-20.030974
950.353000	-13.946997
950.559000	-9.517747
950.764000	12.626242
950.970000	8.703186
951.176000	-8.770379
951.382000	-13.283253
951.587000	-2.762355
951.793000	1.941184
951.999000	0.189635
952.204000	-14.605348
952.410000	-24.654426
952.616000	-10.596419
952.821000	-6.357762
953.027000	-13.100077
953.233000	-20.012068
953.438000	-21.041069
953.644000	1.079028
953.850000	-5.292539
954.056000	-9.999445
954.261000	-12.941469
954.467000	-1.966516
954.673000	2.718557
954.878000	-7.569468
955.084000	-5.950911
955.290000	-20.140332
955.495000	-23.295560
955.701000	-19.963633
955.907000	3.163160
956.112000	0.758496
956.318000	6.435725
956.524000	1.131344
956.730000	-11.284171
956.935000	-11.696214
957.141000	-12.367423
957.347000	0.590342
957.552000	-9.302425
957.758000	-26.631967
957.964000	-36.325150
958.169000	2.724550
958.375000	2.732990
958.581000	-16.146918
958.786000	-29.372105
958.992000	-30.188581
959.198000	-9.338935
959.404000	-2.956421
959.609000	-13.532624
959.815000	-18.807301
960.021000	3.252985
960.226000	-3.444854
960.432000	-29.134912
960.638000	-17.202181
960.843000	-12.169682
961.049000	-14.742710
961.255000	-2.069508
961.460000	-17.875375
961.666000	-38.813330
961.872000	-22.067836
962.078000	-17.102335
962.283000	-32.090723
962.489000	-31.966768
962.695000	-20.046110
962.900000	-12.313879
963.106000	-10.259571
963.312000	-16.154389
963.517000	-21.174887
963.723000	-24.135119
963.929000	-1.999868
964.134000	10.338592
964.340000	-14.037253
964.546000	-17.629802
964.752000	-25.047766
964.957000	-32.455344
965.163000	-6.757804
965.369000	-6.609604
965.574000	-1.890872
965.780000	-6.443913
966.000000	-21.073660
966.220000	-12.517239
966.440000	-7.734351
966.661000	2.707539
966.881000	-23.464059
967.101000	-41.608583
967.321000	-42.374962
967.541000	-15.344322
967.761000	-15.271200
967.981000	-8.996075
968.202000	-8.182333
968.422000	1.055871
968.642000	-2.028224
968.862000	-5.477953
969.082000	-11.590780
969.302000	0.299885
969.522000	-7.475921
969.743000	1.591671
969.963000	-18.641138
970.183000	-31.527239
970.403000	-28.453774
970.623000	-19.257207
970.843000	3.884675
971.063000	-1.650589
971.284000	-24.458916
971.504000	-38.652860
971.724000	-15.696801
971.944000	-29.502558
972.164000	-35.522336
972.384000	-24.427944
972.604000	-45.206524
972.825000	-48.042332
973.045000	-36.648901
973.265000	19.032204
973.485000	9.102566
973.705000	-7.876355
973.925000	-12.934817
974.145000	-55.131591
974.365000	-19.887399
974.586000	-9.191004
974.806000	-21.891763
975.026000	4.182816
975.246000	-14.592871
975.466000	-28.049769
975.686000	-16.175547
975.906000	-26.370938
976.127000	-47.331634
976.347000	-35.120823
976.567000	2.357085
976.787000	-6.626868
977.007000	-22.783128
977.227000	-28.833733
977.447000	-34.216443
977.668000	-47.921224
977.888000	-32.630379
978.108000	-36.134355
978.328000	-16.457449
978.548000	7.451548
978.768000	1.834658
978.988000	-7.102907
979.209000	-20.538568
979.429000	-27.429461
979.649000	-6.951895
979.869000	-33.367409
980.089000	-44.109209
980.309000	-44.456906
980.529000	-50.348749
980.750000	-32.575563
980.970000	-48.979810
981.190000	-44.543634
981.410000	-39.314801
981.630000	-35.713149
981.850000	-19.533198
982.070000	-16.045148
982.291000	-44.007390
982.511000	-44.813790
982.731000	-11.582297
982.951000	-30.254958
983.171000	-27.036633
983.391000	-30.996679
983.611000	-6.508913
983.832000	-31.645516
984.052000	-60.588057
984.272000	-33.493160
984.492000	-26.233605
984.712000	-35.489942
984.932000	-54.935184
985.152000	-58.488496
985.373000	-42.733335
985.593000	-15.525644
985.813000	-24.425678
986.033000	-37.273453
986.253000	-5.921710
986.473000	4.306020
986.693000	-31.133447
986.914000	-43.293278
987.134000	3.110399
987.354000	-36.260256
987.574000	191.027963
987.794000	126.566679
988.014000	-42.634213
988.234000	-26.668536
988.455000	-9.859942
988.675000	-18.213188
988.895000	-22.858794
989.115000	-34.739173
989.335000	-12.350444
989.555000	6.811482
989.775000	-41.925704
989.995000	-32.636234
990.216000	-22.044231
990.436000	-24.159874
990.656000	5.549588
990.876000	-42.703336
991.096000	-30.369128
991.316000	10.310177
991.536000	-25.313302
991.757000	-47.245001
991.977000	-84.813341
992.197000	-17.328966
992.417000	-36.575363
992.637000	-81.418931
992.857000	-85.851216
993.077000	-87.072041
993.298000	-40.386219
993.518000	-26.756727
993.738000	-78.624444
993.958000	-54.757436
994.178000	-64.622968
994.398000	-51.392471
994.618000	-85.658519
994.839000	-121.687274
995.059000	-27.842314
995.279000	26.087432
995.499000	-19.951552
995.719000	-19.222902
995.939000	-31.908219
996.159000	-26.927543
996.380000	-28.407198
996.600000	-80.162657
996.820000	-39.713909
997.040000	15.462627
997.260000	-51.732224
997.480000	-60.591697
997.700000	-116.733278
997.921000	-79.375221
998.141000	19.688311
998.361000	-3.217681
998.581000	-63.774916
998.801000	-85.781076
999.021000	-51.750210
999.241000	-26.287698
999.462000	-64.828239
999.682000	-113.881744
999.902000	-79.143342
1000.122000	-93.886458
1000.342000	-140.522970
1000.562000	-55.186057
1000.782000	-42.849686
1001.003000	-999.338344
