Wavelength	Irradiance
(nm)	(mW/cm2/nm)

294.396000	0.000000
294.577000	0.000000
294.757000	-0.000000
294.938000	-0.000000
295.118000	-0.000000
295.299000	0.000000
295.479000	-0.000000
295.660000	-0.000000
295.840000	-0.000000
296.021000	-0.000000
296.202000	-0.000000
296.382000	-0.000000
296.563000	-0.000000
296.743000	-0.000000
296.924000	0.000000
297.104000	-0.000000
297.285000	-0.000000
297.465000	-0.000000
297.646000	-0.000000
297.826000	-0.000000
298.007000	0.000000
298.187000	-0.000000
298.368000	-0.000000
298.548000	0.000000
298.729000	0.000000
298.909000	-0.000000
299.090000	-0.000000
299.270000	-0.000000
299.451000	-0.000000
299.631000	-0.000000
299.812000	-0.000000
299.992000	0.000000
300.173000	0.000000
300.353000	-0.000000
300.534000	0.000000
300.714000	0.000000
300.895000	0.000000
301.075000	-0.000000
301.256000	0.000000
301.436000	-0.000000
301.617000	-0.000000
301.797000	-0.000000
301.978000	-0.000000
302.159000	0.000000
302.339000	0.000000
302.520000	-0.000000
302.700000	-0.000000
302.881000	0.000000
303.061000	0.000000
303.242000	0.000000
303.422000	0.000000
303.603000	-0.000000
303.783000	-0.000000
303.964000	-0.000000
304.144000	-0.000000
304.325000	-0.000000
304.505000	-0.000000
304.686000	-0.000000
304.866000	0.000000
305.047000	-0.000000
305.227000	-0.000000
305.408000	-0.000000
305.588000	-0.000000
305.769000	-0.000000
305.949000	-0.000000
306.130000	-0.000000
306.310000	-0.000000
306.491000	-0.000000
306.671000	0.000000
306.852000	-0.000000
307.032000	-0.000000
307.213000	-0.000000
307.393000	-0.000000
307.574000	0.000000
307.755000	0.000000
307.935000	0.000000
308.116000	-0.000000
308.296000	-0.000000
308.477000	-0.000000
308.657000	0.000000
308.838000	0.000000
309.018000	0.000000
309.199000	-0.000000
309.379000	-0.000000
309.560000	0.000000
309.740000	-0.000000
309.921000	0.000000
310.101000	-0.000000
310.282000	-0.000000
310.462000	-0.000000
310.643000	-0.000000
310.823000	-0.000000
311.004000	-0.000000
311.184000	-0.000000
311.365000	0.000000
311.545000	0.000000
311.726000	0.000000
311.906000	-0.000000
312.087000	0.000000
312.267000	-0.000000
312.448000	-0.000000
312.628000	-0.000000
312.809000	-0.000000
312.989000	-0.000000
313.170000	-0.000000
313.344000	-0.000000
313.518000	-0.000000
313.691000	-0.000000
313.865000	-0.000000
314.039000	-0.000000
314.213000	-0.000000
314.387000	-0.000000
314.560000	-0.000000
314.734000	-0.000000
314.908000	-0.000000
315.082000	-0.000000
315.255000	0.000000
315.429000	0.000000
315.603000	0.000000
315.777000	-0.000000
315.951000	0.000000
316.124000	-0.000000
316.298000	-0.000000
316.472000	-0.000000
316.646000	-0.000000
316.820000	-0.000000
316.993000	0.000000
317.167000	-0.000000
317.341000	-0.000000
317.515000	-0.000000
317.688000	-0.000000
317.862000	-0.000000
318.036000	-0.000000
318.210000	-0.000000
318.384000	-0.000000
318.557000	-0.000000
318.731000	-0.000000
318.905000	-0.000000
319.079000	-0.000000
319.253000	-0.000000
319.426000	0.000000
319.600000	0.000000
319.774000	-0.000000
319.948000	-0.000000
320.122000	0.000000
320.295000	0.000000
320.469000	-0.000000
320.643000	-0.000000
320.817000	-0.000000
320.990000	-0.000000
321.164000	-0.000000
321.338000	-0.000000
321.512000	-0.000000
321.686000	-0.000000
321.859000	-0.000000
322.033000	0.000000
322.207000	-0.000000
322.381000	-0.000000
322.555000	0.000000
322.728000	-0.000000
322.902000	-0.000000
323.076000	-0.000000
323.250000	-0.000000
323.423000	-0.000000
323.597000	-0.000000
323.771000	-0.000000
323.945000	-0.000000
324.119000	-0.000000
324.292000	0.000000
324.466000	-0.000000
324.640000	0.000000
324.814000	0.000000
324.988000	-0.000000
325.161000	-0.000000
325.335000	-0.000000
325.509000	-0.000000
325.683000	-0.000000
325.856000	-0.000000
326.030000	-0.000000
326.204000	-0.000000
326.378000	-0.000000
326.552000	-0.000000
326.725000	-0.000000
326.899000	-0.000000
327.073000	-0.000000
327.247000	-0.000000
327.421000	0.000000
327.594000	0.000000
327.768000	-0.000000
327.942000	-0.000000
328.116000	0.000000
328.289000	0.000000
328.463000	-0.000000
328.637000	0.000000
328.811000	-0.000000
328.985000	-0.000000
329.158000	-0.000000
329.332000	-0.000000
329.506000	0.000000
329.680000	-0.000000
329.854000	-0.000000
330.027000	-0.000000
330.201000	0.000000
330.375000	0.000000
330.549000	0.000000
330.723000	-0.000000
330.896000	-0.000000
331.070000	-0.000000
331.244000	-0.000000
331.418000	-0.000000
331.591000	-0.000000
331.765000	-0.000000
331.939000	-0.000000
332.113000	-0.000000
332.287000	-0.000000
332.460000	0.000000
332.634000	0.000000
332.808000	-0.000000
332.982000	-0.000000
333.156000	-0.000000
333.329000	-0.000000
333.503000	-0.000000
333.677000	-0.000000
333.851000	-0.000000
334.024000	-0.000000
334.198000	-0.000000
334.372000	-0.000000
334.546000	-0.000000
334.720000	-0.000000
334.893000	-0.000000
335.067000	-0.000000
335.241000	0.000000
335.415000	-0.000000
335.589000	-0.000000
335.762000	-0.000000
335.936000	-0.000000
336.110000	-0.000000
336.284000	-0.000000
336.458000	-0.000000
336.631000	-0.000000
336.805000	-0.000000
336.979000	-0.000000
337.153000	-0.000000
337.326000	-0.000000
337.500000	-0.000000
337.674000	-0.000000
337.848000	-0.000000
338.022000	-0.000000
338.195000	-0.000000
338.369000	-0.000000
338.543000	-0.000000
338.717000	-0.000000
338.891000	0.000000
339.064000	0.000000
339.238000	-0.000000
339.412000	-0.000000
339.586000	-0.000000
339.759000	-0.000000
339.933000	-0.000000
340.107000	0.000000
340.281000	-0.000000
340.455000	-0.000000
340.628000	-0.000000
340.802000	-0.000000
340.976000	-0.000000
341.150000	-0.000000
341.324000	-0.000000
341.497000	-0.000000
341.671000	-0.000000
341.845000	-0.000000
342.019000	-0.000000
342.192000	-0.000000
342.366000	-0.000000
342.540000	-0.000000
342.714000	-0.000000
342.888000	-0.000000
343.061000	-0.000000
343.235000	-0.000000
343.409000	-0.000000
343.583000	-0.000000
343.757000	-0.000000
343.930000	-0.000000
344.104000	-0.000000
344.278000	0.000000
344.452000	0.000000
344.626000	-0.000000
344.799000	-0.000000
344.973000	-0.000000
345.147000	-0.000000
345.321000	-0.000000
345.494000	-0.000000
345.668000	0.000000
345.842000	0.000000
346.016000	-0.000000
346.190000	0.000000
346.363000	0.000000
346.537000	-0.000000
346.711000	-0.000000
346.885000	-0.000000
347.059000	-0.000000
347.232000	0.000000
347.406000	0.000000
347.580000	-0.000000
347.754000	-0.000000
347.927000	-0.000000
348.101000	0.000000
348.275000	-0.000000
348.449000	-0.000000
348.623000	-0.000000
348.796000	0.000000
348.970000	0.000000
349.144000	-0.000000
349.318000	-0.000000
349.492000	-0.000000
349.665000	-0.000000
349.839000	-0.000000
350.013000	-0.000000
350.187000	-0.000000
350.361000	-0.000000
350.534000	-0.000000
350.708000	-0.000000
350.882000	-0.000000
351.056000	0.000000
351.229000	-0.000000
351.403000	-0.000000
351.577000	-0.000000
351.751000	-0.000000
351.925000	-0.000000
352.098000	-0.000000
352.272000	-0.000000
352.446000	-0.000000
352.620000	-0.000000
352.794000	-0.000000
352.967000	-0.000000
353.141000	0.000000
353.315000	0.000000
353.489000	-0.000000
353.662000	-0.000000
353.836000	-0.000000
354.010000	-0.000000
354.184000	-0.000000
354.358000	-0.000000
354.531000	-0.000000
354.705000	-0.000000
354.879000	-0.000000
355.053000	-0.000000
355.227000	0.000000
355.400000	-0.000000
355.574000	0.000000
355.748000	0.000000
355.922000	-0.000000
356.095000	-0.000000
356.269000	-0.000000
356.443000	-0.000000
356.617000	-0.000000
356.791000	-0.000000
356.964000	-0.000000
357.138000	-0.000000
357.312000	-0.000000
357.486000	-0.000000
357.660000	-0.000000
357.833000	-0.000000
358.007000	-0.000000
358.181000	-0.000000
358.355000	-0.000000
358.529000	-0.000000
358.702000	-0.000000
358.876000	-0.000000
359.050000	-0.000000
359.224000	-0.000000
359.397000	-0.000000
359.571000	-0.000000
359.745000	-0.000000
359.919000	-0.000000
360.093000	-0.072145
360.266000	0.029612
360.440000	0.090025
360.614000	0.107682
360.788000	0.017157
360.962000	-0.228277
361.135000	-0.098049
361.309000	-0.184016
361.483000	-0.293981
361.657000	-0.244081
361.830000	-0.244004
362.004000	-0.054565
362.178000	-0.345944
362.352000	-0.234667
362.526000	-0.087955
362.699000	-0.083672
362.873000	-0.413515
363.047000	-0.406051
363.221000	-0.366526
363.395000	-0.197521
363.568000	-0.207196
363.742000	-0.240078
363.916000	-0.217601
364.090000	-0.332624
364.263000	-0.313605
364.437000	-0.388156
364.611000	-0.084404
364.785000	-0.075125
364.959000	-0.267304
365.132000	-0.276872
365.306000	-0.271874
365.480000	-0.113114
365.656000	-0.190987
365.831000	-0.223188
366.007000	-0.228561
366.183000	-0.191734
366.358000	-0.332254
366.534000	-0.206810
366.710000	-0.363788
366.886000	-0.288728
367.061000	-0.123550
367.237000	0.024469
367.413000	-0.115095
367.588000	-0.337952
367.764000	-0.328908
367.940000	-0.355280
368.115000	-0.314593
368.291000	-0.322926
368.467000	-0.198130
368.643000	0.130138
368.818000	-0.243353
368.994000	-0.363974
369.170000	-0.253462
369.345000	-0.214081
369.521000	-0.264017
369.697000	-0.171875
369.872000	-0.248754
370.048000	-0.355216
370.224000	-0.288451
370.399000	-0.492012
370.575000	-0.385849
370.751000	-0.469080
370.927000	-0.423816
371.102000	-0.391648
371.278000	-0.363516
371.454000	-0.254635
371.629000	0.019176
371.805000	-0.060395
371.981000	0.068668
372.156000	0.232948
372.332000	0.061955
372.508000	0.004549
372.683000	-0.081077
372.859000	-0.190634
373.035000	-0.195969
373.211000	0.184431
373.386000	-0.008558
373.562000	-0.392212
373.738000	-0.534384
373.913000	-0.665909
374.089000	-0.458345
374.265000	-0.061099
374.440000	-0.078211
374.616000	-0.033399
374.792000	-0.227124
374.968000	0.152709
375.143000	-0.066809
375.319000	-0.289531
375.495000	-0.371505
375.670000	-0.234617
375.846000	-0.135583
376.022000	-0.288493
376.197000	-0.209362
376.373000	-0.421073
376.549000	-0.432431
376.724000	-0.489795
376.900000	-0.354951
377.076000	-0.203879
377.252000	0.049965
377.427000	0.164125
377.603000	-0.206799
377.779000	-0.195667
377.954000	-0.374031
378.130000	-0.222124
378.306000	-0.198866
378.481000	-0.193303
378.657000	-0.245828
378.833000	-0.292550
379.009000	-0.167610
379.184000	-0.035210
379.360000	-0.111937
379.536000	-0.136643
379.711000	-0.221101
379.887000	-0.300418
380.063000	-0.334933
380.238000	-0.359438
380.414000	-0.088404
380.590000	-0.338619
380.765000	-0.339154
380.941000	-0.094253
381.117000	-0.073428
381.293000	-0.175692
381.468000	-0.333350
381.644000	-0.243305
381.820000	-0.145300
381.995000	-0.038098
382.171000	0.137294
382.347000	0.108691
382.522000	-0.278371
382.698000	0.076276
382.874000	0.115179
383.050000	-0.333377
383.225000	0.015372
383.401000	0.226294
383.577000	-0.108087
383.752000	-0.244332
383.928000	-0.200362
384.104000	-0.133848
384.279000	-0.219865
384.455000	-0.168821
384.631000	-0.206225
384.806000	-0.416496
384.982000	-0.189415
385.158000	-0.233263
385.334000	-0.103455
385.509000	-0.153356
385.685000	-0.472964
385.861000	-0.251582
386.036000	-0.399896
386.212000	-0.563180
386.388000	-0.339703
386.563000	-0.299205
386.739000	-0.341095
386.915000	-0.557990
387.090000	-0.243510
387.266000	-0.040703
387.442000	0.004346
387.618000	-0.097316
387.793000	-0.405657
387.969000	-0.548256
388.145000	-0.450721
388.320000	-0.410002
388.496000	-0.358958
388.672000	-0.561139
388.847000	-0.153547
389.023000	-0.120605
389.199000	-0.445251
389.375000	-0.232594
389.550000	-0.323344
389.726000	-0.208608
389.902000	-0.408417
390.077000	-0.183710
390.253000	-0.170062
390.429000	-0.244899
390.604000	-0.136267
390.780000	-0.106709
390.956000	-0.282357
391.131000	-0.349562
391.307000	-0.015366
391.483000	-0.200589
391.659000	-0.346287
391.834000	-0.141711
392.010000	-0.303771
392.186000	-0.344694
392.361000	-0.271588
392.537000	-0.374953
392.713000	0.116757
392.888000	0.226739
393.064000	-0.071780
393.240000	-0.260251
393.416000	-0.372327
393.591000	-0.415164
393.767000	-0.468692
393.943000	-0.347917
394.118000	-0.035448
394.294000	0.128524
394.470000	-0.039714
394.645000	0.060837
394.821000	0.254421
394.997000	-0.100668
395.172000	-0.152232
395.348000	-0.238077
395.524000	-0.488929
395.700000	-0.349164
395.875000	-0.113767
396.051000	-0.163829
396.227000	-0.209854
396.402000	-0.266180
396.578000	-0.194487
396.754000	-0.362073
396.929000	-0.298753
397.105000	-0.006018
397.281000	-0.100550
397.457000	-0.231648
397.632000	-0.232034
397.808000	-0.505135
397.984000	-0.599314
398.159000	-0.486066
398.335000	-0.301089
398.511000	0.142014
398.686000	-0.079888
398.862000	-0.323605
399.038000	-0.484721
399.213000	-0.214729
399.389000	-0.457727
399.565000	-0.205835
399.741000	0.012376
399.916000	-0.061340
400.092000	0.211663
400.268000	-0.134809
400.443000	-0.276804
400.619000	0.061995
400.795000	-0.064212
400.970000	-0.259616
401.146000	-0.301443
401.322000	0.008217
401.497000	0.391885
401.673000	0.062330
401.849000	-0.268352
402.025000	-0.055364
402.200000	-0.207331
402.376000	-0.283266
402.552000	0.111400
402.727000	-0.093149
402.903000	-0.373779
403.079000	-0.271460
403.254000	-0.018563
403.430000	-0.022630
403.606000	-0.116414
403.782000	-0.180550
403.957000	-0.370255
404.133000	-0.490640
404.309000	-0.326151
404.484000	-0.095453
404.660000	-0.109754
404.841000	-0.239022
405.023000	-0.019833
405.204000	-0.089932
405.385000	-0.385862
405.566000	-0.384127
405.748000	-0.223934
405.929000	-0.017355
406.110000	-0.077619
406.292000	-0.214661
406.473000	-0.139833
406.654000	-0.299893
406.835000	-0.154480
407.017000	-0.206965
407.198000	-0.203275
407.379000	-0.143498
407.560000	-0.163287
407.742000	-0.211888
407.923000	-0.161267
408.104000	-0.329084
408.286000	-0.160177
408.467000	-0.094592
408.648000	-0.341138
408.829000	-0.417575
409.011000	-0.269569
409.192000	-0.422513
409.373000	-0.209024
409.555000	-0.107453
409.736000	-0.112263
409.917000	-0.208430
410.098000	-0.193266
410.280000	-0.097439
410.461000	-0.112293
410.642000	-0.124818
410.823000	0.083181
411.005000	0.029863
411.186000	-0.196295
411.367000	-0.304848
411.549000	-0.316967
411.730000	-0.044133
411.911000	0.073613
412.092000	-0.112136
412.274000	-0.195234
412.455000	-0.110165
412.636000	-0.083106
412.818000	-0.257256
412.999000	-0.324029
413.180000	-0.262465
413.361000	-0.234955
413.543000	-0.284973
413.724000	-0.379799
413.905000	-0.390578
414.087000	-0.390046
414.268000	-0.372432
414.449000	-0.365109
414.630000	-0.430926
414.812000	-0.495658
414.993000	-0.148934
415.174000	-0.044090
415.355000	-0.211391
415.537000	-0.433949
415.718000	-0.152078
415.899000	-0.243237
416.081000	-0.367851
416.262000	-0.125620
416.443000	-0.259560
416.624000	-0.244515
416.806000	-0.101573
416.987000	0.008990
417.168000	-0.069910
417.350000	-0.278787
417.531000	-0.338488
417.712000	-0.273172
417.893000	-0.048558
418.075000	0.032250
418.256000	-0.225886
418.437000	-0.119421
418.618000	-0.002870
418.800000	0.064874
418.981000	-0.154508
419.162000	-0.123893
419.344000	0.061964
419.525000	-0.034147
419.706000	-0.103338
419.887000	0.040106
420.069000	0.201361
420.250000	0.068663
420.431000	0.002335
420.613000	-0.081073
420.794000	-0.275804
420.975000	0.119934
421.156000	-0.065003
421.338000	-0.132230
421.519000	-0.099864
421.700000	-0.193573
421.882000	-0.190944
422.063000	-0.017081
422.244000	0.486400
422.425000	0.258215
422.607000	-0.123015
422.788000	-0.147142
422.969000	-0.209376
423.150000	-0.212203
423.332000	-0.269579
423.513000	-0.055846
423.694000	-0.028849
423.876000	0.030835
424.057000	0.103403
424.238000	0.131105
424.419000	0.173229
424.601000	-0.004174
424.782000	0.007557
424.963000	0.203900
425.145000	0.116351
425.326000	0.131333
425.507000	0.189109
425.688000	0.105911
425.870000	-0.062656
426.051000	-0.177128
426.232000	-0.098368
426.413000	-0.061290
426.595000	-0.046760
426.776000	-0.102256
426.957000	-0.026193
427.139000	0.113368
427.320000	0.133322
427.501000	0.205450
427.682000	0.227767
427.864000	0.263895
428.045000	0.429593
428.226000	0.364662
428.408000	0.054426
428.589000	0.200701
428.770000	0.208007
428.951000	0.092721
429.133000	-0.020858
429.314000	0.173316
429.495000	0.194525
429.677000	0.188784
429.858000	0.147792
430.039000	0.269122
430.220000	0.396793
430.402000	0.453381
430.583000	0.194246
430.764000	0.224264
430.945000	0.387955
431.127000	0.478356
431.308000	0.326250
431.489000	0.505626
431.671000	0.565420
431.852000	0.471175
432.033000	0.411336
432.214000	0.528805
432.396000	0.604783
432.577000	0.444673
432.758000	0.315844
432.940000	0.377895
433.121000	0.490692
433.302000	0.556254
433.483000	0.755047
433.665000	0.868113
433.846000	0.769224
434.027000	0.647445
434.208000	0.553651
434.390000	0.554433
434.571000	1.002387
434.752000	1.468199
434.934000	1.287102
435.115000	1.215430
435.296000	1.322344
435.477000	1.167931
435.659000	0.952532
435.840000	1.036938
436.026000	1.043717
436.211000	0.936816
436.397000	0.679675
436.582000	0.804669
436.768000	1.056177
436.953000	0.958169
437.139000	1.006095
437.325000	1.298001
437.510000	1.286887
437.696000	1.499045
437.881000	1.543836
438.067000	1.171923
438.252000	1.201675
438.438000	1.203230
438.624000	1.295864
438.809000	1.415107
438.995000	1.518704
439.180000	1.455595
439.366000	1.411199
439.551000	1.474736
439.737000	1.590456
439.923000	1.654343
440.108000	1.605871
440.294000	1.715752
440.479000	1.883016
440.665000	1.956309
440.850000	1.915154
441.036000	1.921857
441.222000	1.946410
441.407000	1.853286
441.593000	2.040798
441.778000	2.192823
441.964000	2.316450
442.149000	2.048622
442.335000	2.053348
442.521000	2.210385
442.706000	2.434814
442.892000	2.407767
443.077000	2.366337
443.263000	2.503224
443.448000	2.481688
443.634000	2.489153
443.820000	2.847743
444.005000	2.775589
444.191000	2.606375
444.376000	2.668756
444.562000	3.070557
444.747000	3.121618
444.933000	3.081159
445.119000	3.020948
445.304000	2.998505
445.490000	3.230900
445.675000	3.316898
445.861000	3.222252
446.046000	3.303878
446.232000	3.436063
446.418000	3.541954
446.603000	3.580740
446.789000	3.612659
446.974000	3.698715
447.160000	3.580362
447.345000	3.704981
447.531000	3.737283
447.717000	4.029475
447.902000	4.171967
448.088000	4.314864
448.273000	4.253842
448.459000	4.264010
448.644000	4.296203
448.830000	4.344491
449.016000	4.317551
449.201000	4.434536
449.387000	4.684580
449.572000	4.864477
449.758000	4.850224
449.943000	4.877116
450.129000	4.897435
450.315000	4.959887
450.500000	5.046958
450.686000	5.183345
450.871000	5.168403
451.057000	5.415832
451.243000	5.479093
451.428000	5.572646
451.614000	5.612358
451.799000	5.659686
451.985000	5.980927
452.170000	6.111636
452.356000	5.952259
452.542000	6.024319
452.727000	6.255511
452.913000	6.171325
453.098000	6.420133
453.284000	6.660428
453.469000	6.559436
453.655000	6.763238
453.841000	6.749323
454.026000	6.622659
454.212000	6.663532
454.397000	6.765134
454.583000	6.741675
454.768000	6.662303
454.954000	6.926387
455.140000	6.965603
455.325000	6.800349
455.511000	6.815977
455.696000	6.925379
455.882000	7.123639
456.067000	7.351775
456.253000	7.147060
456.439000	7.042871
456.624000	7.026192
456.810000	7.028447
456.995000	7.066028
457.181000	6.973020
457.366000	7.148747
457.552000	7.134355
457.738000	7.225582
457.923000	7.216934
458.109000	7.415665
458.294000	7.224088
458.480000	7.185834
458.665000	7.084310
458.851000	6.923540
459.037000	6.687792
459.222000	6.836653
459.408000	6.772170
459.593000	6.752138
459.779000	6.762060
459.964000	6.821360
460.150000	6.949517
460.336000	6.842320
460.521000	6.569974
460.707000	6.353148
460.892000	6.190732
461.078000	6.335812
461.263000	6.325150
461.449000	6.086801
461.635000	5.999994
461.820000	5.976542
462.006000	5.937622
462.191000	5.773347
462.377000	5.515525
462.562000	5.784042
462.748000	5.870297
462.934000	5.406014
463.119000	5.151177
463.305000	5.235506
463.490000	5.053498
463.676000	5.055145
463.861000	4.940027
464.047000	4.792710
464.233000	4.791644
464.418000	4.653750
464.604000	4.438362
464.789000	4.576168
464.975000	4.549532
465.160000	4.357198
465.346000	4.257819
465.532000	4.075980
465.717000	3.890720
465.903000	4.081020
466.088000	4.036726
466.274000	3.760815
466.459000	3.651885
466.645000	3.949069
466.831000	3.838494
467.016000	3.771446
467.202000	3.614284
467.387000	3.463443
467.573000	3.240824
467.758000	3.438868
467.944000	3.262261
468.130000	3.123049
468.315000	3.227175
468.501000	3.339554
468.686000	3.160405
468.872000	3.095224
469.057000	3.110219
469.243000	2.996762
469.429000	2.895595
469.614000	2.741602
469.800000	2.632128
469.985000	2.763651
470.171000	2.845476
470.356000	2.690749
470.542000	2.720823
470.728000	2.631719
470.913000	2.559860
471.099000	2.624668
471.284000	2.503383
471.470000	2.441872
471.655000	2.407690
471.841000	2.333137
472.027000	2.218862
472.212000	2.428443
472.398000	2.441331
472.583000	2.246163
472.769000	2.213884
472.954000	2.185831
473.140000	2.015752
473.326000	1.953576
473.511000	2.229695
473.697000	2.217612
473.882000	2.028868
474.068000	1.945932
474.253000	1.794197
474.439000	1.839348
474.625000	1.909630
474.810000	1.854984
474.996000	1.835328
475.181000	1.646455
475.367000	1.782415
475.552000	1.989688
475.738000	1.635479
475.924000	1.624423
476.109000	1.650279
476.295000	1.537202
476.480000	1.557469
476.666000	1.498156
476.851000	1.492452
477.037000	1.540707
477.223000	1.393156
477.408000	1.273628
477.594000	1.185032
477.779000	1.289795
477.965000	1.263671
478.151000	1.106936
478.336000	1.256695
478.522000	1.159359
478.707000	1.079650
478.893000	1.166559
479.078000	0.992764
479.264000	0.960439
479.450000	1.006258
479.635000	1.139037
479.821000	1.031359
480.006000	1.041437
480.192000	1.025654
480.377000	1.024920
480.563000	0.997251
480.749000	0.798279
480.934000	0.784591
481.120000	0.883019
481.305000	0.973143
481.491000	0.922866
481.676000	0.938782
481.862000	0.925099
482.048000	0.760482
482.233000	0.782217
482.419000	0.751435
482.604000	0.673213
482.790000	0.669278
482.975000	0.686700
483.161000	0.828511
483.347000	0.807507
483.532000	0.714189
483.718000	0.490468
483.903000	0.577169
484.089000	0.594516
484.274000	0.446858
484.460000	0.582931
484.646000	0.650079
484.831000	0.503414
485.017000	0.528413
485.202000	0.559833
485.388000	0.765653
485.573000	0.746507
485.759000	0.561739
485.945000	0.709247
486.130000	0.527065
486.316000	0.499765
486.501000	0.600327
486.687000	0.436110
486.872000	0.332715
487.058000	0.514200
487.244000	0.521381
487.429000	0.342930
487.615000	0.481832
487.800000	0.568756
487.986000	0.466284
488.171000	0.548380
488.357000	0.489129
488.543000	0.493164
488.728000	0.512716
488.914000	0.427670
489.099000	0.343054
489.285000	0.327306
489.470000	0.510126
489.656000	0.525015
489.842000	0.476752
490.027000	0.557920
490.213000	0.372183
490.398000	0.088551
490.584000	0.364118
490.769000	0.362195
490.955000	0.404751
491.141000	0.403858
491.326000	0.370959
491.512000	0.506209
491.697000	0.396677
491.883000	0.243549
492.068000	0.197873
492.254000	0.232566
492.440000	0.291536
492.625000	0.206073
492.811000	0.201862
492.996000	0.299157
493.182000	0.283095
493.367000	0.090720
493.553000	0.017808
493.739000	0.113308
493.924000	0.217595
494.110000	0.215962
494.295000	0.096737
494.481000	0.196728
494.666000	0.203467
494.852000	0.364112
495.038000	0.211180
495.223000	0.089189
495.409000	0.130279
495.594000	0.090067
495.780000	0.139532
495.965000	0.048623
496.151000	0.281071
496.337000	0.329515
496.522000	0.078188
496.708000	0.150576
496.893000	0.280722
497.079000	0.130573
497.264000	0.074391
497.450000	0.131307
497.636000	0.224769
497.821000	0.056605
498.007000	0.250260
498.192000	0.294177
498.378000	0.141607
498.563000	0.058602
498.749000	0.082948
498.935000	0.071631
499.120000	0.171943
499.306000	0.014722
499.491000	-0.025275
499.677000	0.084349
499.862000	0.169524
500.048000	0.226803
500.234000	0.108829
500.419000	0.052087
500.605000	0.210962
500.790000	0.117403
500.976000	-0.040381
501.161000	-0.098309
501.347000	0.068963
501.533000	0.165318
501.718000	0.086722
501.904000	0.020420
502.089000	0.118011
502.275000	0.174778
502.460000	0.044592
502.646000	0.086672
502.832000	0.122228
503.017000	0.085957
503.203000	-0.100518
503.388000	-0.138356
503.574000	0.071059
503.759000	0.094470
503.945000	0.124673
504.131000	0.055201
504.316000	0.030774
504.502000	0.027031
504.687000	0.002635
504.873000	-0.099058
505.058000	-0.146120
505.244000	-0.166793
505.430000	-0.119012
505.615000	-0.011520
505.801000	0.045216
505.986000	-0.118803
506.172000	-0.025621
506.358000	-0.004909
506.543000	-0.029440
506.729000	0.167871
506.914000	0.109574
507.100000	0.185906
507.285000	-0.016358
507.471000	-0.109441
507.657000	0.141345
507.842000	-0.008727
508.028000	-0.172949
508.213000	-0.120092
508.399000	-0.066941
508.584000	0.060898
508.770000	-0.038304
508.956000	-0.093642
509.141000	-0.053544
509.327000	0.023677
509.512000	-0.024914
509.698000	-0.027809
509.883000	0.038965
510.069000	-0.041368
510.255000	-0.023184
510.440000	0.008441
510.626000	-0.086475
510.811000	-0.121163
510.997000	-0.036683
511.182000	0.223290
511.368000	0.123673
511.554000	-0.243264
511.739000	-0.136531
511.925000	0.070902
512.110000	0.044920
512.296000	0.152803
512.481000	0.169917
512.667000	0.060420
512.853000	-0.156080
513.038000	-0.060901
513.224000	-0.097542
513.409000	-0.193908
513.595000	-0.058112
513.780000	-0.211488
513.966000	-0.140716
514.152000	-0.118593
514.337000	-0.175458
514.523000	-0.134061
514.708000	-0.061893
514.894000	-0.043696
515.079000	-0.156191
515.265000	-0.131605
515.451000	-0.099760
515.636000	-0.196283
515.822000	-0.064026
516.007000	-0.169473
516.193000	-0.039814
516.378000	0.043367
516.564000	-0.062056
516.750000	-0.047574
516.935000	0.044308
517.121000	0.047202
517.306000	0.125663
517.492000	0.076403
517.677000	-0.164837
517.863000	-0.176492
518.049000	-0.047673
518.234000	-0.129938
518.420000	-0.006011
518.605000	0.175215
518.791000	0.139289
518.976000	-0.018671
519.162000	-0.139973
519.348000	-0.036117
519.533000	-0.027339
519.719000	0.167696
519.904000	0.073644
520.090000	0.031803
520.275000	0.206467
520.461000	0.129103
520.647000	-0.083785
520.832000	-0.256518
521.018000	-0.156700
521.203000	-0.120337
521.389000	-0.276130
521.574000	-0.200816
521.760000	-0.038042
521.946000	-0.029397
522.131000	-0.105415
522.317000	-0.099416
522.502000	-0.161603
522.688000	-0.067316
522.873000	-0.065432
523.059000	-0.083017
523.245000	-0.089754
523.430000	-0.232175
523.616000	-0.166823
523.801000	-0.232417
523.987000	-0.184938
524.172000	-0.056883
524.358000	-0.016818
524.544000	-0.056814
524.729000	0.026092
524.915000	0.076903
525.100000	-0.056777
525.286000	-0.017781
525.471000	-0.022730
525.657000	0.002746
525.843000	-0.200506
526.028000	-0.055222
526.214000	-0.083687
526.399000	-0.192287
526.585000	-0.249471
526.770000	-0.273086
526.956000	-0.169080
527.142000	-0.228296
527.327000	-0.073353
527.513000	-0.154607
527.698000	-0.162708
527.884000	-0.128492
528.069000	-0.176867
528.255000	-0.077717
528.441000	-0.158405
528.626000	-0.111983
528.812000	0.133434
528.997000	-0.035175
529.183000	-0.166009
529.368000	-0.081483
529.554000	-0.071638
529.740000	-0.083947
529.925000	-0.135434
530.111000	-0.118409
530.296000	-0.075076
530.482000	0.026169
530.667000	-0.033688
530.853000	0.017102
531.039000	-0.066515
531.224000	-0.017641
531.410000	0.065417
531.595000	-0.018679
531.781000	0.029562
531.967000	-0.122005
532.152000	0.026714
532.338000	-0.062456
532.523000	-0.216411
532.709000	-0.240163
532.894000	-0.138601
533.080000	-0.100966
533.266000	-0.237585
533.451000	-0.264824
533.637000	-0.196937
533.822000	-0.017202
534.008000	-0.161476
534.193000	-0.126934
534.379000	-0.039756
534.565000	-0.107516
534.750000	-0.153148
534.936000	0.078703
535.121000	-0.078256
535.307000	-0.046904
535.492000	-0.025230
535.678000	-0.238711
535.864000	-0.110161
536.049000	0.154585
536.235000	-0.043394
536.420000	-0.069170
536.606000	-0.129590
536.791000	-0.214499
536.977000	-0.204914
537.163000	0.023484
537.348000	0.007722
537.534000	0.046644
537.719000	-0.136615
537.905000	-0.267161
538.090000	-0.023333
538.276000	0.073957
538.462000	0.054427
538.647000	0.062821
538.833000	-0.054242
539.018000	0.079974
539.204000	0.030454
539.389000	-0.127403
539.575000	0.203158
539.761000	0.116909
539.946000	-0.167183
540.132000	-0.017121
540.317000	-0.145342
540.503000	-0.017207
540.688000	0.027802
540.874000	0.285965
541.060000	0.425259
541.245000	0.229475
541.431000	0.077439
541.616000	0.138239
541.802000	0.124745
541.987000	0.260380
542.173000	0.222754
542.359000	0.102029
542.544000	0.268775
542.730000	0.109789
542.915000	0.069943
543.101000	0.236791
543.286000	0.062588
543.472000	-0.012899
543.658000	0.106054
543.843000	0.097434
544.029000	0.288660
544.214000	0.189628
544.400000	-0.118906
544.585000	0.034267
544.771000	0.117762
544.957000	0.336564
545.142000	0.465505
545.328000	0.523491
545.513000	0.488279
545.699000	0.441062
545.884000	0.308876
546.070000	0.221952
546.261000	0.170592
546.451000	0.020671
546.642000	-0.206015
546.833000	-0.114475
547.023000	-0.201073
547.214000	-0.182120
547.405000	-0.001581
547.595000	0.254352
547.786000	0.230169
547.977000	-0.004249
548.167000	-0.198296
548.358000	-0.139099
548.549000	0.220805
548.740000	0.078782
548.930000	-0.236162
549.121000	-0.156191
549.312000	-0.210761
549.502000	-0.292423
549.693000	-0.121902
549.884000	-0.019197
550.074000	0.030931
550.265000	-0.223289
550.456000	-0.080699
550.646000	0.009292
550.837000	-0.059049
551.028000	-0.124826
551.218000	-0.001642
551.409000	-0.137707
551.600000	-0.113066
551.790000	0.031485
551.981000	-0.246069
552.172000	-0.275579
552.362000	0.097904
552.553000	0.153996
552.744000	-0.026668
552.934000	-0.064224
553.125000	-0.147896
553.316000	-0.202336
553.506000	0.160304
553.697000	-0.028312
553.888000	0.010913
554.079000	0.163544
554.269000	0.123062
554.460000	-0.211054
554.651000	-0.245030
554.841000	-0.390347
555.032000	-0.282349
555.223000	-0.182471
555.413000	-0.029809
555.604000	-0.076532
555.795000	-0.137609
555.985000	-0.037168
556.176000	-0.143305
556.367000	-0.395278
556.557000	-0.258810
556.748000	-0.195269
556.939000	-0.254652
557.129000	-0.314071
557.320000	-0.150882
557.511000	-0.173290
557.701000	-0.187174
557.892000	-0.142437
558.083000	0.080655
558.273000	-0.027269
558.464000	-0.244580
558.655000	-0.214568
558.845000	-0.104988
559.036000	-0.048425
559.227000	-0.123561
559.418000	0.018171
559.608000	0.084858
559.799000	-0.239800
559.990000	-0.303373
560.180000	-0.217665
560.371000	-0.377746
560.562000	-0.337646
560.752000	-0.172651
560.943000	-0.316908
561.134000	-0.476764
561.324000	-0.252315
561.515000	0.016584
561.706000	-0.139571
561.896000	-0.361085
562.087000	-0.251297
562.278000	-0.265216
562.468000	-0.408604
562.659000	-0.308134
562.850000	0.031925
563.040000	0.057130
563.231000	-0.416476
563.422000	-0.253086
563.612000	-0.319084
563.803000	-0.222199
563.994000	-0.323921
564.185000	-0.398259
564.375000	-0.144661
564.566000	-0.179151
564.757000	-0.224145
564.947000	-0.275265
565.138000	-0.141457
565.329000	-0.224052
565.519000	-0.400655
565.710000	-0.294645
565.901000	-0.102616
566.091000	0.016307
566.282000	-0.149183
566.473000	-0.132228
566.663000	-0.123836
566.854000	-0.328465
567.045000	-0.180309
567.235000	-0.113457
567.426000	-0.112052
567.617000	-0.102141
567.807000	-0.163333
567.998000	-0.146727
568.189000	-0.241593
568.379000	-0.184184
568.570000	-0.081295
568.761000	-0.110771
568.951000	-0.175176
569.142000	-0.192925
569.333000	-0.231991
569.524000	-0.350576
569.714000	-0.396174
569.905000	-0.501335
570.096000	-0.132878
570.286000	-0.008294
570.477000	0.107792
570.668000	-0.092231
570.858000	-0.164194
571.049000	-0.272519
571.240000	-0.331120
571.430000	-0.121022
571.621000	-0.172162
571.812000	-0.064792
572.002000	-0.076780
572.193000	-0.242608
572.384000	-0.164829
572.574000	-0.114893
572.765000	-0.183074
572.956000	-0.236254
573.146000	-0.022584
573.337000	-0.158824
573.528000	-0.183402
573.718000	-0.048536
573.909000	0.002345
574.100000	-0.041802
574.290000	-0.195664
574.481000	-0.179732
574.672000	-0.167011
574.863000	-0.049183
575.053000	-0.195586
575.244000	-0.104100
575.435000	-0.242324
575.625000	-0.252731
575.816000	-0.238408
576.007000	-0.146714
576.197000	-0.132914
576.388000	-0.113338
576.579000	0.014988
576.769000	0.001015
576.960000	-0.298173
577.155000	-0.423774
577.350000	-0.137885
577.545000	-0.011595
577.740000	-0.177432
577.935000	0.128912
578.130000	0.046183
578.326000	-0.256737
578.521000	0.014757
578.716000	0.055768
578.911000	-0.235259
579.106000	-0.089439
579.301000	0.009633
579.496000	-0.176294
579.691000	-0.445525
579.886000	-0.238253
580.081000	-0.093342
580.276000	-0.076006
580.471000	-0.176176
580.666000	-0.318567
580.861000	-0.324550
581.057000	-0.290601
581.252000	-0.174743
581.447000	-0.230359
581.642000	-0.250259
581.837000	-0.243833
582.032000	-0.164198
582.227000	0.033566
582.422000	0.006990
582.617000	-0.175397
582.812000	-0.295805
583.007000	-0.231062
583.202000	-0.313007
583.397000	-0.057339
583.592000	0.162452
583.788000	-0.120977
583.983000	-0.092480
584.178000	-0.016766
584.373000	-0.198002
584.568000	-0.214034
584.763000	-0.268331
584.958000	-0.324750
585.153000	-0.218945
585.348000	-0.200022
585.543000	-0.064939
585.738000	-0.093130
585.933000	-0.296635
586.128000	-0.090770
586.324000	-0.043853
586.519000	-0.026151
586.714000	0.069321
586.909000	0.106056
587.104000	0.085080
587.299000	-0.034502
587.494000	-0.052154
587.689000	-0.110189
587.884000	-0.080875
588.079000	-0.129503
588.274000	-0.090534
588.469000	-0.090353
588.664000	-0.014485
588.859000	-0.007372
589.055000	-0.062138
589.250000	-0.114569
589.445000	-0.242292
589.640000	-0.204301
589.835000	0.041628
590.030000	0.143262
590.225000	0.156445
590.420000	-0.045753
590.615000	-0.157282
590.810000	-0.142737
591.005000	-0.116869
591.200000	-0.163829
591.395000	-0.183047
591.591000	-0.086684
591.786000	0.026151
591.981000	-0.043554
592.176000	0.008198
592.371000	-0.000241
592.566000	-0.044833
592.761000	0.150386
592.956000	0.126499
593.151000	0.190569
593.346000	0.083317
593.541000	0.136460
593.736000	0.130813
593.931000	-0.033021
594.126000	0.030152
594.322000	0.076350
594.517000	-0.008752
594.712000	-0.115767
594.907000	-0.106420
595.102000	0.015642
595.297000	0.185382
595.492000	0.266550
595.687000	0.069653
595.882000	-0.005153
596.077000	0.136204
596.272000	0.304554
596.467000	0.356289
596.662000	0.217576
596.857000	0.235742
597.053000	0.249753
597.248000	0.296654
597.443000	0.342881
597.638000	0.284105
597.833000	0.076811
598.028000	0.295188
598.223000	0.459940
598.418000	0.373543
598.613000	0.271337
598.808000	0.423652
599.003000	0.414124
599.198000	0.220945
599.393000	0.305832
599.589000	0.456990
599.784000	0.296849
599.979000	0.400233
600.174000	0.617850
600.369000	0.418535
600.564000	0.532409
600.759000	0.796523
600.954000	0.898388
601.149000	0.762269
601.344000	0.453429
601.539000	0.637416
601.734000	0.560769
601.929000	0.375970
602.124000	0.457423
602.320000	0.698247
602.515000	1.027341
602.710000	1.002733
602.905000	0.627161
603.100000	0.619799
603.295000	0.730411
603.490000	0.852502
603.685000	0.896058
603.880000	0.916324
604.075000	0.785358
604.270000	0.815277
604.465000	0.928874
604.660000	0.765226
604.856000	0.944339
605.051000	1.191760
605.246000	1.161230
605.441000	0.925498
605.636000	0.925763
605.831000	1.106566
606.026000	1.061027
606.221000	1.074087
606.416000	1.270458
606.611000	1.444950
606.806000	1.496583
607.001000	1.692479
607.196000	1.459773
607.391000	1.320529
607.587000	1.576471
607.782000	1.577255
607.977000	1.432109
608.172000	1.833534
608.367000	1.881659
608.562000	1.731539
608.757000	1.742715
608.952000	1.742856
609.147000	2.236611
609.342000	2.170799
609.537000	1.958721
609.732000	2.035269
609.927000	2.044328
610.122000	2.201235
610.318000	2.589258
610.513000	2.778384
610.708000	2.639433
610.903000	2.793734
611.098000	2.910487
611.293000	2.906005
611.488000	2.959176
611.683000	2.978902
611.878000	2.994361
612.073000	3.030916
612.268000	3.039513
612.463000	3.139204
612.658000	3.181714
612.854000	3.179086
613.049000	3.124640
613.244000	3.335415
613.439000	3.453882
613.634000	3.194169
613.829000	3.451468
614.024000	3.395403
614.219000	3.425689
614.414000	3.824337
614.609000	3.674452
614.804000	3.547980
614.999000	3.610415
615.194000	3.766271
615.389000	3.911962
615.585000	3.799183
615.780000	4.097778
615.975000	4.130284
616.170000	4.194130
616.365000	4.535543
616.560000	4.787920
616.755000	4.754892
616.950000	4.796395
617.145000	4.951901
617.340000	4.824466
617.535000	4.628179
617.730000	5.065631
617.925000	4.953598
618.120000	5.022139
618.316000	5.479716
618.511000	5.450518
618.706000	5.362420
618.901000	5.581095
619.096000	5.868822
619.291000	5.876102
619.486000	6.049710
619.681000	5.795477
619.876000	5.849741
620.071000	6.152763
620.266000	6.596880
620.461000	6.827152
620.656000	6.867756
620.852000	6.938460
621.047000	6.860513
621.242000	6.882136
621.437000	7.380405
621.632000	7.599760
621.827000	7.477348
622.022000	7.317158
622.217000	7.709146
622.412000	7.987077
622.607000	8.141764
622.802000	8.031494
622.997000	8.121904
623.192000	8.420483
623.387000	8.521578
623.583000	8.401974
623.778000	9.036708
623.973000	9.108283
624.168000	9.178472
624.363000	9.252838
624.558000	9.550344
624.753000	9.407441
624.948000	9.834706
625.143000	10.004359
625.338000	10.107647
625.533000	10.128055
625.728000	10.356841
625.923000	10.686890
626.119000	10.705885
626.314000	10.646673
626.509000	10.820315
626.704000	11.086317
626.899000	11.372885
627.094000	11.476296
627.289000	11.572902
627.484000	11.868565
627.679000	11.959930
627.874000	12.148829
628.069000	12.727444
628.264000	12.711517
628.459000	12.731040
628.654000	12.834081
628.850000	12.886471
629.045000	13.200259
629.240000	13.289115
629.435000	13.334630
629.630000	13.593518
629.825000	13.685404
630.020000	13.867863
630.215000	13.740804
630.410000	13.993173
630.605000	14.058648
630.800000	14.206555
630.995000	14.382800
631.190000	14.654837
631.385000	14.509866
631.581000	14.305032
631.776000	14.370109
631.971000	14.217922
632.166000	14.221283
632.361000	14.002242
632.556000	14.093308
632.751000	14.114468
632.946000	13.864114
633.141000	13.736334
633.336000	13.685780
633.531000	13.558756
633.726000	13.323868
633.921000	12.939462
634.117000	12.582126
634.312000	12.230019
634.507000	12.091612
634.702000	11.987724
634.897000	11.776632
635.092000	11.678531
635.287000	11.494734
635.482000	11.007319
635.677000	10.784076
635.872000	10.545929
636.067000	10.375860
636.262000	9.925232
636.457000	9.220336
636.652000	9.017456
636.848000	8.744536
637.043000	8.486923
637.238000	8.244604
637.433000	7.862468
637.628000	7.648163
637.823000	7.614958
638.018000	7.368777
638.213000	6.897435
638.408000	6.563984
638.603000	6.276202
638.798000	5.955675
638.993000	5.869318
639.188000	5.667657
639.383000	5.428470
639.579000	5.628008
639.774000	5.130774
639.969000	4.772576
640.164000	4.573883
640.359000	4.367375
640.554000	4.516859
640.749000	4.321865
640.944000	4.165586
641.139000	3.988527
641.334000	3.644965
641.529000	3.095800
641.724000	3.185944
641.919000	3.274284
642.115000	3.467059
642.310000	3.318320
642.505000	3.032935
642.700000	2.948429
642.895000	2.693147
643.090000	2.759574
643.285000	2.848552
643.480000	2.708657
643.675000	2.628662
643.870000	2.823406
644.065000	2.592582
644.260000	2.157384
644.455000	2.151480
644.650000	1.992539
644.846000	1.989267
645.041000	1.726355
645.236000	1.517728
645.431000	1.534894
645.626000	1.284355
645.821000	1.450200
646.016000	1.456108
646.211000	1.809861
646.406000	1.642463
646.601000	1.560545
646.796000	1.357824
646.991000	1.046884
647.186000	1.134707
647.381000	1.321659
647.577000	1.252395
647.772000	1.314602
647.967000	1.185928
648.162000	1.112780
648.357000	1.067064
648.552000	1.179574
648.747000	1.134723
648.942000	1.103383
649.137000	0.976406
649.332000	0.743773
649.527000	0.736682
649.722000	0.970163
649.917000	1.040960
650.113000	0.696982
650.308000	0.511075
650.503000	0.548160
650.698000	0.680878
650.893000	0.570586
651.088000	0.678399
651.283000	0.756788
651.478000	0.438899
651.673000	0.655294
651.868000	0.449599
652.063000	0.690480
652.258000	0.812810
652.453000	0.937264
652.648000	0.595890
652.844000	0.479732
653.039000	0.497717
653.234000	0.126788
653.429000	-0.045092
653.624000	0.108002
653.819000	0.365050
654.014000	0.306509
654.209000	0.175954
654.404000	0.339801
654.599000	0.184874
654.794000	0.198380
654.989000	0.436410
655.184000	0.325869
655.380000	0.032595
655.575000	0.013525
655.770000	0.036127
655.965000	0.157747
656.160000	0.069181
656.355000	0.244692
656.550000	0.247186
656.745000	0.294452
656.940000	0.158520
657.135000	0.141027
657.330000	0.160292
657.525000	-0.045780
657.720000	0.176441
657.915000	0.291698
658.111000	0.146604
658.306000	0.397092
658.501000	0.192685
658.696000	-0.093322
658.891000	0.140047
659.086000	0.059294
659.281000	0.129677
659.476000	-0.060179
659.671000	-0.485964
659.866000	-0.227423
660.061000	0.103572
660.256000	0.165297
660.451000	0.140751
660.646000	-0.065700
660.842000	0.022632
661.037000	-0.117096
661.232000	-0.134978
661.427000	0.012036
661.622000	-0.104974
661.817000	-0.243220
662.012000	-0.037676
662.207000	-0.203094
662.402000	-0.294532
662.597000	-0.055664
662.792000	-0.378239
662.987000	-0.369024
663.182000	-0.046761
663.378000	-0.027150
663.573000	-0.403239
663.768000	-0.441714
663.963000	-0.270470
664.158000	-0.261287
664.353000	0.234721
664.548000	0.406850
664.743000	0.067885
664.938000	-0.223028
665.133000	-0.270140
665.328000	0.159946
665.523000	0.109728
665.718000	-0.103243
665.913000	-0.123282
666.109000	-0.103629
666.304000	0.079326
666.499000	-0.078190
666.694000	0.075872
666.889000	0.371693
667.084000	0.039698
667.279000	-0.049502
667.474000	-0.067739
667.669000	-0.007646
667.864000	-0.047753
668.059000	-0.049652
668.254000	-0.099064
668.449000	-0.258370
668.644000	-0.157874
668.840000	0.113038
669.035000	-0.178041
669.230000	-0.481903
669.425000	-0.121753
669.620000	-0.233924
669.815000	-0.258765
670.010000	-0.308313
670.205000	-0.153547
670.400000	-0.131166
670.595000	-0.068739
670.790000	-0.187252
670.985000	-0.170778
671.180000	0.062675
671.376000	-0.321453
671.571000	-0.405868
671.766000	-0.369521
671.961000	-0.440535
672.156000	-0.437349
672.351000	-0.256269
672.546000	-0.243706
672.741000	-0.134848
672.936000	-0.120063
673.131000	0.423424
673.326000	0.061678
673.521000	-0.352323
673.716000	-0.440770
673.911000	-0.572920
674.107000	-0.034342
674.302000	0.271525
674.497000	-0.058980
674.692000	-0.361696
674.887000	-0.442653
675.082000	-0.276031
675.277000	0.001523
675.472000	-0.078536
675.667000	-0.271477
675.862000	-0.315548
676.057000	-0.229747
676.252000	-0.161278
676.447000	-0.294161
676.643000	-0.063696
676.838000	0.174534
677.033000	-0.117803
677.228000	0.192585
677.423000	0.084572
677.618000	-0.395353
677.813000	-0.505415
678.008000	-0.178978
678.203000	-0.078119
678.398000	-0.327450
678.593000	-0.158133
678.788000	-0.049235
678.983000	-0.312612
679.178000	-0.160484
679.374000	-0.260433
679.569000	-0.192415
679.764000	-0.265699
679.959000	-0.449540
680.154000	-0.433868
680.349000	-0.595521
680.544000	-0.517718
680.739000	-0.379702
680.934000	-0.494782
681.129000	-0.440641
681.324000	-0.490823
681.519000	-0.225471
681.714000	-0.311227
681.909000	-0.398411
682.105000	-0.547213
682.300000	-0.180708
682.495000	0.003604
682.690000	0.003612
682.885000	-0.104846
683.080000	-0.352875
683.275000	-0.330886
683.470000	0.050036
683.665000	0.228084
683.860000	0.435079
684.055000	0.165781
684.250000	-0.322960
684.445000	-0.371057
684.641000	0.050382
684.836000	-0.203896
685.031000	-0.182168
685.226000	-0.204909
685.421000	0.122635
685.616000	-0.168572
685.811000	-0.323152
686.006000	-0.057965
686.201000	-0.144488
686.396000	-0.506611
686.591000	-0.441380
686.786000	0.005806
686.981000	-0.166314
687.176000	-0.120986
687.372000	-0.204367
687.567000	0.080784
687.762000	-0.083929
687.957000	-0.154909
688.152000	-0.282862
688.347000	-0.216301
688.542000	-0.489988
688.737000	-0.809006
688.932000	-0.844041
689.127000	-0.436513
689.322000	-0.059579
689.517000	-0.281355
689.712000	-0.454050
689.908000	-0.369634
690.103000	-0.395863
690.298000	-0.225820
690.493000	-0.237071
690.688000	-0.546876
690.883000	-0.411675
691.078000	0.027426
691.273000	0.042429
691.468000	-0.219427
691.663000	-0.226727
691.858000	-0.052165
692.053000	-0.134071
692.248000	-0.037112
692.443000	-0.028480
692.639000	-0.164751
692.834000	-0.022108
693.029000	0.522117
693.224000	0.437454
693.419000	-0.209771
693.614000	-0.380575
693.809000	-0.531709
694.004000	-0.591854
694.199000	-0.523814
694.394000	-0.261917
694.589000	-0.563542
694.784000	-0.544297
694.979000	-0.216229
695.174000	-0.243267
695.370000	0.222140
695.565000	-0.060089
695.760000	-0.394568
695.955000	0.032849
696.150000	0.132770
696.345000	-0.330316
696.540000	-0.161205
696.740000	-0.301658
696.940000	-0.091995
697.140000	0.024239
697.340000	-0.196051
697.539000	-0.036442
697.739000	-0.202984
697.939000	-0.164842
698.139000	-0.514427
698.339000	-0.873871
698.539000	-0.631396
698.739000	-0.601347
698.939000	-0.430890
699.138000	-0.516007
699.338000	0.176872
699.538000	0.246008
699.738000	-0.268244
699.938000	-0.415074
700.138000	-0.461669
700.338000	-0.529737
700.538000	-0.256530
700.737000	-0.272589
700.937000	-0.708653
701.137000	-0.684411
701.337000	-0.039815
701.537000	-0.051502
701.737000	-0.320209
701.937000	-0.353445
702.137000	-0.274503
702.337000	-0.395929
702.536000	-0.564569
702.736000	-0.604923
702.936000	-0.710993
703.136000	-0.159872
703.336000	-0.185616
703.536000	-0.381192
703.736000	-0.679147
703.936000	-0.602488
704.135000	-0.588084
704.335000	-0.165464
704.535000	-0.444805
704.735000	-0.703143
704.935000	-0.120877
705.135000	-0.147561
705.335000	-0.386084
705.535000	-0.212462
705.735000	-0.143363
705.934000	-0.181373
706.134000	-0.400489
706.334000	-0.453946
706.534000	-0.562154
706.734000	-0.462136
706.934000	-0.569745
707.134000	-0.615350
707.334000	-0.388889
707.533000	-0.295928
707.733000	-0.317316
707.933000	-0.488224
708.133000	-0.168464
708.333000	-0.096972
708.533000	-0.355740
708.733000	-0.048810
708.933000	-0.281028
709.132000	-0.414849
709.332000	-0.388851
709.532000	-0.457823
709.732000	-0.260399
709.932000	-0.743134
710.132000	-0.779169
710.332000	-0.936909
710.532000	-0.316974
710.732000	-0.103018
710.931000	-0.396255
711.131000	-0.483643
711.331000	-0.353930
711.531000	-0.529091
711.731000	-0.441691
711.931000	-0.338731
712.131000	-0.397507
712.331000	-0.222497
712.530000	-0.310921
712.730000	-0.504415
712.930000	-0.331390
713.130000	-0.315205
713.330000	-0.474385
713.530000	-0.324227
713.730000	0.293482
713.930000	-0.050310
714.129000	-0.475700
714.329000	-0.656935
714.529000	-0.369619
714.729000	-0.037988
714.929000	-0.112967
715.129000	-0.456122
715.329000	-0.388890
715.529000	-0.385451
715.729000	0.270715
715.928000	-0.018127
716.128000	-0.330511
716.328000	-0.268327
716.528000	-0.359695
716.728000	-0.253517
716.928000	-0.476214
717.128000	-0.325117
717.328000	-0.309850
717.527000	-0.493011
717.727000	-0.450292
717.927000	-0.314077
718.127000	-0.332112
718.327000	-0.846350
718.527000	-0.776964
718.727000	-0.363532
718.927000	-0.471758
719.127000	-0.707654
719.326000	-0.533197
719.526000	-0.072352
719.726000	-0.149637
719.926000	-0.692139
720.126000	-0.681927
720.326000	-0.444399
720.526000	-0.503849
720.726000	-0.425113
720.925000	-0.205179
721.125000	-0.632379
721.325000	-0.387486
721.525000	-0.344167
721.725000	-0.518651
721.925000	-0.548833
722.125000	-0.541044
722.325000	-0.039686
722.524000	-0.354071
722.724000	-0.810760
722.924000	-0.876259
723.124000	-0.643703
723.324000	-0.197619
723.524000	-0.139932
723.724000	-0.719248
723.924000	-0.547447
724.124000	-0.344123
724.323000	-0.093155
724.523000	-0.172399
724.723000	0.243255
724.923000	-0.024386
725.123000	-0.064213
725.323000	0.012759
725.523000	-0.210928
725.723000	-0.535280
725.922000	-0.565181
726.122000	-0.360501
726.322000	-0.524565
726.522000	-0.557193
726.722000	0.178567
726.922000	-0.208898
727.122000	-0.308809
727.322000	0.015567
727.521000	-0.226552
727.721000	-0.472095
727.921000	-0.404749
728.121000	-0.431588
728.321000	-0.740071
728.521000	-0.506550
728.721000	-0.333937
728.921000	0.021135
729.121000	0.751246
729.320000	0.089119
729.520000	-0.416289
729.720000	-0.602056
729.920000	-0.492799
730.120000	-0.289692
730.320000	-0.271260
730.520000	-0.624264
730.720000	-0.568602
730.919000	-0.497159
731.119000	-0.217699
731.319000	-0.716387
731.519000	-0.790616
731.719000	-0.344917
731.919000	-0.543563
732.119000	-1.052483
732.319000	-1.050248
732.519000	-0.427307
732.718000	-0.699793
732.918000	-0.622635
733.118000	-0.437655
733.318000	-0.162499
733.518000	-0.433365
733.718000	-0.959651
733.918000	-0.946222
734.118000	-0.710957
734.317000	-0.374057
734.517000	-0.586669
734.717000	-0.550045
734.917000	-0.011862
735.117000	-0.113655
735.317000	-0.240819
735.517000	0.186491
735.717000	0.422978
735.916000	-0.441237
736.116000	-0.562997
736.316000	-0.414993
736.516000	-0.400577
736.716000	-0.437942
736.916000	-0.873142
737.116000	-0.620694
737.316000	0.010958
737.516000	-0.087263
737.715000	-0.116232
737.915000	-0.700601
738.115000	-0.766666
738.315000	-0.459411
738.515000	-0.738050
738.715000	-0.514588
738.915000	0.002340
739.115000	-0.492696
739.314000	-0.556637
739.514000	-0.035833
739.714000	0.075968
739.914000	-0.118715
740.114000	-0.388175
740.314000	-0.201930
740.514000	0.224776
740.714000	-0.542123
740.913000	-0.897506
741.113000	-0.758643
741.313000	-0.352761
741.513000	-0.416603
741.713000	-0.360705
741.913000	-0.314169
742.113000	-0.382932
742.313000	-0.938859
742.513000	-0.646823
742.712000	-0.430794
742.912000	-0.736967
743.112000	-0.657364
743.312000	-0.938651
743.512000	-0.604998
743.712000	-0.398706
743.912000	-1.040395
744.112000	-1.212934
744.311000	-1.200825
744.511000	-0.737460
744.711000	-0.269510
744.911000	-0.659883
745.111000	-0.651406
745.311000	-0.158973
745.511000	-0.507427
745.711000	-0.694635
745.911000	-0.424427
746.110000	-0.789399
746.310000	-0.922638
746.510000	-0.729757
746.710000	-0.198680
746.910000	-0.170539
747.110000	-0.766454
747.310000	-1.039300
747.510000	-0.811916
747.709000	-0.473209
747.909000	-0.493501
748.109000	-0.179307
748.309000	-0.400269
748.509000	-0.708294
748.709000	-0.858759
748.909000	-0.627163
749.109000	-0.626674
749.308000	0.009045
749.508000	-0.311888
749.708000	-0.516313
749.908000	-0.227721
750.108000	-0.251173
750.308000	-0.901762
750.508000	-0.125038
750.708000	-0.658796
750.908000	-1.060553
751.107000	-0.359435
751.307000	0.219614
751.507000	-0.340721
751.707000	-0.307314
751.907000	-0.479954
752.107000	-0.335645
752.307000	-0.842602
752.507000	-0.647953
752.706000	-0.640844
752.906000	0.316759
753.106000	-0.527081
753.306000	-1.103809
753.506000	-0.111963
753.706000	-0.483890
753.906000	-0.284566
754.106000	-0.136042
754.305000	-0.261593
754.505000	-0.163754
754.705000	-0.345694
754.905000	-0.400942
755.105000	-0.141154
755.305000	-0.961325
755.505000	-0.836787
755.705000	-0.314187
755.905000	-0.370418
756.104000	-0.903328
756.304000	-1.321875
756.504000	-1.599111
756.704000	-0.486207
756.904000	-0.245060
757.104000	-0.523590
757.304000	-0.503155
757.504000	-0.007723
757.703000	-0.442958
757.903000	-0.049962
758.103000	0.235513
758.303000	-0.248196
758.503000	-0.553711
758.703000	-0.686470
758.903000	-0.828966
759.103000	-0.360735
759.303000	-0.380375
759.502000	-0.582784
759.702000	-0.176708
759.902000	-0.513336
760.102000	-0.586938
760.302000	-0.585283
760.502000	-0.243261
760.702000	-0.214609
760.902000	-0.505691
761.101000	-0.962555
761.301000	-1.117529
761.501000	-0.745502
761.701000	-0.940884
761.901000	-0.743536
762.101000	-0.229213
762.301000	-0.358196
762.501000	-0.856394
762.700000	-0.934441
762.900000	-0.931068
763.100000	-0.568480
763.300000	-0.276459
763.500000	-0.586286
763.703000	-0.762747
763.905000	-1.041758
764.108000	-0.236652
764.311000	-0.584969
764.513000	-0.626920
764.716000	-0.339577
764.919000	-0.449354
765.121000	-0.977498
765.324000	-1.093912
765.527000	-0.959048
765.729000	-0.879164
765.932000	0.014474
766.135000	-0.019800
766.337000	-0.484590
766.540000	-0.619959
766.743000	-0.358876
766.945000	-0.926925
767.148000	-1.318042
767.351000	-1.125301
767.553000	-0.302286
767.756000	-0.654746
767.958000	-1.088037
768.161000	-0.744318
768.364000	-1.061896
768.566000	-1.227827
768.769000	-0.610490
768.972000	-0.348580
769.174000	-0.745536
769.377000	-1.262627
769.580000	-1.292894
769.782000	-0.532136
769.985000	-1.039243
770.188000	-1.940153
770.390000	-1.015048
770.593000	0.567273
770.796000	0.134370
770.998000	-0.414485
771.201000	-0.880811
771.404000	-0.511209
771.606000	-0.777463
771.809000	-0.601117
772.012000	-0.453912
772.214000	-1.389292
772.417000	-1.453657
772.620000	-0.352888
772.822000	-0.682215
773.025000	-0.904140
773.228000	-0.982594
773.430000	-0.858774
773.633000	-0.588739
773.836000	-0.540821
774.038000	-0.420598
774.241000	-0.579388
774.444000	-0.760995
774.646000	0.154363
774.849000	-0.242299
775.052000	-0.426407
775.254000	-0.250940
775.457000	-0.672660
775.659000	-0.744081
775.862000	-0.789438
776.065000	-0.560346
776.267000	-0.037915
776.470000	0.255829
776.673000	-0.435790
776.875000	0.082262
777.078000	-0.013274
777.281000	-0.958505
777.483000	-0.268167
777.686000	-0.138938
777.889000	-0.260579
778.091000	0.003363
778.294000	-1.079678
778.497000	-1.123098
778.699000	-0.884221
778.902000	-0.777496
779.105000	-0.562267
779.307000	0.257017
779.510000	-0.856661
779.713000	-0.519739
779.915000	-0.700679
780.118000	0.379301
780.321000	0.435363
780.523000	-0.442376
780.726000	-0.832803
780.929000	-1.051131
781.131000	-1.069932
781.334000	-1.517774
781.537000	-1.491770
781.739000	-0.511264
781.942000	-0.992186
782.145000	-1.536878
782.347000	-1.398519
782.550000	-0.946305
782.753000	-1.093664
782.955000	-0.969528
783.158000	-0.881347
783.361000	-0.655177
783.563000	-0.712381
783.766000	-0.833119
783.968000	1.000220
784.171000	0.805442
784.374000	-0.537010
784.576000	-0.621010
784.779000	-0.173361
784.982000	0.105862
785.184000	-0.604628
785.387000	-0.220363
785.590000	0.469141
785.792000	0.336114
785.995000	0.035103
786.198000	-0.091056
786.400000	-0.526008
786.603000	-0.672567
786.806000	-0.679538
787.008000	-0.340188
787.211000	-0.377736
787.414000	-1.039596
787.616000	-0.764581
787.819000	-0.697628
788.022000	-1.354914
788.224000	-0.704909
788.427000	-1.363657
788.630000	-0.851003
788.832000	-0.559336
789.035000	-1.115970
789.238000	-1.639391
789.440000	-1.299797
789.643000	-0.107782
789.846000	-0.737057
790.048000	-0.467965
790.251000	-0.257863
790.454000	-0.565045
790.656000	0.233028
790.859000	-0.596583
791.062000	-1.015790
791.264000	-0.287304
791.467000	-1.273822
791.669000	-1.747809
791.872000	-0.693696
792.075000	-1.176310
792.277000	-0.816251
792.480000	-0.701540
792.683000	-1.212934
792.885000	-1.333045
793.088000	-1.118287
793.291000	-1.494460
793.493000	-1.549935
793.696000	-0.586251
793.899000	-0.347332
794.101000	-0.656737
794.304000	-0.779040
794.507000	-0.605958
794.709000	-0.428066
794.912000	-0.882966
795.115000	-1.128778
795.317000	-0.835613
795.520000	-0.667687
795.723000	-0.886948
795.925000	-1.336803
796.128000	-1.684612
796.331000	-1.127096
796.533000	-1.496138
796.736000	-0.866766
796.939000	-0.669336
797.141000	-0.856130
797.344000	-0.181200
797.547000	-0.081125
797.749000	-0.221659
797.952000	-0.817545
798.155000	-1.213078
798.357000	-1.529020
798.560000	-1.288331
798.763000	-0.509312
798.965000	-0.767815
799.168000	-0.642731
799.371000	-0.403833
799.573000	-0.758178
799.776000	-1.696928
799.978000	-1.677112
800.181000	-0.876735
800.384000	0.643864
800.586000	0.045507
800.789000	-1.489724
800.992000	-1.375073
801.194000	-1.466118
801.397000	-1.589286
801.600000	-1.443688
801.802000	-0.136656
802.005000	-0.267903
802.208000	-1.706465
802.410000	-0.756031
802.613000	-0.517129
802.816000	-0.665354
803.018000	-1.364911
803.221000	-1.187391
803.424000	0.216531
803.626000	-0.160524
803.829000	-0.779585
804.032000	0.228826
804.234000	1.025126
804.437000	-0.725727
804.640000	-0.928924
804.842000	-0.866542
805.045000	-1.249014
805.248000	-1.034855
805.450000	-0.990588
805.653000	-0.964219
805.856000	-1.115360
806.058000	-0.017447
806.261000	-1.028517
806.464000	-1.089721
806.666000	-0.527095
806.869000	-0.910957
807.072000	-2.272736
807.274000	-2.445264
807.477000	-1.201628
807.679000	-0.842725
807.882000	-1.449578
808.085000	-1.140886
808.287000	-0.437344
808.490000	-1.357133
808.693000	-1.189871
808.895000	-0.848778
809.098000	-0.860421
809.301000	-0.767502
809.503000	-0.951937
809.706000	-0.029590
809.909000	0.197995
810.111000	0.004558
810.314000	-0.555060
810.517000	-1.202134
810.719000	-1.357732
810.922000	-0.972602
811.125000	0.061948
811.327000	0.131526
811.530000	-0.522398
811.735000	-0.909057
811.940000	-1.195083
812.146000	-1.048788
812.351000	-0.391143
812.556000	-0.725238
812.761000	-1.371898
812.967000	-0.360044
813.172000	-0.253881
813.377000	-0.602478
813.582000	-0.042625
813.788000	-0.507875
813.993000	-1.523370
814.198000	-0.697556
814.403000	-1.387199
814.609000	-0.575850
814.814000	-0.590473
815.019000	0.382926
815.224000	0.154771
815.429000	-0.973444
815.635000	-0.546405
815.840000	-0.565191
816.045000	-0.549490
816.250000	-0.172069
816.456000	-1.535377
816.661000	-2.408189
816.866000	-1.921186
817.071000	-1.710882
817.277000	-2.396570
817.482000	-1.501684
817.687000	-0.819143
817.892000	-0.805086
818.097000	-0.376288
818.303000	0.042504
818.508000	0.597635
818.713000	7.523070
818.918000	3.939010
819.124000	0.256242
819.329000	-1.041934
819.534000	-1.133602
819.739000	-1.253898
819.945000	-1.253457
820.150000	-0.992100
820.355000	-0.801884
820.560000	-0.339820
820.766000	-0.462365
820.971000	-0.600291
821.176000	-2.170686
821.381000	-2.582887
821.586000	-1.568607
821.792000	-0.079290
821.997000	-0.710369
822.202000	-0.938974
822.407000	-1.510049
822.613000	-1.617941
822.818000	-1.025009
823.023000	-0.612339
823.228000	-1.059337
823.434000	-0.338296
823.639000	0.250294
823.844000	-0.824560
824.049000	-0.127562
824.255000	0.078652
824.460000	-0.798222
824.665000	-1.315680
824.870000	-0.082088
825.075000	-0.163036
825.281000	-0.156770
825.486000	0.793938
825.691000	-1.594362
825.896000	-2.811623
826.102000	-0.977377
826.307000	-0.856603
826.512000	-1.100167
826.717000	-0.903790
826.923000	-0.982362
827.128000	-0.735271
827.333000	-1.736477
827.538000	-0.812738
827.744000	-0.092549
827.949000	-1.289034
828.154000	-0.907806
828.359000	0.040732
828.564000	-0.544884
828.770000	-0.788104
828.975000	0.232989
829.180000	-0.451206
829.385000	-1.942589
829.591000	-1.492094
829.796000	-0.937759
830.001000	-0.975631
830.206000	-1.442007
830.412000	-1.303135
830.617000	-1.364275
830.822000	-0.110736
831.027000	-0.728356
831.232000	-1.310511
831.438000	-1.356591
831.643000	-0.848349
831.848000	-1.005455
832.053000	-0.964831
832.259000	-1.121836
832.464000	-2.717227
832.669000	-2.196871
832.874000	-1.760903
833.080000	-1.881009
833.285000	-0.196507
833.490000	-0.316735
833.695000	-1.754272
833.901000	-1.428542
834.106000	-1.795623
834.311000	-1.438242
834.516000	-0.644451
834.721000	-1.379300
834.927000	-0.256596
835.132000	-0.559113
835.337000	0.898085
835.542000	-0.391640
835.748000	-1.955962
835.953000	-0.314098
836.158000	-0.307036
836.363000	-0.544189
836.569000	-0.453308
836.774000	-1.605244
836.979000	-1.972828
837.184000	-2.184781
837.390000	-2.029121
837.595000	-1.274199
837.800000	-1.068549
838.005000	-0.841027
838.210000	-1.019037
838.416000	-1.630940
838.621000	-1.245190
838.826000	-1.561222
839.031000	-1.544744
839.237000	-1.918216
839.442000	-2.522714
839.647000	-2.642344
839.852000	-1.835805
840.058000	-1.718062
840.263000	-1.509855
840.468000	-2.287080
840.673000	-1.328008
840.878000	-1.153919
841.084000	-1.891543
841.289000	-1.037409
841.494000	1.499128
841.699000	1.325435
841.905000	0.305362
842.110000	0.538557
842.315000	-1.514265
842.520000	-1.117817
842.726000	-1.628237
842.931000	-2.022467
843.136000	-0.989100
843.341000	-2.575831
843.547000	-1.438537
843.752000	-1.379159
843.957000	-2.427581
844.162000	-2.015218
844.367000	-1.373548
844.573000	-0.766170
844.778000	-0.631174
844.983000	-0.623836
845.188000	-0.421596
845.394000	-2.065734
845.599000	-1.602139
845.804000	-1.237729
846.009000	-0.601341
846.215000	-1.872613
846.420000	-1.594004
846.625000	-0.846417
846.830000	-0.230510
847.036000	-1.251887
847.241000	-1.940254
847.446000	-0.204893
847.651000	-0.798922
847.856000	-2.171578
848.062000	-2.159259
848.267000	-0.255209
848.472000	-1.451831
848.677000	-2.938207
848.883000	-1.217281
849.088000	0.654776
849.293000	-0.823608
849.498000	-1.433274
849.704000	-0.432526
849.909000	-1.239541
850.114000	-2.227791
850.319000	-0.925034
850.524000	-0.814098
850.730000	-0.847887
850.935000	-1.300368
851.140000	-0.324970
851.345000	-0.354285
851.551000	-0.541861
851.756000	-0.228964
851.961000	-1.446707
852.166000	-1.586065
852.372000	-1.222908
852.577000	-1.081863
852.782000	-1.452752
852.987000	-0.052239
853.193000	-0.576696
853.398000	-0.697890
853.603000	-1.912366
853.808000	-2.671840
854.013000	-1.416676
854.219000	-0.012235
854.424000	1.420663
854.629000	1.126319
854.834000	-1.210254
855.040000	-0.978978
855.245000	-0.323164
855.450000	-2.583550
855.655000	-3.695654
855.861000	-3.228396
856.066000	-2.380962
856.271000	-2.426967
856.476000	-0.499337
856.682000	-1.446430
856.887000	-4.076574
857.092000	-2.522093
857.297000	-0.044837
857.502000	-0.654630
857.708000	-1.320386
857.913000	-0.173923
858.118000	-0.706441
858.323000	-1.056255
858.529000	-1.130571
858.734000	-1.438274
858.939000	-1.333398
859.144000	-2.016719
859.350000	-3.013460
859.555000	-2.924024
859.760000	-1.029320
859.965000	-0.101577
860.171000	-1.820770
860.376000	-0.614653
860.581000	-2.570142
860.786000	-4.834492
860.991000	-3.797077
861.197000	-2.736910
861.402000	-1.142144
861.607000	-1.888226
861.812000	-3.121269
862.018000	-2.973847
862.223000	-1.918618
862.428000	-1.012008
862.633000	-0.002296
862.839000	-0.522114
863.044000	-1.435005
863.249000	-2.337173
863.454000	-0.758126
863.659000	-1.786772
863.865000	-2.405146
864.070000	-2.246931
864.275000	-2.839260
864.480000	-2.532969
864.686000	-4.132764
864.891000	-3.150264
865.096000	-0.825788
865.301000	-0.863199
865.507000	-0.844226
865.712000	-0.242909
865.917000	-1.309492
866.122000	-0.342219
866.328000	-3.492852
866.533000	-3.380653
866.738000	-0.002442
866.943000	-0.296136
867.148000	0.391324
867.354000	-2.222508
867.559000	-3.600214
867.764000	-2.109350
867.969000	-1.192840
868.175000	-2.200305
868.380000	-2.746870
868.585000	-3.804451
868.790000	-1.324570
868.996000	-1.345999
869.201000	-3.065024
869.406000	-4.111982
869.611000	-3.363765
869.817000	-2.670660
870.022000	1.893967
870.227000	-0.593479
870.432000	-2.661856
870.637000	-0.984798
870.843000	-1.731461
871.048000	-1.927375
871.253000	-0.015615
871.458000	-1.179708
871.664000	-3.306282
871.869000	-3.590611
872.074000	-2.924168
872.279000	-1.860903
872.485000	-2.447321
872.690000	-2.229849
872.895000	-2.589340
873.100000	-3.293778
873.306000	-3.253601
873.511000	-1.803176
873.716000	-0.358145
873.921000	-2.306869
874.126000	-2.979669
874.332000	-1.960970
874.537000	-0.723411
874.742000	-0.679635
874.947000	-1.376133
875.153000	0.137224
875.358000	-1.069488
875.563000	-1.601343
875.768000	-4.170825
875.974000	-4.937330
876.179000	-1.291989
876.384000	-0.743087
876.589000	-2.559732
876.794000	-2.073701
877.000000	-3.082892
877.205000	-4.243307
877.410000	-1.534072
877.615000	-2.915864
877.821000	-5.051270
878.026000	-3.598180
878.231000	-3.684678
878.436000	-3.822056
878.642000	-3.393472
878.847000	-2.062387
879.052000	-0.840231
879.257000	-2.921924
879.463000	-4.187147
879.668000	-3.268213
879.873000	-0.658628
880.078000	-3.199633
880.283000	-4.786646
880.489000	-4.936497
880.694000	-4.460947
880.899000	-2.263991
881.104000	-1.039082
881.310000	0.789195
881.515000	-0.566107
881.720000	0.546112
881.925000	2.021885
882.131000	3.540822
882.336000	0.197882
882.541000	-3.462126
882.746000	-3.322624
882.952000	-3.975632
883.157000	-3.671860
883.362000	-3.630394
883.567000	-4.370924
883.772000	-4.013644
883.978000	-3.269236
884.183000	-1.520168
884.388000	-1.883024
884.593000	-4.274374
884.799000	0.413021
885.004000	-0.068186
885.209000	-1.854796
885.414000	-1.249558
885.620000	-3.801873
885.825000	-1.234800
886.030000	-1.855134
886.235000	-3.202118
886.440000	-2.547113
886.646000	-5.191220
886.851000	-5.032912
887.056000	-0.390199
887.261000	-0.878650
887.467000	-4.211701
887.672000	-1.739041
887.877000	-2.534642
888.082000	-5.090044
888.288000	-5.739221
888.493000	-7.868393
888.698000	-6.115972
888.903000	-2.885291
889.109000	-3.988077
889.314000	-0.800842
889.519000	-2.231070
889.724000	0.117594
889.929000	-1.440473
890.135000	-2.121386
890.340000	-2.014791
890.545000	-3.359951
890.750000	-4.944182
890.956000	-3.782885
891.161000	-0.986482
891.366000	-2.855155
891.571000	-2.138452
891.777000	-2.687921
891.982000	-0.677925
892.187000	-0.805590
892.392000	-0.288042
892.598000	-0.414860
892.803000	-0.833447
893.008000	-3.662089
893.213000	-3.886085
893.418000	-3.623856
893.624000	-3.933110
893.829000	-6.573793
894.034000	-3.487233
894.239000	-1.506594
894.445000	-4.373997
894.650000	-4.561446
894.855000	-4.162312
895.060000	-4.357439
895.266000	-4.200405
895.471000	-5.127815
895.676000	-1.692964
895.881000	-1.014786
896.087000	-3.074908
896.292000	-3.980787
896.497000	0.318208
896.702000	-1.984604
896.907000	-4.047131
897.113000	0.735802
897.318000	0.943928
897.523000	-0.041810
897.728000	-2.426658
897.934000	-2.989318
898.139000	-3.131040
898.344000	-0.504288
898.549000	-1.436310
898.755000	-3.299272
898.960000	-3.943786
899.165000	-5.916387
899.370000	-2.179026
899.575000	1.587362
899.781000	-2.781830
899.986000	-3.707987
900.191000	-2.363524
900.396000	-3.061062
900.602000	-2.240681
900.807000	-2.960421
901.012000	-2.372426
901.217000	-0.612842
901.423000	-3.704896
901.628000	-5.117373
901.833000	-0.024470
902.038000	-0.456221
902.244000	-4.123412
902.449000	-3.261258
902.654000	-3.003982
902.859000	-2.415017
903.064000	-0.505366
903.270000	-0.339520
903.475000	-4.513620
903.680000	-6.541424
903.885000	-5.495344
904.091000	-5.099054
904.296000	-6.632529
904.501000	-5.289419
904.706000	-4.147266
904.912000	0.060754
905.117000	-2.074297
905.322000	-4.924715
905.527000	-4.858149
905.733000	-4.029968
905.938000	-3.438765
906.143000	-4.037080
906.348000	-5.801827
906.553000	-1.351942
906.759000	-0.296254
906.964000	-1.515688
907.169000	-3.361462
907.374000	-6.477064
907.580000	-4.736919
907.785000	-4.031657
907.990000	20.771148
908.195000	13.836855
908.401000	-0.870229
908.606000	-8.872422
908.811000	-10.273510
909.016000	-2.914640
909.221000	-2.382411
909.427000	-3.840190
909.632000	-5.951774
909.837000	-4.911003
910.042000	-6.275928
910.248000	-8.149281
910.453000	-3.926203
910.658000	-4.937804
910.863000	-5.373948
911.069000	-6.943679
911.274000	-1.963068
911.479000	-0.204498
911.684000	-7.380317
911.890000	-4.371964
912.095000	-4.226584
912.300000	-6.838090
912.506000	-5.854177
912.711000	-4.952945
912.917000	-2.725012
913.123000	-2.265168
913.328000	-3.080230
913.534000	-2.560850
913.740000	6.875083
913.946000	2.765902
914.151000	-4.981727
914.357000	-6.362873
914.563000	-1.854361
914.768000	-5.542872
914.974000	-7.538664
915.180000	-6.416676
915.385000	-5.215006
915.591000	-8.343252
915.797000	-3.263201
916.002000	0.800356
916.208000	-2.855039
916.414000	-5.879071
916.620000	-7.012795
916.825000	-3.632659
917.031000	-3.354046
917.237000	-9.186513
917.442000	-6.059125
917.648000	-6.883682
917.854000	-7.713146
918.059000	-1.859021
918.265000	-0.699875
918.471000	-4.104246
918.676000	-7.350218
918.882000	-9.527857
919.088000	-7.945529
919.294000	-12.544514
919.499000	-8.032049
919.705000	-1.305665
919.911000	-3.179398
920.116000	-1.959700
920.322000	-7.823064
920.528000	-6.200713
920.733000	-8.599684
920.939000	-8.509637
921.145000	-7.300714
921.350000	-6.982124
921.556000	-5.057479
921.762000	-5.427447
921.968000	-6.338364
922.173000	-8.409052
922.379000	-10.953598
922.585000	-5.567654
922.790000	-6.429551
922.996000	-7.338295
923.202000	-8.596850
923.407000	-8.919735
923.613000	-6.877296
923.819000	-4.503784
924.024000	-4.711214
924.230000	-2.813453
924.436000	-5.485550
924.642000	4.816492
924.847000	1.176585
925.053000	-6.579200
925.259000	-10.662234
925.464000	-4.493208
925.670000	-5.855350
925.876000	-7.763026
926.081000	-9.015228
926.287000	-4.467388
926.493000	-2.258569
926.698000	-4.226421
926.904000	-3.152184
927.110000	-5.753052
927.316000	-5.266052
927.521000	1.431382
927.727000	-4.875470
927.933000	-6.664214
928.138000	-6.126783
928.344000	-11.814993
928.550000	-7.661250
928.755000	-1.904406
928.961000	-6.729458
929.167000	-6.770482
929.372000	0.616522
929.578000	-1.504302
929.784000	-7.505160
929.990000	-10.448768
930.195000	-6.920350
930.401000	-6.046033
930.607000	-4.688699
930.812000	-4.490057
931.018000	-7.536283
931.224000	-13.151649
931.429000	-9.129360
931.635000	-12.808312
931.841000	-12.807729
932.046000	-8.300898
932.252000	-3.478987
932.458000	3.493350
932.664000	-1.606545
932.869000	-7.703916
933.075000	-10.977325
933.281000	-10.206496
933.486000	-1.932262
933.692000	-4.996206
933.898000	-10.669252
934.103000	-4.041735
934.309000	-7.457580
934.515000	-3.630211
934.720000	-2.604614
934.926000	0.133226
935.132000	-0.057143
935.338000	-4.101102
935.543000	-12.313806
935.749000	-13.365691
935.955000	-14.120332
936.160000	-12.981742
936.366000	-4.042617
936.572000	-6.126888
936.777000	-3.734590
936.983000	-1.692924
937.189000	-5.839227
937.394000	-11.019994
937.600000	-1.683334
937.806000	3.086852
938.012000	-6.690739
938.217000	3.548256
938.423000	0.772966
938.629000	-8.918404
938.834000	-16.373455
939.040000	-15.978505
939.246000	-10.072574
939.451000	-13.226821
939.657000	-7.125616
939.863000	-10.982641
940.068000	-3.563953
940.274000	-8.316179
940.480000	-5.847176
940.686000	-4.077728
940.891000	-8.260508
941.097000	17.515169
941.303000	4.859812
941.508000	-9.241830
941.714000	-4.364469
941.920000	-14.924736
942.125000	-6.073233
942.331000	-3.810171
942.537000	2.996113
942.742000	1.770996
942.948000	-9.993033
943.154000	-14.403580
943.360000	-25.656416
943.565000	-10.596666
943.771000	0.802991
943.977000	4.785026
944.182000	-13.574835
944.388000	-16.547538
944.594000	-2.691801
944.799000	6.298340
945.005000	-3.219208
945.211000	0.944002
945.416000	-2.931268
945.622000	-16.378770
945.828000	-12.472925
946.034000	-2.661281
946.239000	-1.597050
946.445000	-9.434449
946.651000	-21.092513
946.856000	-19.450094
947.062000	-3.915194
947.268000	-0.371409
947.473000	-15.719910
947.679000	-19.495352
947.885000	-4.284633
948.090000	-0.087384
948.296000	11.463223
948.502000	-1.182365
948.708000	-11.794361
948.913000	-15.212326
949.119000	-2.397930
949.325000	-7.764684
949.530000	-21.862737
949.736000	-26.914800
949.942000	-16.002749
950.147000	-15.149977
950.353000	-13.247183
950.559000	-9.705143
950.764000	13.050988
950.970000	7.126256
951.176000	-9.748809
951.382000	-16.973235
951.587000	-4.080989
951.793000	1.243407
951.999000	0.527529
952.204000	-13.646165
952.410000	-26.334861
952.616000	-12.648940
952.821000	-7.381207
953.027000	-15.316216
953.233000	-17.726229
953.438000	-19.526254
953.644000	-1.289527
953.850000	-5.193414
954.056000	-10.400138
954.261000	-12.489688
954.467000	-2.289458
954.673000	4.925810
954.878000	-6.113384
955.084000	-7.586055
955.290000	-23.062405
955.495000	-24.031401
955.701000	-17.509505
955.907000	1.731414
956.112000	-2.014640
956.318000	4.356491
956.524000	3.655541
956.730000	-11.885114
956.935000	-16.682694
957.141000	-19.525140
957.347000	-5.158823
957.552000	-7.892794
957.758000	-23.660380
957.964000	-34.631002
958.169000	0.243470
958.375000	1.814240
958.581000	-14.479637
958.786000	-28.883563
958.992000	-33.197502
959.198000	-12.562759
959.404000	-5.196555
959.609000	-11.596025
959.815000	-16.782362
960.021000	0.618269
960.226000	-7.631676
960.432000	-30.266699
960.638000	-20.168494
960.843000	-12.942426
961.049000	-16.628258
961.255000	-3.687487
961.460000	-16.220482
961.666000	-35.161185
961.872000	-22.119306
962.078000	-20.113126
962.283000	-29.112858
962.489000	-30.497488
962.695000	-19.749453
962.900000	-14.432559
963.106000	-14.687156
963.312000	-17.670110
963.517000	-20.804493
963.723000	-24.708582
963.929000	-2.851497
964.134000	5.429443
964.340000	-17.470598
964.546000	-19.776039
964.752000	-23.412416
964.957000	-28.416405
965.163000	-3.493481
965.369000	-8.976269
965.574000	-6.484016
965.780000	-10.477946
966.000000	-21.706589
966.220000	-19.448750
966.440000	-14.860137
966.661000	-3.644201
966.881000	-22.923334
967.101000	-40.596083
967.321000	-42.151936
967.541000	-16.531710
967.761000	-20.785382
967.981000	-12.652139
968.202000	-12.835234
968.422000	-1.761502
968.642000	-2.680337
968.862000	-4.741444
969.082000	-18.320825
969.302000	-8.366794
969.522000	-9.067569
969.743000	-1.080249
969.963000	-22.945401
970.183000	-32.462991
970.403000	-27.382992
970.623000	-24.370143
970.843000	-0.644691
971.063000	-2.291242
971.284000	-24.470174
971.504000	-37.177758
971.724000	-15.593871
971.944000	-27.497861
972.164000	-35.763165
972.384000	-28.381300
972.604000	-43.364993
972.825000	-49.583533
973.045000	-33.953358
973.265000	24.557778
973.485000	10.995658
973.705000	-11.248895
973.925000	-19.059560
974.145000	-53.741614
974.365000	-19.093800
974.586000	-17.202124
974.806000	-39.912536
975.026000	-8.218754
975.246000	-16.848428
975.466000	-30.967720
975.686000	-16.474270
975.906000	-28.514968
976.127000	-50.832034
976.347000	-43.010572
976.567000	-11.682510
976.787000	-11.718568
977.007000	-23.456995
977.227000	-28.938386
977.447000	-29.746060
977.668000	-50.854183
977.888000	-38.281862
978.108000	-35.353072
978.328000	-21.652840
978.548000	2.034167
978.768000	7.414176
978.988000	-5.445562
979.209000	-18.215353
979.429000	-17.304265
979.649000	-9.633340
979.869000	-32.602816
980.089000	-46.668216
980.309000	-53.313464
980.529000	-60.852069
980.750000	-33.278944
980.970000	-45.754021
981.190000	-33.296268
981.410000	-33.407224
981.630000	-41.114289
981.850000	-33.359639
982.070000	-24.423341
982.291000	-51.166310
982.511000	-47.137784
982.731000	-13.601665
982.951000	-34.514025
983.171000	-33.203117
983.391000	-32.048583
983.611000	-4.167451
983.832000	-32.176660
984.052000	-57.461369
984.272000	-32.500770
984.492000	-24.303464
984.712000	-34.278090
984.932000	-60.734159
985.152000	-66.441770
985.373000	-45.390503
985.593000	-21.278155
985.813000	-35.948332
986.033000	-41.025680
986.253000	-4.747320
986.473000	2.086764
986.693000	-35.123790
986.914000	-45.939829
987.134000	0.871932
987.354000	-34.128216
987.574000	173.470667
987.794000	101.140658
988.014000	-44.631539
988.234000	-23.609017
988.455000	-14.674237
988.675000	-11.509185
988.895000	-28.668021
989.115000	-50.943054
989.335000	-24.413275
989.555000	-4.357097
989.775000	-50.878527
989.995000	-41.197948
990.216000	-24.021978
990.436000	-26.518201
990.656000	3.787136
990.876000	-37.443311
991.096000	-23.607584
991.316000	6.457427
991.536000	-23.467144
991.757000	-37.169477
991.977000	-81.945506
992.197000	-23.828939
992.417000	-46.107698
992.637000	-89.466807
992.857000	-88.389081
993.077000	-84.819831
993.298000	-50.664478
993.518000	-42.158161
993.738000	-91.642590
993.958000	-50.605498
994.178000	-57.665160
994.398000	-53.263185
994.618000	-95.360134
994.839000	-144.336982
995.059000	-41.152298
995.279000	34.013115
995.499000	-14.281922
995.719000	-16.098252
995.939000	-35.880011
996.159000	-37.245796
996.380000	-26.744338
996.600000	-78.881906
996.820000	-44.123028
997.040000	-2.622980
997.260000	-64.295764
997.480000	-49.754295
997.700000	-108.993080
997.921000	-70.479298
998.141000	18.675302
998.361000	-12.697464
998.581000	-58.650000
998.801000	-87.719782
999.021000	-62.670455
999.241000	-41.014267
999.462000	-74.414034
999.682000	-121.531607
999.902000	-82.499906
1000.122000	-99.817529
1000.342000	-146.888220
1000.562000	-73.050124
1000.782000	-63.856483
1001.003000	-1043.170813
