Wavelength	Irradiance
(nm)	(mW/cm2/nm)

294.396000	0.000000
294.577000	0.000000
294.757000	0.000000
294.938000	-0.000000
295.118000	0.000000
295.299000	0.000000
295.479000	-0.000000
295.660000	-0.000000
295.840000	-0.000000
296.021000	-0.000000
296.202000	-0.000000
296.382000	-0.000000
296.563000	-0.000000
296.743000	-0.000000
296.924000	-0.000000
297.104000	-0.000000
297.285000	-0.000000
297.465000	-0.000000
297.646000	-0.000000
297.826000	-0.000000
298.007000	0.000000
298.187000	0.000000
298.368000	-0.000000
298.548000	0.000000
298.729000	0.000000
298.909000	-0.000000
299.090000	-0.000000
299.270000	-0.000000
299.451000	-0.000000
299.631000	-0.000000
299.812000	-0.000000
299.992000	0.000000
300.173000	0.000000
300.353000	-0.000000
300.534000	0.000000
300.714000	0.000000
300.895000	0.000000
301.075000	-0.000000
301.256000	0.000000
301.436000	0.000000
301.617000	-0.000000
301.797000	-0.000000
301.978000	-0.000000
302.159000	0.000000
302.339000	0.000000
302.520000	-0.000000
302.700000	-0.000000
302.881000	0.000000
303.061000	0.000000
303.242000	0.000000
303.422000	0.000000
303.603000	-0.000000
303.783000	-0.000000
303.964000	0.000000
304.144000	0.000000
304.325000	-0.000000
304.505000	-0.000000
304.686000	0.000000
304.866000	0.000000
305.047000	-0.000000
305.227000	-0.000000
305.408000	-0.000000
305.588000	-0.000000
305.769000	-0.000000
305.949000	-0.000000
306.130000	-0.000000
306.310000	-0.000000
306.491000	-0.000000
306.671000	0.000000
306.852000	-0.000000
307.032000	-0.000000
307.213000	-0.000000
307.393000	-0.000000
307.574000	0.000000
307.755000	0.000000
307.935000	0.000000
308.116000	-0.000000
308.296000	-0.000000
308.477000	-0.000000
308.657000	0.000000
308.838000	0.000000
309.018000	0.000000
309.199000	-0.000000
309.379000	-0.000000
309.560000	0.000000
309.740000	0.000000
309.921000	0.000000
310.101000	0.000000
310.282000	-0.000000
310.462000	-0.000000
310.643000	-0.000000
310.823000	-0.000000
311.004000	-0.000000
311.184000	-0.000000
311.365000	0.000000
311.545000	0.000000
311.726000	0.000000
311.906000	0.000000
312.087000	0.000000
312.267000	-0.000000
312.448000	-0.000000
312.628000	-0.000000
312.809000	-0.000000
312.989000	-0.000000
313.170000	-0.000000
313.344000	-0.000000
313.518000	-0.000000
313.691000	-0.000000
313.865000	-0.000000
314.039000	-0.000000
314.213000	-0.000000
314.387000	-0.000000
314.560000	-0.000000
314.734000	-0.000000
314.908000	-0.000000
315.082000	-0.000000
315.255000	0.000000
315.429000	0.000000
315.603000	0.000000
315.777000	-0.000000
315.951000	0.000000
316.124000	-0.000000
316.298000	-0.000000
316.472000	-0.000000
316.646000	-0.000000
316.820000	-0.000000
316.993000	-0.000000
317.167000	-0.000000
317.341000	-0.000000
317.515000	-0.000000
317.688000	-0.000000
317.862000	-0.000000
318.036000	-0.000000
318.210000	-0.000000
318.384000	-0.000000
318.557000	-0.000000
318.731000	-0.000000
318.905000	-0.000000
319.079000	-0.000000
319.253000	-0.000000
319.426000	0.000000
319.600000	0.000000
319.774000	-0.000000
319.948000	-0.000000
320.122000	0.000000
320.295000	0.000000
320.469000	-0.000000
320.643000	-0.000000
320.817000	-0.000000
320.990000	-0.000000
321.164000	-0.000000
321.338000	-0.000000
321.512000	-0.000000
321.686000	-0.000000
321.859000	-0.000000
322.033000	-0.000000
322.207000	-0.000000
322.381000	-0.000000
322.555000	0.000000
322.728000	0.000000
322.902000	-0.000000
323.076000	-0.000000
323.250000	-0.000000
323.423000	-0.000000
323.597000	-0.000000
323.771000	-0.000000
323.945000	-0.000000
324.119000	-0.000000
324.292000	0.000000
324.466000	-0.000000
324.640000	0.000000
324.814000	0.000000
324.988000	-0.000000
325.161000	-0.000000
325.335000	-0.000000
325.509000	-0.000000
325.683000	-0.000000
325.856000	-0.000000
326.030000	-0.000000
326.204000	-0.000000
326.378000	-0.000000
326.552000	-0.000000
326.725000	-0.000000
326.899000	-0.000000
327.073000	-0.000000
327.247000	-0.000000
327.421000	0.000000
327.594000	0.000000
327.768000	-0.000000
327.942000	-0.000000
328.116000	0.000000
328.289000	-0.000000
328.463000	-0.000000
328.637000	0.000000
328.811000	-0.000000
328.985000	-0.000000
329.158000	-0.000000
329.332000	-0.000000
329.506000	-0.000000
329.680000	-0.000000
329.854000	-0.000000
330.027000	-0.000000
330.201000	0.000000
330.375000	0.000000
330.549000	0.000000
330.723000	0.000000
330.896000	-0.000000
331.070000	-0.000000
331.244000	-0.000000
331.418000	-0.000000
331.591000	-0.000000
331.765000	-0.000000
331.939000	-0.000000
332.113000	-0.000000
332.287000	-0.000000
332.460000	0.000000
332.634000	0.000000
332.808000	-0.000000
332.982000	-0.000000
333.156000	-0.000000
333.329000	-0.000000
333.503000	-0.000000
333.677000	-0.000000
333.851000	-0.000000
334.024000	-0.000000
334.198000	-0.000000
334.372000	-0.000000
334.546000	-0.000000
334.720000	-0.000000
334.893000	-0.000000
335.067000	-0.000000
335.241000	0.000000
335.415000	0.000000
335.589000	-0.000000
335.762000	-0.000000
335.936000	-0.000000
336.110000	-0.000000
336.284000	-0.000000
336.458000	-0.000000
336.631000	-0.000000
336.805000	-0.000000
336.979000	-0.000000
337.153000	-0.000000
337.326000	-0.000000
337.500000	-0.000000
337.674000	-0.000000
337.848000	-0.000000
338.022000	-0.000000
338.195000	-0.000000
338.369000	-0.000000
338.543000	-0.000000
338.717000	-0.000000
338.891000	0.000000
339.064000	0.000000
339.238000	-0.000000
339.412000	-0.000000
339.586000	-0.000000
339.759000	-0.000000
339.933000	-0.000000
340.107000	0.000000
340.281000	0.000000
340.455000	-0.000000
340.628000	-0.000000
340.802000	-0.000000
340.976000	-0.000000
341.150000	-0.000000
341.324000	-0.000000
341.497000	-0.000000
341.671000	-0.000000
341.845000	-0.000000
342.019000	-0.000000
342.192000	-0.000000
342.366000	-0.000000
342.540000	-0.000000
342.714000	-0.000000
342.888000	-0.000000
343.061000	0.000000
343.235000	-0.000000
343.409000	-0.000000
343.583000	-0.000000
343.757000	-0.000000
343.930000	-0.000000
344.104000	-0.000000
344.278000	0.000000
344.452000	0.000000
344.626000	-0.000000
344.799000	-0.000000
344.973000	-0.000000
345.147000	-0.000000
345.321000	-0.000000
345.494000	-0.000000
345.668000	0.000000
345.842000	0.000000
346.016000	-0.000000
346.190000	0.000000
346.363000	0.000000
346.537000	-0.000000
346.711000	-0.000000
346.885000	-0.000000
347.059000	-0.000000
347.232000	-0.000000
347.406000	0.000000
347.580000	-0.000000
347.754000	-0.000000
347.927000	0.000000
348.101000	0.000000
348.275000	-0.000000
348.449000	-0.000000
348.623000	-0.000000
348.796000	0.000000
348.970000	0.000000
349.144000	-0.000000
349.318000	-0.000000
349.492000	-0.000000
349.665000	-0.000000
349.839000	-0.000000
350.013000	-0.000000
350.187000	-0.000000
350.361000	-0.000000
350.534000	-0.000000
350.708000	-0.000000
350.882000	-0.000000
351.056000	0.000000
351.229000	-0.000000
351.403000	-0.000000
351.577000	-0.000000
351.751000	-0.000000
351.925000	-0.000000
352.098000	-0.000000
352.272000	-0.000000
352.446000	-0.000000
352.620000	-0.000000
352.794000	-0.000000
352.967000	-0.000000
353.141000	0.000000
353.315000	0.000000
353.489000	-0.000000
353.662000	-0.000000
353.836000	-0.000000
354.010000	-0.000000
354.184000	0.000000
354.358000	-0.000000
354.531000	-0.000000
354.705000	-0.000000
354.879000	-0.000000
355.053000	-0.000000
355.227000	0.000000
355.400000	-0.000000
355.574000	0.000000
355.748000	0.000000
355.922000	-0.000000
356.095000	-0.000000
356.269000	-0.000000
356.443000	-0.000000
356.617000	-0.000000
356.791000	-0.000000
356.964000	-0.000000
357.138000	-0.000000
357.312000	-0.000000
357.486000	-0.000000
357.660000	0.000000
357.833000	-0.000000
358.007000	-0.000000
358.181000	-0.000000
358.355000	-0.000000
358.529000	-0.000000
358.702000	-0.000000
358.876000	-0.000000
359.050000	-0.000000
359.224000	-0.000000
359.397000	0.000000
359.571000	-0.000000
359.745000	-0.000000
359.919000	0.000000
360.093000	-0.003845
360.266000	0.051084
360.440000	0.106527
360.614000	0.137854
360.788000	-0.006851
360.962000	-0.160896
361.135000	0.037803
361.309000	-0.152899
361.483000	-0.319664
361.657000	-0.256754
361.830000	-0.224820
362.004000	-0.031861
362.178000	-0.362041
362.352000	-0.232078
362.526000	-0.088929
362.699000	-0.038632
362.873000	-0.394493
363.047000	-0.453399
363.221000	-0.380552
363.395000	-0.223279
363.568000	-0.240436
363.742000	-0.289865
363.916000	-0.240793
364.090000	-0.259304
364.263000	-0.222214
364.437000	-0.303830
364.611000	0.009011
364.785000	-0.072275
364.959000	-0.289380
365.132000	-0.231055
365.306000	-0.267356
365.480000	-0.084568
365.656000	-0.151148
365.831000	-0.104944
366.007000	-0.075025
366.183000	-0.080581
366.358000	-0.278547
366.534000	-0.183900
366.710000	-0.382555
366.886000	-0.328473
367.061000	-0.091172
367.237000	0.122860
367.413000	-0.056186
367.588000	-0.318085
367.764000	-0.305011
367.940000	-0.306839
368.115000	-0.252471
368.291000	-0.336775
368.467000	-0.295256
368.643000	0.086270
368.818000	-0.216385
368.994000	-0.281223
369.170000	-0.189767
369.345000	-0.210623
369.521000	-0.228967
369.697000	-0.142685
369.872000	-0.309375
370.048000	-0.393604
370.224000	-0.276503
370.399000	-0.438145
370.575000	-0.257379
370.751000	-0.361671
370.927000	-0.393843
371.102000	-0.399357
371.278000	-0.313746
371.454000	-0.262182
371.629000	-0.008306
371.805000	-0.091278
371.981000	0.028110
372.156000	0.220042
372.332000	0.126678
372.508000	0.045853
372.683000	0.045581
372.859000	-0.120366
373.035000	-0.194727
373.211000	0.248181
373.386000	0.064733
373.562000	-0.372754
373.738000	-0.485119
373.913000	-0.610118
374.089000	-0.433662
374.265000	-0.012045
374.440000	-0.041609
374.616000	-0.041519
374.792000	-0.211968
374.968000	0.245924
375.143000	-0.019099
375.319000	-0.293219
375.495000	-0.318052
375.670000	-0.180613
375.846000	-0.066271
376.022000	-0.213333
376.197000	-0.200689
376.373000	-0.382923
376.549000	-0.424287
376.724000	-0.459226
376.900000	-0.341852
377.076000	-0.147104
377.252000	0.103702
377.427000	0.135980
377.603000	-0.207368
377.779000	-0.150513
377.954000	-0.288390
378.130000	-0.151369
378.306000	-0.121070
378.481000	-0.173302
378.657000	-0.214387
378.833000	-0.224501
379.009000	-0.103738
379.184000	-0.011631
379.360000	-0.067428
379.536000	-0.120826
379.711000	-0.151483
379.887000	-0.262169
380.063000	-0.280333
380.238000	-0.320977
380.414000	-0.042996
380.590000	-0.202239
380.765000	-0.261429
380.941000	-0.122818
381.117000	-0.170434
381.293000	-0.173485
381.468000	-0.236353
381.644000	-0.239878
381.820000	-0.146547
381.995000	0.019941
382.171000	0.244991
382.347000	0.192035
382.522000	-0.276835
382.698000	0.033692
382.874000	0.089133
383.050000	-0.315257
383.225000	0.054724
383.401000	0.324176
383.577000	-0.067973
383.752000	-0.242813
383.928000	-0.163005
384.104000	-0.107036
384.279000	-0.220254
384.455000	-0.135015
384.631000	-0.183380
384.806000	-0.346994
384.982000	-0.131926
385.158000	-0.150436
385.334000	-0.001026
385.509000	-0.045691
385.685000	-0.363953
385.861000	-0.241845
386.036000	-0.420926
386.212000	-0.530747
386.388000	-0.291106
386.563000	-0.222428
386.739000	-0.221338
386.915000	-0.480658
387.090000	-0.222758
387.266000	-0.066630
387.442000	-0.007933
387.618000	-0.066041
387.793000	-0.387572
387.969000	-0.549498
388.145000	-0.437857
388.320000	-0.376699
388.496000	-0.333386
388.672000	-0.549255
388.847000	-0.120208
389.023000	-0.096991
389.199000	-0.476464
389.375000	-0.208176
389.550000	-0.327927
389.726000	-0.173333
389.902000	-0.303315
390.077000	-0.158020
390.253000	-0.177742
390.429000	-0.281339
390.604000	-0.099468
390.780000	-0.109107
390.956000	-0.289262
391.131000	-0.352272
391.307000	0.065951
391.483000	-0.104745
391.659000	-0.346825
391.834000	-0.144753
392.010000	-0.288113
392.186000	-0.418752
392.361000	-0.289037
392.537000	-0.375815
392.713000	0.087914
392.888000	0.279302
393.064000	-0.020849
393.240000	-0.175943
393.416000	-0.322493
393.591000	-0.377692
393.767000	-0.501543
393.943000	-0.495248
394.118000	-0.062824
394.294000	0.223478
394.470000	0.067163
394.645000	0.096058
394.821000	0.272280
394.997000	-0.030065
395.172000	-0.045985
395.348000	-0.203956
395.524000	-0.483582
395.700000	-0.289672
395.875000	-0.074376
396.051000	-0.064715
396.227000	-0.174396
396.402000	-0.256041
396.578000	-0.142669
396.754000	-0.350093
396.929000	-0.402738
397.105000	-0.020059
397.281000	-0.058248
397.457000	-0.238979
397.632000	-0.198778
397.808000	-0.389659
397.984000	-0.495387
398.159000	-0.435932
398.335000	-0.257561
398.511000	0.204594
398.686000	-0.092555
398.862000	-0.386858
399.038000	-0.407768
399.213000	-0.159785
399.389000	-0.383714
399.565000	-0.135471
399.741000	0.061566
399.916000	0.014830
400.092000	0.297352
400.268000	-0.103699
400.443000	-0.262497
400.619000	0.134306
400.795000	0.040093
400.970000	-0.159807
401.146000	-0.219851
401.322000	0.065173
401.497000	0.414348
401.673000	0.103409
401.849000	-0.202666
402.025000	-0.041743
402.200000	-0.198129
402.376000	-0.298158
402.552000	0.184410
402.727000	0.058472
402.903000	-0.266160
403.079000	-0.175790
403.254000	0.061564
403.430000	0.098403
403.606000	0.045707
403.782000	-0.035091
403.957000	-0.306132
404.133000	-0.403715
404.309000	-0.219431
404.484000	-0.010264
404.660000	-0.047719
404.841000	-0.128889
405.023000	0.045625
405.204000	-0.019611
405.385000	-0.316783
405.566000	-0.281114
405.748000	-0.189679
405.929000	0.040148
406.110000	0.020936
406.292000	-0.115389
406.473000	-0.056752
406.654000	-0.219746
406.835000	-0.119310
407.017000	-0.165411
407.198000	-0.135947
407.379000	-0.135572
407.560000	-0.114507
407.742000	-0.059708
407.923000	-0.028931
408.104000	-0.307442
408.286000	-0.180137
408.467000	-0.077979
408.648000	-0.285364
408.829000	-0.321330
409.011000	-0.170582
409.192000	-0.381823
409.373000	-0.096796
409.555000	0.060933
409.736000	0.045163
409.917000	-0.105773
410.098000	-0.175529
410.280000	-0.046530
410.461000	-0.016090
410.642000	0.008212
410.823000	0.233187
411.005000	0.227396
411.186000	-0.013098
411.367000	-0.196037
411.549000	-0.177616
411.730000	-0.010051
411.911000	0.126793
412.092000	-0.013036
412.274000	-0.076120
412.455000	0.041304
412.636000	0.065483
412.818000	-0.115117
412.999000	-0.200914
413.180000	-0.142060
413.361000	-0.094356
413.543000	-0.111842
413.724000	-0.216233
413.905000	-0.198295
414.087000	-0.213695
414.268000	-0.217281
414.449000	-0.199869
414.630000	-0.242385
414.812000	-0.357930
414.993000	-0.059880
415.174000	0.131917
415.355000	-0.015738
415.537000	-0.228519
415.718000	0.061257
415.899000	0.022719
416.081000	-0.089032
416.262000	0.098819
416.443000	-0.071076
416.624000	-0.059239
416.806000	0.098532
416.987000	0.184201
417.168000	0.040007
417.350000	-0.091382
417.531000	-0.157578
417.712000	-0.041495
417.893000	0.265993
418.075000	0.267887
418.256000	-0.018259
418.437000	0.103883
418.618000	0.204987
418.800000	0.300196
418.981000	0.108594
419.162000	0.096447
419.344000	0.367866
419.525000	0.311929
419.706000	0.222390
419.887000	0.360840
420.069000	0.484758
420.250000	0.314127
420.431000	0.249942
420.613000	0.251126
420.794000	0.080385
420.975000	0.412704
421.156000	0.278257
421.338000	0.220527
421.519000	0.240604
421.700000	0.215369
421.882000	0.244157
422.063000	0.413215
422.244000	0.908942
422.425000	0.774560
422.607000	0.422819
422.788000	0.363088
422.969000	0.251572
423.150000	0.274839
423.332000	0.170957
423.513000	0.455903
423.694000	0.521830
423.876000	0.546159
424.057000	0.623991
424.238000	0.669689
424.419000	0.735410
424.601000	0.662861
424.782000	0.682459
424.963000	0.874923
425.145000	0.765022
425.326000	0.813342
425.507000	0.857947
425.688000	0.813395
425.870000	0.672201
426.051000	0.544238
426.232000	0.653204
426.413000	0.711872
426.595000	0.748331
426.776000	0.687734
426.957000	0.780029
427.139000	0.914458
427.320000	1.007844
427.501000	1.150648
427.682000	1.193970
427.864000	1.224947
428.045000	1.387244
428.226000	1.340076
428.408000	0.982906
428.589000	1.232270
428.770000	1.298464
428.951000	1.161384
429.133000	1.115003
429.314000	1.356297
429.495000	1.363185
429.677000	1.396591
429.858000	1.478207
430.039000	1.542957
430.220000	1.700787
430.402000	1.789708
430.583000	1.596386
430.764000	1.715477
430.945000	1.907354
431.127000	2.041226
431.308000	1.899170
431.489000	2.116925
431.671000	2.199712
431.852000	2.071743
432.033000	2.097457
432.214000	2.203567
432.396000	2.327412
432.577000	2.230849
432.758000	2.160292
432.940000	2.288138
433.121000	2.393117
433.302000	2.464070
433.483000	2.692539
433.665000	2.907775
433.846000	2.893133
434.027000	2.872222
434.208000	2.860085
434.390000	2.853828
434.571000	3.283837
434.752000	3.710279
434.934000	3.557162
435.115000	3.563275
435.296000	3.734039
435.477000	3.595909
435.659000	3.440450
435.840000	3.689688
436.026000	3.749898
436.211000	3.704795
436.397000	3.541031
436.582000	3.778047
436.768000	4.074168
436.953000	4.103957
437.139000	4.157365
437.325000	4.570909
437.510000	4.656604
437.696000	4.854181
437.881000	4.986243
438.067000	4.746629
438.252000	4.886533
438.438000	4.960558
438.624000	5.035597
438.809000	5.195989
438.995000	5.455704
439.180000	5.544859
439.366000	5.573490
439.551000	5.721999
439.737000	5.852854
439.923000	6.034835
440.108000	6.040086
440.294000	6.266186
440.479000	6.542704
440.665000	6.627775
440.850000	6.697123
441.036000	6.899233
441.222000	6.993586
441.407000	6.998289
441.593000	7.231914
441.778000	7.413897
441.964000	7.733159
442.149000	7.683074
442.335000	7.785701
442.521000	7.987460
442.706000	8.305106
442.892000	8.480952
443.077000	8.609118
443.263000	8.746549
443.448000	8.915118
443.634000	9.050842
443.820000	9.437003
444.005000	9.473704
444.191000	9.566631
444.376000	9.785515
444.562000	10.282647
444.747000	10.363966
444.933000	10.366919
445.119000	10.524400
445.304000	10.619517
445.490000	10.967940
445.675000	11.154794
445.861000	11.239489
446.046000	11.464349
446.232000	11.720039
446.418000	12.057785
446.603000	12.302715
446.789000	12.359018
446.974000	12.573303
447.160000	12.637344
447.345000	12.936652
447.531000	13.145008
447.717000	13.523466
447.902000	13.976380
448.088000	14.236616
448.273000	14.173308
448.459000	14.367081
448.644000	14.625808
448.830000	14.887939
449.016000	15.018673
449.201000	15.339967
449.387000	15.821503
449.572000	16.158285
449.758000	16.174797
449.943000	16.370415
450.129000	16.467148
450.315000	16.690980
450.500000	16.938442
450.686000	17.288870
450.871000	17.536611
451.057000	17.869894
451.243000	18.114076
451.428000	18.418352
451.614000	18.668671
451.799000	18.757910
451.985000	19.253744
452.170000	19.474972
452.356000	19.448794
452.542000	19.733770
452.727000	20.195874
452.913000	20.358624
453.098000	20.744820
453.284000	21.083509
453.469000	21.093782
453.655000	21.428043
453.841000	21.499109
454.026000	21.400160
454.212000	21.539545
454.397000	21.801040
454.583000	22.052147
454.768000	21.978122
454.954000	22.205455
455.140000	22.182204
455.325000	22.410506
455.511000	22.620844
455.696000	22.511815
455.882000	22.678422
456.067000	23.183841
456.253000	23.166072
456.439000	22.981707
456.624000	22.930140
456.810000	23.025326
456.995000	23.034803
457.181000	22.918919
457.366000	23.088196
457.552000	23.010044
457.738000	22.996219
457.923000	23.015334
458.109000	23.382882
458.294000	23.121526
458.480000	23.002357
458.665000	22.917325
458.851000	22.604319
459.037000	22.218459
459.222000	22.389647
459.408000	22.319538
459.593000	22.038359
459.779000	22.005180
459.964000	22.067329
460.150000	22.059582
460.336000	21.737345
460.521000	21.210248
460.707000	20.889406
460.892000	20.610297
461.078000	20.554082
461.263000	20.339646
461.449000	20.094508
461.635000	19.778717
461.820000	19.436231
462.006000	19.408719
462.191000	19.222696
462.377000	18.498301
462.562000	18.522951
462.748000	18.697954
462.934000	18.021193
463.119000	17.504732
463.305000	17.414213
463.490000	17.063094
463.676000	16.811965
463.861000	16.612404
464.047000	16.274018
464.233000	15.919186
464.418000	15.679091
464.604000	15.303326
464.789000	15.184205
464.975000	14.945507
465.160000	14.631734
465.346000	14.293679
465.532000	13.997724
465.717000	13.797828
465.903000	13.834052
466.088000	13.441215
466.274000	12.945484
466.459000	12.773332
466.645000	12.998480
466.831000	12.653102
467.016000	12.362337
467.202000	12.164329
467.387000	11.906160
467.573000	11.451878
467.758000	11.553037
467.944000	11.200549
468.130000	10.922640
468.315000	10.902014
468.501000	11.006317
468.686000	10.619265
468.872000	10.376751
469.057000	10.275119
469.243000	10.098115
469.429000	9.938892
469.614000	9.651898
469.800000	9.373636
469.985000	9.392556
470.171000	9.390162
470.356000	9.112375
470.542000	9.077091
470.728000	8.925504
470.913000	8.704799
471.099000	8.609701
471.284000	8.370896
471.470000	8.308477
471.655000	8.261474
471.841000	8.130311
472.027000	7.893244
472.212000	7.982691
472.398000	7.965216
472.583000	7.663228
472.769000	7.522004
472.954000	7.418432
473.140000	7.190681
473.326000	7.003660
473.511000	7.202724
473.697000	7.126225
473.882000	6.914943
474.068000	6.676044
474.253000	6.509927
474.439000	6.489669
474.625000	6.442894
474.810000	6.399455
474.996000	6.312100
475.181000	6.001608
475.367000	6.173315
475.552000	6.293911
475.738000	5.820744
475.924000	5.707231
476.109000	5.696208
476.295000	5.504945
476.480000	5.482207
476.666000	5.373513
476.851000	5.298690
477.037000	5.249684
477.223000	5.056553
477.408000	4.859185
477.594000	4.680031
477.779000	4.728987
477.965000	4.713146
478.151000	4.469426
478.336000	4.497625
478.522000	4.390805
478.707000	4.226589
478.893000	4.268151
479.078000	4.046203
479.264000	3.915604
479.450000	3.842550
479.635000	3.973238
479.821000	3.857249
480.006000	3.834573
480.192000	3.714765
480.377000	3.676717
480.563000	3.627026
480.749000	3.376835
480.934000	3.259150
481.120000	3.286541
481.305000	3.325657
481.491000	3.258114
481.676000	3.230310
481.862000	3.156314
482.048000	2.950972
482.233000	2.925605
482.419000	2.905917
482.604000	2.783823
482.790000	2.687338
482.975000	2.694218
483.161000	2.795646
483.347000	2.710273
483.532000	2.583990
483.718000	2.340232
483.903000	2.411627
484.089000	2.381701
484.274000	2.176632
484.460000	2.264321
484.646000	2.233810
484.831000	2.097174
485.017000	2.160597
485.202000	2.173961
485.388000	2.305622
485.573000	2.255351
485.759000	2.047114
485.945000	2.128331
486.130000	1.912890
486.316000	1.889618
486.501000	1.912921
486.687000	1.736309
486.872000	1.648671
487.058000	1.771699
487.244000	1.779332
487.429000	1.589519
487.615000	1.685411
487.800000	1.754647
487.986000	1.607300
488.171000	1.706460
488.357000	1.568820
488.543000	1.560953
488.728000	1.626099
488.914000	1.506417
489.099000	1.361142
489.285000	1.347251
489.470000	1.552222
489.656000	1.510392
489.842000	1.481044
490.027000	1.529926
490.213000	1.316517
490.398000	1.004689
490.584000	1.281014
490.769000	1.255378
490.955000	1.293729
491.141000	1.346194
491.326000	1.237592
491.512000	1.372651
491.697000	1.272556
491.883000	1.076306
492.068000	1.000261
492.254000	1.021122
492.440000	1.090427
492.625000	0.990021
492.811000	0.935320
492.996000	0.971928
493.182000	0.968831
493.367000	0.815866
493.553000	0.746627
493.739000	0.804356
493.924000	0.885236
494.110000	0.920189
494.295000	0.781467
494.481000	0.847336
494.666000	0.904508
494.852000	1.020208
495.038000	0.805181
495.223000	0.662126
495.409000	0.748174
495.594000	0.730609
495.780000	0.739127
495.965000	0.650179
496.151000	0.838985
496.337000	0.896483
496.522000	0.588224
496.708000	0.692325
496.893000	0.854589
497.079000	0.630348
497.264000	0.564924
497.450000	0.623171
497.636000	0.733674
497.821000	0.568324
498.007000	0.729719
498.192000	0.792655
498.378000	0.600548
498.563000	0.499131
498.749000	0.563989
498.935000	0.567283
499.120000	0.596920
499.306000	0.430058
499.491000	0.364881
499.677000	0.472114
499.862000	0.598235
500.048000	0.615893
500.234000	0.456974
500.419000	0.432916
500.605000	0.580710
500.790000	0.480520
500.976000	0.340041
501.161000	0.263113
501.347000	0.406386
501.533000	0.520931
501.718000	0.429250
501.904000	0.340745
502.089000	0.441315
502.275000	0.481753
502.460000	0.374607
502.646000	0.447680
502.832000	0.460380
503.017000	0.423856
503.203000	0.203578
503.388000	0.139317
503.574000	0.345192
503.759000	0.363843
503.945000	0.418706
504.131000	0.385324
504.316000	0.307947
504.502000	0.280949
504.687000	0.256604
504.873000	0.139568
505.058000	0.108168
505.244000	0.133242
505.430000	0.152354
505.615000	0.177727
505.801000	0.262133
505.986000	0.179281
506.172000	0.217069
506.358000	0.215465
506.543000	0.227930
506.729000	0.404310
506.914000	0.283239
507.100000	0.383374
507.285000	0.198034
507.471000	0.090145
507.657000	0.315999
507.842000	0.222813
508.028000	0.073196
508.213000	0.111443
508.399000	0.139221
508.584000	0.266628
508.770000	0.179344
508.956000	0.115913
509.141000	0.162388
509.327000	0.249707
509.512000	0.164192
509.698000	0.187722
509.883000	0.247669
510.069000	0.139809
510.255000	0.154773
510.440000	0.197596
510.626000	0.103753
510.811000	0.063366
510.997000	0.193553
511.182000	0.419255
511.368000	0.308755
511.554000	-0.017721
511.739000	0.048433
511.925000	0.214992
512.110000	0.152934
512.296000	0.307274
512.481000	0.336800
512.667000	0.251644
512.853000	0.082755
513.038000	0.117134
513.224000	0.076466
513.409000	0.007924
513.595000	0.102323
513.780000	-0.069253
513.966000	0.007914
514.152000	0.040002
514.337000	-0.041302
514.523000	0.003638
514.708000	0.048632
514.894000	0.078842
515.079000	-0.041300
515.265000	-0.039295
515.451000	0.083133
515.636000	-0.030696
515.822000	0.055236
516.007000	-0.037188
516.193000	0.130352
516.378000	0.210168
516.564000	0.085276
516.750000	0.087455
516.935000	0.096098
517.121000	0.132621
517.306000	0.205889
517.492000	0.137250
517.677000	-0.060907
517.863000	-0.039393
518.049000	0.079025
518.234000	0.001506
518.420000	0.130768
518.605000	0.283627
518.791000	0.253350
518.976000	0.094438
519.162000	-0.045946
519.348000	0.085654
519.533000	0.089839
519.719000	0.316371
519.904000	0.223891
520.090000	0.104931
520.275000	0.262396
520.461000	0.241312
520.647000	0.010152
520.832000	-0.180411
521.018000	-0.048172
521.203000	-0.013565
521.389000	-0.146951
521.574000	-0.043721
521.760000	0.092087
521.946000	0.090204
522.131000	-0.013640
522.317000	-0.002810
522.502000	-0.046024
522.688000	0.014483
522.873000	0.029644
523.059000	-0.000650
523.245000	-0.000649
523.430000	-0.091622
523.616000	-0.076439
523.801000	-0.202300
523.987000	-0.157048
524.172000	0.012380
524.358000	0.062361
524.544000	0.034058
524.729000	0.157290
524.915000	0.170679
525.100000	0.047043
525.286000	0.049284
525.471000	0.069018
525.657000	0.084345
525.843000	-0.133758
526.028000	0.018997
526.214000	-0.035579
526.399000	-0.147323
526.585000	-0.199901
526.770000	-0.160471
526.956000	-0.048942
527.142000	-0.138900
527.327000	0.025703
527.513000	-0.075445
527.698000	-0.090944
527.884000	-0.058124
528.069000	-0.115353
528.255000	0.012588
528.441000	-0.040464
528.626000	-0.013973
528.812000	0.245327
528.997000	0.079276
529.183000	-0.051718
529.368000	0.052850
529.554000	-0.005143
529.740000	-0.034305
529.925000	-0.041041
530.111000	-0.002919
530.296000	0.048792
530.482000	0.130055
530.667000	-0.002931
530.853000	0.033253
531.039000	-0.002947
531.224000	0.042622
531.410000	0.131471
531.595000	0.063174
531.781000	0.149862
531.967000	-0.009863
532.152000	0.082143
532.338000	-0.026052
532.523000	-0.160074
532.709000	-0.165302
532.894000	-0.063604
533.080000	-0.019358
533.266000	-0.145412
533.451000	-0.131897
533.637000	-0.122924
533.822000	0.029968
534.008000	-0.116232
534.193000	-0.100099
534.379000	-0.010212
534.565000	-0.046020
534.750000	-0.091664
534.936000	0.136216
535.121000	-0.029626
535.307000	0.047532
535.492000	0.037942
535.678000	-0.192787
535.864000	-0.078913
536.049000	0.237615
536.235000	0.018942
536.420000	-0.020511
536.606000	-0.040396
536.791000	-0.110440
536.977000	-0.180696
537.163000	0.011792
537.348000	0.077476
537.534000	0.141509
537.719000	-0.125562
537.905000	-0.256448
538.090000	0.019765
538.276000	0.166666
538.462000	0.112937
538.647000	0.092636
538.833000	-0.019046
539.018000	0.080472
539.204000	0.028067
539.389000	-0.161894
539.575000	0.147228
539.761000	0.110773
539.946000	-0.179620
540.132000	-0.016880
540.317000	-0.081417
540.503000	0.036892
540.688000	0.010026
540.874000	0.186729
541.060000	0.330676
541.245000	0.141135
541.431000	-0.030965
541.616000	0.029401
541.802000	-0.022826
541.987000	0.164651
542.173000	0.184659
542.359000	0.049060
542.544000	0.143092
542.730000	-0.075860
542.915000	-0.137324
543.101000	0.105073
543.286000	-0.056695
543.472000	-0.135738
543.658000	-0.000844
543.843000	-0.006484
544.029000	0.185822
544.214000	0.027470
544.400000	-0.326892
544.585000	-0.137239
544.771000	-0.063570
544.957000	0.124844
545.142000	0.225019
545.328000	0.297278
545.513000	0.352402
545.699000	0.339500
545.884000	0.143455
546.070000	0.085766
546.261000	0.088977
546.451000	-0.061925
546.642000	-0.222207
546.833000	-0.088394
547.023000	-0.240039
547.214000	-0.164871
547.405000	0.007905
547.595000	0.274698
547.786000	0.193353
547.977000	-0.068758
548.167000	-0.204676
548.358000	-0.175914
548.549000	0.156910
548.740000	0.043768
548.930000	-0.245127
549.121000	-0.198039
549.312000	-0.231780
549.502000	-0.301471
549.693000	-0.193110
549.884000	-0.069997
550.074000	0.065420
550.265000	-0.115739
550.456000	-0.009997
550.646000	0.081073
550.837000	-0.016099
551.028000	-0.156032
551.218000	-0.013075
551.409000	-0.165835
551.600000	-0.110957
551.790000	0.026698
551.981000	-0.203446
552.172000	-0.166934
552.362000	0.155799
552.553000	0.215274
552.744000	-0.065743
552.934000	-0.130673
553.125000	-0.078296
553.316000	-0.093829
553.506000	0.197665
553.697000	0.020868
553.888000	0.014613
554.079000	0.216877
554.269000	0.173489
554.460000	-0.097736
554.651000	-0.169730
554.841000	-0.320126
555.032000	-0.261069
555.223000	-0.201804
555.413000	-0.032183
555.604000	0.049264
555.795000	-0.022966
555.985000	0.021122
556.176000	-0.082761
556.367000	-0.359601
556.557000	-0.253475
556.748000	-0.136947
556.939000	-0.221999
557.129000	-0.278606
557.320000	-0.070405
557.511000	-0.126997
557.701000	-0.082748
557.892000	-0.038855
558.083000	0.210472
558.273000	0.077955
558.464000	-0.168230
558.655000	-0.146010
558.845000	-0.133003
559.036000	-0.060728
559.227000	-0.013540
559.418000	0.112621
559.608000	0.185104
559.799000	-0.180464
559.990000	-0.339274
560.180000	-0.223656
560.371000	-0.355944
560.562000	-0.273843
560.752000	-0.073154
560.943000	-0.186268
561.134000	-0.408190
561.324000	-0.182415
561.515000	0.042786
561.706000	-0.079103
561.896000	-0.325394
562.087000	-0.203493
562.278000	-0.237679
562.468000	-0.409414
562.659000	-0.240375
562.850000	0.086192
563.040000	0.135978
563.231000	-0.306113
563.422000	-0.159227
563.612000	-0.255727
563.803000	-0.224246
563.994000	-0.260211
564.185000	-0.318324
564.375000	-0.041032
564.566000	-0.114935
564.757000	-0.143065
564.947000	-0.207706
565.138000	-0.080894
565.329000	-0.240352
565.519000	-0.353745
565.710000	-0.265039
565.901000	-0.083900
566.091000	0.072783
566.282000	-0.080582
566.473000	-0.071169
566.663000	-0.122952
566.854000	-0.274405
567.045000	-0.155486
567.235000	-0.022122
567.426000	-0.040289
567.617000	-0.118621
567.807000	-0.157928
567.998000	-0.148566
568.189000	-0.235899
568.379000	-0.163178
568.570000	-0.021907
568.761000	-0.072769
568.951000	-0.183278
569.142000	-0.195500
569.333000	-0.216453
569.524000	-0.290208
569.714000	-0.409475
569.905000	-0.515953
570.096000	-0.066379
570.286000	0.031807
570.477000	0.111765
570.668000	-0.069010
570.858000	-0.033467
571.049000	-0.163205
571.240000	-0.305018
571.430000	-0.104096
571.621000	-0.103726
571.812000	0.007901
572.002000	-0.027264
572.193000	-0.205758
572.384000	-0.120828
572.574000	-0.094573
572.765000	-0.135318
572.956000	-0.169856
573.146000	0.060400
573.337000	-0.108620
573.528000	-0.099710
573.718000	-0.012467
573.909000	0.120732
574.100000	0.016444
574.290000	-0.190660
574.481000	-0.170149
574.672000	-0.147363
574.863000	0.042058
575.053000	-0.077960
575.244000	-0.052135
575.435000	-0.154547
575.625000	-0.111361
575.816000	-0.173486
576.007000	-0.099904
576.197000	-0.100061
576.388000	-0.116613
576.579000	0.097945
576.769000	0.095012
576.960000	-0.279749
577.155000	-0.402591
577.350000	-0.096245
577.545000	-0.037250
577.740000	-0.165592
577.935000	0.177512
578.130000	0.029841
578.326000	-0.259406
578.521000	0.007503
578.716000	0.093223
578.911000	-0.169384
579.106000	-0.072399
579.301000	0.004666
579.496000	-0.203269
579.691000	-0.454573
579.886000	-0.265271
580.081000	-0.109702
580.276000	-0.131157
580.471000	-0.152854
580.666000	-0.206795
580.861000	-0.239233
581.057000	-0.233967
581.252000	-0.141823
581.447000	-0.168562
581.642000	-0.152584
581.837000	-0.198390
582.032000	-0.160042
582.227000	0.090423
582.422000	0.103645
582.617000	-0.134101
582.812000	-0.277351
583.007000	-0.205442
583.202000	-0.250162
583.397000	0.001850
583.592000	0.202405
583.788000	-0.111270
583.983000	-0.111165
584.178000	-0.003411
584.373000	-0.215294
584.568000	-0.209622
584.763000	-0.256860
584.958000	-0.332614
585.153000	-0.230730
585.348000	-0.173149
585.543000	-0.021699
585.738000	-0.050433
585.933000	-0.230794
586.128000	-0.073943
586.324000	-0.053179
586.519000	-0.042669
586.714000	-0.047943
586.909000	0.051703
587.104000	0.088740
587.299000	-0.021793
587.494000	-0.013897
587.689000	-0.105880
587.884000	-0.082482
588.079000	-0.111477
588.274000	-0.074719
588.469000	-0.095649
588.664000	0.022954
588.859000	0.059979
589.055000	-0.027246
589.250000	-0.082837
589.445000	-0.204825
589.640000	-0.228857
589.835000	0.068316
590.030000	0.209140
590.225000	0.193231
590.420000	-0.011445
590.615000	-0.107359
590.810000	-0.024747
591.005000	-0.019505
591.200000	-0.174548
591.395000	-0.171849
591.591000	-0.038153
591.786000	0.047184
591.981000	-0.038233
592.176000	0.036704
592.371000	0.066200
592.566000	0.015266
592.761000	0.200033
592.956000	0.141360
593.151000	0.162900
593.346000	0.125675
593.541000	0.184689
593.736000	0.169078
593.931000	-0.033183
594.126000	-0.025127
594.322000	0.045118
594.517000	0.028902
594.712000	-0.071071
594.907000	-0.103871
595.102000	0.056213
595.297000	0.251573
595.492000	0.271146
595.687000	0.110910
595.882000	0.042805
596.077000	0.113913
596.272000	0.332385
596.467000	0.422651
596.662000	0.239837
596.857000	0.207846
597.053000	0.202696
597.248000	0.246593
597.443000	0.348772
597.638000	0.335816
597.833000	0.134510
598.028000	0.316400
598.223000	0.402700
598.418000	0.339735
598.613000	0.273248
598.808000	0.409217
599.003000	0.404111
599.198000	0.274099
599.393000	0.393395
599.589000	0.458494
599.784000	0.322311
599.979000	0.448330
600.174000	0.674774
600.369000	0.454698
600.564000	0.505657
600.759000	0.797615
600.954000	0.905352
601.149000	0.734187
601.344000	0.431637
601.539000	0.659880
601.734000	0.639363
601.929000	0.441108
602.124000	0.571075
602.320000	0.811955
602.515000	1.046366
602.710000	0.994785
602.905000	0.672241
603.100000	0.637277
603.295000	0.765742
603.490000	0.940983
603.685000	1.006401
603.880000	1.024672
604.075000	0.876323
604.270000	0.906720
604.465000	1.034364
604.660000	0.798305
604.856000	0.926058
605.051000	1.139295
605.246000	1.124084
605.441000	0.970615
605.636000	0.948028
605.831000	1.072893
606.026000	0.992307
606.221000	1.105442
606.416000	1.327823
606.611000	1.507257
606.806000	1.560411
607.001000	1.746332
607.196000	1.543733
607.391000	1.378828
607.587000	1.592316
607.782000	1.614652
607.977000	1.437847
608.172000	1.826998
608.367000	1.925301
608.562000	1.769763
608.757000	1.743121
608.952000	1.662974
609.147000	2.116227
609.342000	2.125313
609.537000	1.972078
609.732000	2.050978
609.927000	2.038190
610.122000	2.117435
610.318000	2.402420
610.513000	2.505802
610.708000	2.327408
610.903000	2.458694
611.098000	2.507908
611.293000	2.529115
611.488000	2.649671
611.683000	2.613195
611.878000	2.596370
612.073000	2.738172
612.268000	2.861781
612.463000	3.021522
612.658000	3.039261
612.854000	3.054506
613.049000	3.058834
613.244000	3.297228
613.439000	3.342887
613.634000	3.110930
613.829000	3.310639
614.024000	3.297665
614.219000	3.326926
614.414000	3.715985
614.609000	3.569515
614.804000	3.543627
614.999000	3.647615
615.194000	3.794460
615.389000	3.852737
615.585000	3.778936
615.780000	4.102844
615.975000	4.162092
616.170000	4.216192
616.365000	4.563495
616.560000	4.778704
616.755000	4.738852
616.950000	4.698597
617.145000	4.781566
617.340000	4.719520
617.535000	4.643742
617.730000	4.968427
617.925000	4.891464
618.120000	4.959834
618.316000	5.476033
618.511000	5.365317
618.706000	5.332268
618.901000	5.647389
619.096000	5.883671
619.291000	5.725254
619.486000	5.884853
619.681000	5.729433
619.876000	5.902313
620.071000	6.276966
620.266000	6.650244
620.461000	6.795119
620.656000	6.838761
620.852000	6.885834
621.047000	6.868546
621.242000	6.784439
621.437000	7.292437
621.632000	7.551376
621.827000	7.498861
622.022000	7.335875
622.217000	7.700341
622.412000	8.138384
622.607000	8.165123
622.802000	7.908641
622.997000	8.015014
623.192000	8.392557
623.387000	8.621325
623.583000	8.489915
623.778000	8.906173
623.973000	8.984953
624.168000	9.168273
624.363000	9.296900
624.558000	9.547929
624.753000	9.470211
624.948000	9.963866
625.143000	10.047795
625.338000	10.061513
625.533000	10.154284
625.728000	10.415319
625.923000	10.749255
626.119000	10.799906
626.314000	10.720186
626.509000	10.833842
626.704000	11.127880
626.899000	11.429064
627.094000	11.509842
627.289000	11.549294
627.484000	11.824205
627.679000	12.128397
627.874000	12.320454
628.069000	12.685211
628.264000	12.765249
628.459000	12.795218
628.654000	12.842902
628.850000	12.841851
629.045000	13.172390
629.240000	13.291060
629.435000	13.404099
629.630000	13.512109
629.825000	13.687024
630.020000	13.960152
630.215000	13.740107
630.410000	13.867847
630.605000	14.002587
630.800000	14.087148
630.995000	14.389450
631.190000	14.601217
631.385000	14.482688
631.581000	14.356359
631.776000	14.358823
631.971000	14.125553
632.166000	14.197136
632.361000	14.058582
632.556000	14.179643
632.751000	14.201761
632.946000	13.741614
633.141000	13.630305
633.336000	13.542607
633.531000	13.437363
633.726000	13.174968
633.921000	12.888929
634.117000	12.516041
634.312000	12.195466
634.507000	12.126134
634.702000	11.979078
634.897000	11.730547
635.092000	11.502110
635.287000	11.345161
635.482000	11.006590
635.677000	10.798118
635.872000	10.559451
636.067000	10.277223
636.262000	9.862587
636.457000	9.286141
636.652000	9.024399
636.848000	8.614085
637.043000	8.246040
637.238000	8.112742
637.433000	7.766613
637.628000	7.639497
637.823000	7.682480
638.018000	7.273131
638.213000	6.796970
638.408000	6.501897
638.603000	6.145495
638.798000	5.965952
638.993000	5.866967
639.188000	5.648019
639.383000	5.335332
639.579000	5.479380
639.774000	5.033723
639.969000	4.714092
640.164000	4.477644
640.359000	4.303135
640.554000	4.380527
640.749000	4.309765
640.944000	4.171144
641.139000	4.032973
641.334000	3.679388
641.529000	3.148008
641.724000	3.311158
641.919000	3.343534
642.115000	3.427933
642.310000	3.332264
642.505000	3.040703
642.700000	2.897119
642.895000	2.716272
643.090000	2.795636
643.285000	2.887172
643.480000	2.692721
643.675000	2.618200
643.870000	2.894476
644.065000	2.602644
644.260000	2.146700
644.455000	2.091855
644.650000	1.997480
644.846000	2.078652
645.041000	1.676005
645.236000	1.473167
645.431000	1.530787
645.626000	1.263609
645.821000	1.307475
646.016000	1.370616
646.211000	1.852353
646.406000	1.699549
646.601000	1.575193
646.796000	1.359274
646.991000	1.106698
647.186000	1.124051
647.381000	1.244076
647.577000	1.196756
647.772000	1.222947
647.967000	1.143076
648.162000	1.136505
648.357000	1.096817
648.552000	1.175042
648.747000	1.153238
648.942000	1.142724
649.137000	1.022074
649.332000	0.748443
649.527000	0.699181
649.722000	0.902188
649.917000	1.014309
650.113000	0.703919
650.308000	0.538788
650.503000	0.625294
650.698000	0.804974
650.893000	0.619971
651.088000	0.707542
651.283000	0.800238
651.478000	0.462219
651.673000	0.659050
651.868000	0.466478
652.063000	0.764534
652.258000	0.898548
652.453000	0.964601
652.648000	0.585192
652.844000	0.497983
653.039000	0.575154
653.234000	0.052303
653.429000	-0.142657
653.624000	0.182297
653.819000	0.496768
654.014000	0.397263
654.209000	0.144804
654.404000	0.321154
654.599000	0.160409
654.794000	0.140932
654.989000	0.538050
655.184000	0.423001
655.380000	0.037373
655.575000	0.102883
655.770000	0.110774
655.965000	0.226621
656.160000	0.118585
656.355000	0.234419
656.550000	0.266129
656.745000	0.336084
656.940000	0.126862
657.135000	0.157860
657.330000	0.239409
657.525000	-0.059410
657.720000	0.096078
657.915000	0.251437
658.111000	0.150453
658.306000	0.492960
658.501000	0.275709
658.696000	-0.098623
658.891000	0.158728
659.086000	0.170359
659.281000	0.112066
659.476000	-0.141943
659.671000	-0.446904
659.866000	-0.196756
660.061000	0.073197
660.256000	0.120223
660.451000	0.132089
660.646000	-0.036500
660.842000	0.057760
661.037000	-0.091586
661.232000	-0.064163
661.427000	0.081418
661.622000	-0.016944
661.817000	-0.233607
662.012000	-0.092019
662.207000	-0.190882
662.402000	-0.246830
662.597000	-0.060660
662.792000	-0.349759
662.987000	-0.333641
663.182000	-0.064648
663.378000	-0.021037
663.573000	-0.391143
663.768000	-0.406215
663.963000	-0.251628
664.158000	-0.239483
664.353000	0.293899
664.548000	0.461225
664.743000	0.190366
664.938000	-0.100959
665.133000	-0.181052
665.328000	0.150900
665.523000	0.034891
665.718000	-0.157631
665.913000	-0.194021
666.109000	-0.093805
666.304000	0.151730
666.499000	0.034993
666.694000	0.139965
666.889000	0.349672
667.084000	-0.029541
667.279000	-0.215559
667.474000	-0.211634
667.669000	-0.130671
667.864000	-0.090322
668.059000	-0.098573
668.254000	-0.029650
668.449000	-0.159804
668.644000	-0.115180
668.840000	0.059750
669.035000	-0.229165
669.230000	-0.503590
669.425000	-0.070706
669.620000	-0.156522
669.815000	-0.239119
670.010000	-0.251191
670.205000	-0.013534
670.400000	-0.021697
670.595000	-0.021763
670.790000	-0.124588
670.985000	-0.169995
671.180000	0.056453
671.376000	-0.273445
671.571000	-0.356721
671.766000	-0.307831
671.961000	-0.361828
672.156000	-0.345679
672.351000	-0.275196
672.546000	-0.296574
672.741000	-0.154811
672.936000	-0.134235
673.131000	0.352957
673.326000	0.069785
673.521000	-0.310750
673.716000	-0.377659
673.911000	-0.490931
674.107000	0.082605
674.302000	0.284071
674.497000	-0.043269
674.692000	-0.333363
674.887000	-0.351372
675.082000	-0.161799
675.277000	0.015653
675.472000	-0.060575
675.667000	-0.260065
675.862000	-0.306889
676.057000	-0.251877
676.252000	-0.218358
676.447000	-0.257295
676.643000	-0.205923
676.838000	0.041434
677.033000	-0.189495
677.228000	0.093055
677.423000	0.084530
677.618000	-0.315370
677.813000	-0.448484
678.008000	-0.225610
678.203000	-0.139482
678.398000	-0.416613
678.593000	-0.247975
678.788000	-0.109845
678.983000	-0.339541
679.178000	-0.179183
679.374000	-0.288066
679.569000	-0.219019
679.764000	-0.324481
679.959000	-0.456588
680.154000	-0.482951
680.349000	-0.708703
680.544000	-0.505914
680.739000	-0.343747
680.934000	-0.449562
681.129000	-0.464041
681.324000	-0.548447
681.519000	-0.271326
681.714000	-0.289133
681.909000	-0.377228
682.105000	-0.586727
682.300000	-0.125993
682.495000	0.105459
682.690000	0.038801
682.885000	-0.121852
683.080000	-0.354934
683.275000	-0.292419
683.470000	0.061424
683.665000	0.205347
683.860000	0.498275
684.055000	0.174293
684.250000	-0.289871
684.445000	-0.262404
684.641000	0.206312
684.836000	-0.137016
685.031000	-0.246430
685.226000	-0.260397
685.421000	0.121678
685.616000	-0.147198
685.811000	-0.366823
686.006000	0.026036
686.201000	-0.047111
686.396000	-0.483471
686.591000	-0.378628
686.786000	0.067736
686.981000	-0.121199
687.176000	-0.070679
687.372000	-0.144754
687.567000	0.081895
687.762000	0.003248
687.957000	-0.098819
688.152000	-0.252455
688.347000	-0.155100
688.542000	-0.407623
688.737000	-0.860158
688.932000	-0.880319
689.127000	-0.427430
689.322000	-0.010798
689.517000	-0.268963
689.712000	-0.510153
689.908000	-0.397502
690.103000	-0.332130
690.298000	-0.166802
690.493000	-0.257253
690.688000	-0.641793
690.883000	-0.386972
691.078000	0.074754
691.273000	0.165239
691.468000	-0.111169
691.663000	-0.293587
691.858000	-0.111611
692.053000	-0.049337
692.248000	0.041715
692.443000	0.003356
692.639000	-0.140776
692.834000	-0.049611
693.029000	0.543029
693.224000	0.560130
693.419000	-0.098368
693.614000	-0.302460
693.809000	-0.404709
694.004000	-0.488222
694.199000	-0.570823
694.394000	-0.353031
694.589000	-0.573367
694.784000	-0.466303
694.979000	-0.172729
695.174000	-0.114299
695.370000	0.365825
695.565000	0.126166
695.760000	-0.277019
695.955000	0.052776
696.150000	0.126800
696.345000	-0.402679
696.540000	-0.160262
696.740000	-0.289064
696.940000	-0.120576
697.140000	0.068329
697.340000	-0.076442
697.539000	0.098477
697.739000	-0.126521
697.939000	-0.221691
698.139000	-0.532512
698.339000	-0.866379
698.539000	-0.544255
698.739000	-0.596107
698.939000	-0.517736
699.138000	-0.467899
699.338000	0.144993
699.538000	0.257115
699.738000	-0.271092
699.938000	-0.378219
700.138000	-0.419653
700.338000	-0.512912
700.538000	-0.283495
700.737000	-0.206530
700.937000	-0.589139
701.137000	-0.656572
701.337000	-0.166153
701.537000	-0.068566
701.737000	-0.192053
701.937000	-0.197649
702.137000	-0.311196
702.337000	-0.549513
702.536000	-0.612795
702.736000	-0.452759
702.936000	-0.593662
703.136000	-0.058864
703.336000	-0.136972
703.536000	-0.377589
703.736000	-0.661395
703.936000	-0.618218
704.135000	-0.617908
704.335000	-0.263464
704.535000	-0.474270
704.735000	-0.732375
704.935000	-0.132733
705.135000	-0.149195
705.335000	-0.541120
705.535000	-0.287411
705.735000	-0.139182
705.934000	-0.075638
706.134000	-0.313767
706.334000	-0.367548
706.534000	-0.394634
706.734000	-0.426841
706.934000	-0.618167
707.134000	-0.745927
707.334000	-0.438492
707.533000	-0.364573
707.733000	-0.390978
707.933000	-0.412726
708.133000	-0.102923
708.333000	-0.012329
708.533000	-0.318469
708.733000	-0.087525
708.933000	-0.307953
709.132000	-0.550870
709.332000	-0.508650
709.532000	-0.574644
709.732000	-0.314703
709.932000	-0.629289
710.132000	-0.618079
710.332000	-0.871833
710.532000	-0.299175
710.732000	-0.023327
710.931000	-0.397938
711.131000	-0.415844
711.331000	-0.296169
711.531000	-0.422333
711.731000	-0.330282
711.931000	-0.199157
712.131000	-0.292075
712.331000	-0.248315
712.530000	-0.368462
712.730000	-0.594495
712.930000	-0.495521
713.130000	-0.392629
713.330000	-0.486845
713.530000	-0.289419
713.730000	0.424639
713.930000	0.037082
714.129000	-0.543483
714.329000	-0.678345
714.529000	-0.295407
714.729000	0.026103
714.929000	-0.223824
715.129000	-0.396652
715.329000	-0.263381
715.529000	-0.303597
715.729000	0.428032
715.928000	0.087836
716.128000	-0.449527
716.328000	-0.377869
716.528000	-0.350195
716.728000	-0.170361
716.928000	-0.350314
717.128000	-0.249656
717.328000	-0.266520
717.527000	-0.407880
717.727000	-0.374396
717.927000	-0.296288
718.127000	-0.421162
718.327000	-0.938685
718.527000	-0.853077
718.727000	-0.353931
718.927000	-0.365955
719.127000	-0.601712
719.326000	-0.405774
719.526000	-0.155652
719.726000	-0.241682
719.926000	-0.741516
720.126000	-0.776051
720.326000	-0.466249
720.526000	-0.558112
720.726000	-0.444731
720.925000	-0.249277
721.125000	-0.516003
721.325000	-0.301839
721.525000	-0.360424
721.725000	-0.545613
721.925000	-0.518139
722.125000	-0.483365
722.325000	-0.013345
722.524000	-0.205435
722.724000	-0.677673
722.924000	-0.834948
723.124000	-0.608467
723.324000	-0.200306
723.524000	-0.200487
723.724000	-0.686251
723.924000	-0.500829
724.124000	-0.324799
724.323000	-0.066456
724.523000	-0.025266
724.723000	0.304437
724.923000	0.057136
725.123000	-0.143284
725.323000	-0.102191
725.523000	-0.250343
725.723000	-0.492476
725.922000	-0.528544
726.122000	-0.369152
726.322000	-0.536507
726.522000	-0.537032
726.722000	0.313057
726.922000	-0.049271
727.122000	-0.293678
727.322000	0.129431
727.521000	-0.175191
727.721000	-0.522753
727.921000	-0.391035
728.121000	-0.301136
728.321000	-0.637568
728.521000	-0.434752
728.721000	-0.296953
728.921000	0.022279
729.121000	0.619404
729.320000	-0.019925
729.520000	-0.412424
729.720000	-0.509879
729.920000	-0.348223
730.120000	-0.256413
730.320000	-0.202351
730.520000	-0.561102
730.720000	-0.611656
730.919000	-0.477405
731.119000	-0.111782
731.319000	-0.650371
731.519000	-0.846040
731.719000	-0.375283
731.919000	-0.522491
732.119000	-0.891488
732.319000	-0.869667
732.519000	-0.383646
732.718000	-0.760283
732.918000	-0.711565
733.118000	-0.441120
733.318000	-0.144568
733.518000	-0.411399
733.718000	-0.896643
733.918000	-0.673341
734.118000	-0.436929
734.317000	-0.307658
734.517000	-0.637521
734.717000	-0.546664
734.917000	0.098534
735.117000	-0.089843
735.317000	-0.171475
735.517000	0.294128
735.717000	0.509772
735.916000	-0.311469
736.116000	-0.532130
736.316000	-0.370280
736.516000	-0.344767
736.716000	-0.383057
736.916000	-0.767324
737.116000	-0.489043
737.316000	0.094204
737.516000	-0.059716
737.715000	-0.040479
737.915000	-0.644741
738.115000	-0.749964
738.315000	-0.608546
738.515000	-0.769730
738.715000	-0.313464
738.915000	0.193010
739.115000	-0.392516
739.314000	-0.548247
739.514000	0.063311
739.714000	0.135447
739.914000	-0.133218
740.114000	-0.396459
740.314000	-0.232262
740.514000	0.123228
740.714000	-0.643354
740.913000	-0.981999
741.113000	-0.592244
741.313000	-0.101471
741.513000	-0.261374
741.713000	-0.462135
741.913000	-0.316916
742.113000	-0.476993
742.313000	-1.007645
742.513000	-0.565693
742.712000	-0.426149
742.912000	-0.742758
743.112000	-0.488513
743.312000	-0.746508
743.512000	-0.626094
743.712000	-0.430757
743.912000	-0.983550
744.112000	-1.141047
744.311000	-1.075744
744.511000	-0.652917
744.711000	-0.187503
744.911000	-0.517920
745.111000	-0.518563
745.311000	-0.133168
745.511000	-0.520278
745.711000	-0.728246
745.911000	-0.382947
746.110000	-0.757252
746.310000	-0.991701
746.510000	-0.746168
746.710000	-0.113871
746.910000	-0.099988
747.110000	-0.758470
747.310000	-1.005344
747.510000	-0.833114
747.709000	-0.410904
747.909000	-0.482619
748.109000	-0.243188
748.309000	-0.471030
748.509000	-0.784859
748.709000	-0.709205
748.909000	-0.509070
749.109000	-0.518464
749.308000	-0.066758
749.508000	-0.297551
749.708000	-0.506656
749.908000	-0.131918
750.108000	0.012291
750.308000	-0.836537
750.508000	-0.133112
750.708000	-0.569734
750.908000	-1.161620
751.107000	-0.411807
751.307000	0.282736
751.507000	-0.310346
751.707000	-0.222022
751.907000	-0.340096
752.107000	-0.414950
752.307000	-0.719547
752.507000	-0.558312
752.706000	-0.654256
752.906000	0.287355
753.106000	-0.657920
753.306000	-1.250371
753.506000	-0.272039
753.706000	-0.602985
753.906000	-0.325197
754.106000	-0.145141
754.305000	-0.228160
754.505000	-0.085312
754.705000	-0.488101
754.905000	-0.511630
755.105000	-0.070806
755.305000	-0.917181
755.505000	-0.721025
755.705000	-0.346800
755.905000	-0.271056
756.104000	-0.832316
756.304000	-1.358555
756.504000	-1.693394
756.704000	-0.724188
756.904000	-0.335900
757.104000	-0.443878
757.304000	-0.436548
757.504000	-0.095957
757.703000	-0.400137
757.903000	0.021111
758.103000	0.224857
758.303000	-0.261631
758.503000	-0.640442
758.703000	-0.665625
758.903000	-0.737017
759.103000	-0.469732
759.303000	-0.479946
759.502000	-0.433555
759.702000	-0.066245
759.902000	-0.403513
760.102000	-0.372314
760.302000	-0.389705
760.502000	-0.219610
760.702000	-0.211870
760.902000	-0.486800
761.101000	-0.982067
761.301000	-1.186548
761.501000	-0.724490
761.701000	-0.799109
761.901000	-0.558122
762.101000	-0.174428
762.301000	-0.387350
762.501000	-0.871229
762.700000	-0.965812
762.900000	-0.719058
763.100000	-0.464250
763.300000	-0.151519
763.500000	-0.425169
763.703000	-0.555912
763.905000	-0.914564
764.108000	-0.193882
764.311000	-0.327063
764.513000	-0.594091
764.716000	-0.454275
764.919000	-0.580541
765.121000	-0.966268
765.324000	-0.969172
765.527000	-0.906739
765.729000	-0.906711
765.932000	-0.036396
766.135000	-0.281770
766.337000	-0.586689
766.540000	-0.588617
766.743000	-0.267830
766.945000	-0.651597
767.148000	-1.106714
767.351000	-1.166465
767.553000	-0.191559
767.756000	-0.535733
767.958000	-1.025784
768.161000	-0.777106
768.364000	-0.909531
768.566000	-1.101963
768.769000	-0.523724
768.972000	-0.376021
769.174000	-0.716878
769.377000	-1.129499
769.580000	-1.280726
769.782000	-0.632371
769.985000	-1.116985
770.188000	-2.078327
770.390000	-1.178212
770.593000	0.509363
770.796000	0.200540
770.998000	-0.250158
771.201000	-0.763653
771.404000	-0.614088
771.606000	-0.776663
771.809000	-0.643005
772.012000	-0.679887
772.214000	-1.313581
772.417000	-1.233454
772.620000	-0.233836
772.822000	-0.603009
773.025000	-1.015354
773.228000	-0.963380
773.430000	-0.893039
773.633000	-0.678483
773.836000	-0.471887
774.038000	-0.111399
774.241000	-0.337727
774.444000	-0.611230
774.646000	0.233224
774.849000	-0.166444
775.052000	-0.584730
775.254000	-0.394542
775.457000	-0.767428
775.659000	-0.778392
775.862000	-1.015892
776.065000	-0.688433
776.267000	0.043044
776.470000	0.374406
776.673000	-0.444627
776.875000	-0.085862
777.078000	0.135503
777.281000	-0.780017
777.483000	-0.179149
777.686000	-0.086487
777.889000	-0.198297
778.091000	0.165349
778.294000	-0.833033
778.497000	-0.899487
778.699000	-0.741291
778.902000	-0.818862
779.105000	-0.856439
779.307000	0.128696
779.510000	-0.661867
779.713000	-0.314736
779.915000	-0.609740
780.118000	0.443278
780.321000	0.624392
780.523000	-0.460094
780.726000	-0.927242
780.929000	-1.069803
781.131000	-1.157327
781.334000	-1.535108
781.537000	-1.481783
781.739000	-0.291245
781.942000	-0.733991
782.145000	-1.395316
782.347000	-1.454250
782.550000	-0.796817
782.753000	-1.090847
782.955000	-0.967191
783.158000	-0.879011
783.361000	-0.793356
783.563000	-0.832526
783.766000	-0.697690
783.968000	1.476907
784.171000	1.109563
784.374000	-0.396800
784.576000	-0.524645
784.779000	-0.160192
784.982000	0.155185
785.184000	-0.778145
785.387000	-0.281675
785.590000	0.623730
785.792000	0.556196
785.995000	0.107009
786.198000	-0.173297
786.400000	-0.536168
786.603000	-0.729143
786.806000	-0.777161
787.008000	-0.254336
787.211000	-0.285522
787.414000	-1.066018
787.616000	-0.805838
787.819000	-0.919781
788.022000	-1.451402
788.224000	-0.943764
788.427000	-1.363759
788.630000	-0.762812
788.832000	-0.618408
789.035000	-0.996274
789.238000	-1.515040
789.440000	-1.234207
789.643000	-0.147633
789.846000	-0.738196
790.048000	-0.283332
790.251000	0.079933
790.454000	-0.469316
790.656000	0.163255
790.859000	-0.347069
791.062000	-0.692228
791.264000	-0.316097
791.467000	-1.344119
791.669000	-1.860175
791.872000	-0.699073
792.075000	-1.182735
792.277000	-0.824783
792.480000	-0.553903
792.683000	-0.964306
792.885000	-1.081533
793.088000	-1.074888
793.291000	-1.386064
793.493000	-1.420561
793.696000	-0.482945
793.899000	-0.259778
794.101000	-0.646129
794.304000	-0.733505
794.507000	-0.315133
794.709000	-0.175799
794.912000	-0.663795
795.115000	-1.001405
795.317000	-0.795047
795.520000	-0.635115
795.723000	-0.823618
795.925000	-1.438236
796.128000	-1.534847
796.331000	-0.892325
796.533000	-1.477545
796.736000	-0.744143
796.939000	-0.435584
797.141000	-0.836794
797.344000	-0.081201
797.547000	-0.136877
797.749000	-0.549410
797.952000	-1.067435
798.155000	-1.612743
798.357000	-1.498775
798.560000	-0.919267
798.763000	-0.489093
798.965000	-0.815888
799.168000	-0.524008
799.371000	-0.252679
799.573000	-0.742375
799.776000	-1.551873
799.978000	-1.374458
800.181000	-0.449872
800.384000	1.154508
800.586000	0.387272
800.789000	-1.289968
800.992000	-1.105430
801.194000	-1.556542
801.397000	-1.733578
801.600000	-1.264992
801.802000	0.066068
802.005000	-0.212788
802.208000	-1.484440
802.410000	-0.387977
802.613000	-0.389690
802.816000	-0.788489
803.018000	-1.518917
803.221000	-1.239293
803.424000	0.137986
803.626000	-0.216159
803.829000	-0.619734
804.032000	0.400387
804.234000	1.136653
804.437000	-0.349504
804.640000	-0.706764
804.842000	-0.744218
805.045000	-1.048048
805.248000	-0.749320
805.450000	-0.760604
805.653000	-0.946806
805.856000	-0.849142
806.058000	0.081177
806.261000	-1.011636
806.464000	-0.830299
806.666000	-0.186291
806.869000	-0.640880
807.072000	-1.608767
807.274000	-1.867297
807.477000	-0.876571
807.679000	-0.508170
807.882000	-1.286294
808.085000	-0.897661
808.287000	-0.326858
808.490000	-1.261378
808.693000	-1.249806
808.895000	-0.852021
809.098000	-0.690184
809.301000	-0.567268
809.503000	-1.022493
809.706000	-0.193475
809.909000	0.109997
810.111000	-0.029120
810.314000	-0.587546
810.517000	-1.015692
810.719000	-1.212216
810.922000	-1.038515
811.125000	-0.054810
811.327000	-0.003846
811.530000	-0.428575
811.735000	-0.723494
811.940000	-1.137254
812.146000	-1.090305
812.351000	-0.184965
812.556000	-0.458059
812.761000	-1.227536
812.967000	-0.291539
813.172000	-0.147575
813.377000	-0.527938
813.582000	0.022365
813.788000	-0.268906
813.993000	-1.444222
814.198000	-0.533021
814.403000	-1.510929
814.609000	-0.655796
814.814000	-0.485046
815.019000	0.289428
815.224000	-0.083984
815.429000	-0.876288
815.635000	-0.488655
815.840000	-0.677851
816.045000	-0.721553
816.250000	-0.492207
816.456000	-1.484578
816.661000	-2.514755
816.866000	-2.027987
817.071000	-1.931046
817.277000	-2.356132
817.482000	-1.133945
817.687000	-0.307058
817.892000	-0.724218
818.097000	-0.434766
818.303000	-0.031947
818.508000	0.231513
818.713000	7.020753
818.918000	4.199884
819.124000	0.581988
819.329000	-0.859168
819.534000	-0.833614
819.739000	-1.016446
819.945000	-1.388493
820.150000	-1.197509
820.355000	-0.829781
820.560000	-0.316540
820.766000	-0.388506
820.971000	-0.634069
821.176000	-1.984307
821.381000	-2.722518
821.586000	-1.889697
821.792000	-0.264299
821.997000	-0.582577
822.202000	-0.800204
822.407000	-1.513823
822.613000	-1.633358
822.818000	-0.587678
823.023000	-0.121183
823.228000	-0.562805
823.434000	-0.195284
823.639000	0.201589
823.844000	-1.096168
824.049000	-0.432590
824.255000	-0.211811
824.460000	-0.941973
824.665000	-1.286025
824.870000	-0.139056
825.075000	-0.064376
825.281000	0.040544
825.486000	0.886685
825.691000	-1.653513
825.896000	-2.930005
826.102000	-1.157260
826.307000	-0.855995
826.512000	-1.011806
826.717000	-0.800613
826.923000	-0.864307
827.128000	-0.696961
827.333000	-1.460227
827.538000	-0.657465
827.744000	-0.051416
827.949000	-1.217654
828.154000	-0.801005
828.359000	0.073350
828.564000	-0.726198
828.770000	-0.855196
828.975000	0.216257
829.180000	-0.369659
829.385000	-1.780984
829.591000	-1.756623
829.796000	-1.237221
830.001000	-1.031116
830.206000	-1.500884
830.412000	-1.354720
830.617000	-1.019703
830.822000	-0.021046
831.027000	-1.038662
831.232000	-1.743772
831.438000	-1.772455
831.643000	-1.084984
831.848000	-0.841570
832.053000	-0.745978
832.259000	-1.060171
832.464000	-2.650429
832.669000	-2.311535
832.874000	-2.059274
833.080000	-2.168219
833.285000	-0.371679
833.490000	-0.388622
833.695000	-1.667138
833.901000	-1.506303
834.106000	-1.863367
834.311000	-1.210847
834.516000	-0.243221
834.721000	-1.082710
834.927000	-0.279954
835.132000	-0.796766
835.337000	0.856550
835.542000	-0.455960
835.748000	-2.462255
835.953000	-0.248292
836.158000	-0.092250
836.363000	-0.669314
836.569000	-0.427948
836.774000	-1.204947
836.979000	-1.824632
837.184000	-2.271719
837.390000	-2.009786
837.595000	-1.552730
837.800000	-0.771908
838.005000	-0.812508
838.210000	-1.171740
838.416000	-0.996145
838.621000	-0.745958
838.826000	-1.214825
839.031000	-1.583934
839.237000	-1.632330
839.442000	-2.422201
839.647000	-2.692799
839.852000	-1.768057
840.058000	-1.700741
840.263000	-1.394311
840.468000	-1.803492
840.673000	-1.229019
840.878000	-0.859084
841.084000	-1.778804
841.289000	-1.203199
841.494000	1.520608
841.699000	1.412210
841.905000	0.657732
842.110000	0.413542
842.315000	-1.514456
842.520000	-0.520847
842.726000	-1.019321
842.931000	-1.916605
843.136000	-1.199084
843.341000	-2.623531
843.547000	-1.399061
843.752000	-1.284426
843.957000	-1.802766
844.162000	-1.870195
844.367000	-1.284259
844.573000	-0.756491
844.778000	-1.049986
844.983000	-0.637857
845.188000	0.113140
845.394000	-1.988825
845.599000	-1.544399
845.804000	-1.028433
846.009000	-0.228102
846.215000	-1.445932
846.420000	-2.100530
846.625000	-0.903742
846.830000	0.258155
847.036000	-1.272517
847.241000	-1.790720
847.446000	0.075886
847.651000	-0.891810
847.856000	-1.959803
848.062000	-2.111526
848.267000	-0.235610
848.472000	-1.198874
848.677000	-2.985624
848.883000	-1.053134
849.088000	0.437786
849.293000	-0.983064
849.498000	-0.960605
849.704000	-0.027644
849.909000	-1.051073
850.114000	-1.925252
850.319000	-0.754301
850.524000	-1.274109
850.730000	-0.957222
850.935000	-0.961066
851.140000	-0.180539
851.345000	0.015224
851.551000	0.146154
851.756000	0.015352
851.961000	-1.435932
852.166000	-2.096713
852.372000	-1.197762
852.577000	-0.939881
852.782000	-1.596259
852.987000	0.060275
853.193000	-0.185959
853.398000	-0.858355
853.603000	-2.163035
853.808000	-2.838366
854.013000	-1.974391
854.219000	-0.120083
854.424000	1.676318
854.629000	1.246907
854.834000	-1.223104
855.040000	-0.653576
855.245000	0.062147
855.450000	-2.691628
855.655000	-3.765053
855.861000	-3.649754
856.066000	-2.229155
856.271000	-2.139030
856.476000	-0.054071
856.682000	-0.856672
856.887000	-4.039083
857.092000	-2.228156
857.297000	0.585970
857.502000	-0.007131
857.708000	-1.436134
857.913000	-0.579745
858.118000	-0.657322
858.323000	-1.069778
858.529000	-1.116346
858.734000	-1.191913
858.939000	-0.977195
859.144000	-1.978034
859.350000	-3.340989
859.555000	-2.960882
859.760000	-0.670015
859.965000	0.139853
860.171000	-1.880156
860.376000	-0.972459
860.581000	-2.339651
860.786000	-4.068608
860.991000	-3.210525
861.197000	-2.658384
861.402000	-0.860245
861.607000	-1.990116
861.812000	-3.258883
862.018000	-2.917174
862.223000	-1.528507
862.428000	-0.237130
862.633000	0.757628
862.839000	-0.341402
863.044000	-2.000828
863.249000	-2.021213
863.454000	-0.214466
863.659000	-1.718349
863.865000	-2.508291
864.070000	-2.279836
864.275000	-2.649871
864.480000	-2.136429
864.686000	-3.858724
864.891000	-2.990824
865.096000	-1.174772
865.301000	-0.884720
865.507000	-0.729578
865.712000	-0.462302
865.917000	-1.056952
866.122000	-0.574410
866.328000	-3.642286
866.533000	-3.341626
866.738000	0.018995
866.943000	-0.497639
867.148000	-0.144935
867.354000	-2.433624
867.559000	-3.619788
867.764000	-1.892154
867.969000	-0.648767
868.175000	-1.756581
868.380000	-2.291843
868.585000	-3.577478
868.790000	-1.127591
868.996000	-0.966055
869.201000	-2.719382
869.406000	-4.234215
869.611000	-3.416591
869.817000	-2.391508
870.022000	1.899378
870.227000	-0.550945
870.432000	-2.762547
870.637000	-0.985086
870.843000	-1.626314
871.048000	-1.945005
871.253000	0.020242
871.458000	-1.025960
871.664000	-2.992150
871.869000	-3.274623
872.074000	-3.018896
872.279000	-1.365665
872.485000	-1.671327
872.690000	-2.453758
872.895000	-2.883032
873.100000	-3.336041
873.306000	-3.199720
873.511000	-1.858038
873.716000	0.082018
873.921000	-1.857251
874.126000	-2.861623
874.332000	-2.522079
874.537000	-0.748356
874.742000	-0.807335
874.947000	-1.365652
875.153000	0.644113
875.358000	-0.789094
875.563000	-1.536217
875.768000	-4.390178
875.974000	-4.439638
876.179000	-1.363137
876.384000	-1.116687
876.589000	-2.435560
876.794000	-2.342461
877.000000	-3.143981
877.205000	-4.194115
877.410000	-1.068939
877.615000	-2.765569
877.821000	-4.891559
878.026000	-3.309006
878.231000	-4.019708
878.436000	-3.410989
878.642000	-2.358209
878.847000	-1.546218
879.052000	-0.793225
879.257000	-2.018412
879.463000	-3.570895
879.668000	-2.549529
879.873000	-0.440410
880.078000	-3.827344
880.283000	-5.008584
880.489000	-5.608292
880.694000	-4.628621
880.899000	-2.201945
881.104000	-0.348731
881.310000	1.919664
881.515000	-0.517409
881.720000	1.040698
881.925000	2.682892
882.131000	3.467182
882.336000	0.092757
882.541000	-3.853732
882.746000	-3.768354
882.952000	-3.798728
883.157000	-3.320317
883.362000	-3.046265
883.567000	-3.584621
883.772000	-3.653269
883.978000	-2.984586
884.183000	-2.033278
884.388000	-2.701161
884.593000	-4.968884
884.799000	-0.152971
885.004000	-0.082977
885.209000	-1.201882
885.414000	-1.161794
885.620000	-3.778687
885.825000	-0.631266
886.030000	-1.212720
886.235000	-2.832403
886.440000	-1.525903
886.646000	-4.718954
886.851000	-4.556408
887.056000	0.175664
887.261000	-0.759328
887.467000	-3.917250
887.672000	-1.145748
887.877000	-2.633838
888.082000	-4.937675
888.288000	-5.452336
888.493000	-7.851566
888.698000	-6.014385
888.903000	-2.943545
889.109000	-3.899915
889.314000	-0.127118
889.519000	-2.198836
889.724000	0.065330
889.929000	-1.550509
890.135000	-2.904898
890.340000	-2.654518
890.545000	-3.430266
890.750000	-4.995185
890.956000	-3.761791
891.161000	-1.220913
891.366000	-3.649622
891.571000	-2.207460
891.777000	-2.288010
891.982000	0.343103
892.187000	-0.645581
892.392000	-0.881117
892.598000	-0.886147
892.803000	-0.132293
893.008000	-2.535108
893.213000	-3.487051
893.418000	-3.511629
893.624000	-4.176074
893.829000	-6.402310
894.034000	-3.132998
894.239000	-1.071193
894.445000	-3.913191
894.650000	-3.769554
894.855000	-4.551187
895.060000	-4.217008
895.266000	-3.668781
895.471000	-5.438592
895.676000	-2.074953
895.881000	-0.969435
896.087000	-2.550980
896.292000	-3.153970
896.497000	0.155737
896.702000	-1.773315
896.907000	-3.497521
897.113000	1.335906
897.318000	0.871901
897.523000	0.156258
897.728000	-1.793285
897.934000	-2.717178
898.139000	-2.131429
898.344000	0.072713
898.549000	-1.690535
898.755000	-2.812932
898.960000	-4.130595
899.165000	-5.736866
899.370000	-1.624254
899.575000	1.514892
899.781000	-3.515596
899.986000	-4.216308
900.191000	-2.701045
900.396000	-2.968864
900.602000	-2.454142
900.807000	-2.739641
901.012000	-1.767849
901.217000	-1.456572
901.423000	-3.743545
901.628000	-4.161896
901.833000	-0.104226
902.038000	-0.242039
902.244000	-3.884770
902.449000	-3.128865
902.654000	-3.485896
902.859000	-2.738774
903.064000	-0.710019
903.270000	0.172321
903.475000	-4.628279
903.680000	-7.556930
903.885000	-5.739864
904.091000	-5.297657
904.296000	-5.839695
904.501000	-5.625119
904.706000	-4.784573
904.912000	-0.207336
905.117000	-2.677606
905.322000	-5.676919
905.527000	-5.018969
905.733000	-4.292993
905.938000	-3.390332
906.143000	-4.866875
906.348000	-6.208633
906.553000	-2.310628
906.759000	-1.511194
906.964000	-3.222842
907.169000	-5.105954
907.374000	-5.597463
907.580000	-3.048737
907.785000	-2.946982
907.990000	26.322205
908.195000	18.099232
908.401000	0.452269
908.606000	-7.908551
908.811000	-10.302752
909.016000	-3.196769
909.221000	-2.160597
909.427000	-3.067312
909.632000	-5.535670
909.837000	-4.772582
910.042000	-6.019188
910.248000	-7.988224
910.453000	-3.371967
910.658000	-4.542954
910.863000	-4.810620
911.069000	-6.195124
911.274000	-2.054502
911.479000	-0.127465
911.684000	-6.937907
911.890000	-4.366944
912.095000	-3.311355
912.300000	-7.384170
912.506000	-6.881640
912.711000	-5.657091
912.917000	-2.069846
913.123000	-1.786338
913.328000	-2.945858
913.534000	-2.625175
913.740000	7.802382
913.946000	4.322455
914.151000	-4.239135
914.357000	-6.038590
914.563000	-1.896038
914.768000	-5.638122
914.974000	-8.388251
915.180000	-6.960606
915.385000	-4.321594
915.591000	-7.050549
915.797000	-2.595101
916.002000	-0.636086
916.208000	-4.383383
916.414000	-6.855498
916.620000	-6.870160
916.825000	-3.705137
917.031000	-4.333248
917.237000	-10.313954
917.442000	-5.602898
917.648000	-6.094527
917.854000	-7.560404
918.059000	-1.177573
918.265000	0.044987
918.471000	-2.861475
918.676000	-7.592418
918.882000	-10.336795
919.088000	-7.590683
919.294000	-11.629665
919.499000	-7.234455
919.705000	-0.758951
919.911000	-2.706585
920.116000	-2.598010
920.322000	-8.126885
920.528000	-6.800649
920.733000	-7.312231
920.939000	-8.597495
921.145000	-8.160604
921.350000	-6.221834
921.556000	-4.994252
921.762000	-5.123442
921.968000	-7.412169
922.173000	-8.606508
922.379000	-9.189357
922.585000	-6.564293
922.790000	-7.813918
922.996000	-6.994094
923.202000	-8.935554
923.407000	-7.795612
923.613000	-5.785341
923.819000	-3.253484
924.024000	-3.457429
924.230000	-1.525457
924.436000	-4.030601
924.642000	5.336345
924.847000	1.755982
925.053000	-5.586988
925.259000	-10.160035
925.464000	-4.307062
925.670000	-5.548730
925.876000	-8.601975
926.081000	-10.072306
926.287000	-6.525843
926.493000	-2.606351
926.698000	-4.631363
926.904000	-3.879982
927.110000	-4.468939
927.316000	-4.650097
927.521000	0.795212
927.727000	-5.100979
927.933000	-6.711016
928.138000	-5.145524
928.344000	-11.573836
928.550000	-5.553109
928.755000	-0.713937
928.961000	-5.691582
929.167000	-6.676340
929.372000	-0.026014
929.578000	-0.201274
929.784000	-8.400772
929.990000	-11.893123
930.195000	-8.106595
930.401000	-5.483383
930.607000	-5.048265
930.812000	-4.192169
931.018000	-7.209883
931.224000	-13.940343
931.429000	-10.948938
931.635000	-13.049351
931.841000	-12.430976
932.046000	-7.137238
932.252000	-2.661674
932.458000	3.577813
932.664000	-1.084466
932.869000	-6.561635
933.075000	-9.701522
933.281000	-11.997832
933.486000	-4.701440
933.692000	-5.221854
933.898000	-9.545234
934.103000	-1.439881
934.309000	-6.404842
934.515000	-4.629198
934.720000	-1.604291
934.926000	2.082980
935.132000	0.179894
935.338000	-4.631657
935.543000	-11.425181
935.749000	-10.875230
935.955000	-12.465589
936.160000	-12.164818
936.366000	-6.194423
936.572000	-3.689383
936.777000	-2.599293
936.983000	-1.086556
937.189000	-5.334079
937.394000	-11.253904
937.600000	-2.313984
937.806000	4.190679
938.012000	-4.453132
938.217000	4.782915
938.423000	1.829725
938.629000	-7.506697
938.834000	-15.334050
939.040000	-13.744538
939.246000	-8.470468
939.451000	-10.259066
939.657000	-6.571662
939.863000	-10.506978
940.068000	-2.046865
940.274000	-8.526306
940.480000	-6.455916
940.686000	-3.655223
940.891000	-8.172308
941.097000	15.930523
941.303000	2.488966
941.508000	-9.519057
941.714000	-4.024584
941.920000	-16.323705
942.125000	-5.401326
942.331000	-3.389728
942.537000	2.282337
942.742000	-0.337752
942.948000	-12.087399
943.154000	-12.952807
943.360000	-25.076261
943.565000	-12.028729
943.771000	0.710746
943.977000	5.662131
944.182000	-12.789192
944.388000	-16.308112
944.594000	-0.808761
944.799000	7.198544
945.005000	-6.865826
945.211000	-0.045604
945.416000	-1.126817
945.622000	-16.914206
945.828000	-14.750400
946.034000	-0.842580
946.239000	0.431635
946.445000	-9.176316
946.651000	-21.979201
946.856000	-17.009409
947.062000	0.267948
947.268000	2.015764
947.473000	-12.319029
947.679000	-13.997403
947.885000	-1.817431
948.090000	0.436921
948.296000	11.798925
948.502000	-3.292456
948.708000	-12.483142
948.913000	-16.107948
949.119000	-5.510770
949.325000	-8.329358
949.530000	-22.253794
949.736000	-26.305464
949.942000	-18.142699
950.147000	-18.606107
950.353000	-12.369951
950.559000	-7.775292
950.764000	10.900711
950.970000	8.302272
951.176000	-6.134196
951.382000	-13.010426
951.587000	-2.658116
951.793000	1.521469
951.999000	0.637862
952.204000	-15.545382
952.410000	-27.656435
952.616000	-13.575056
952.821000	-11.767891
953.027000	-17.829221
953.233000	-17.622567
953.438000	-17.041673
953.644000	3.307840
953.850000	-3.770270
954.056000	-13.111973
954.261000	-12.293496
954.467000	-2.760340
954.673000	0.846173
954.878000	-9.448286
955.084000	-6.565899
955.290000	-22.755487
955.495000	-18.268527
955.701000	-13.315143
955.907000	1.609327
956.112000	-0.795496
956.318000	5.078906
956.524000	5.879281
956.730000	-9.475689
956.935000	-10.638075
957.141000	-14.506856
957.347000	-3.865785
957.552000	-12.992958
957.758000	-32.228678
957.964000	-38.517351
958.169000	-1.217352
958.375000	0.523338
958.581000	-16.614380
958.786000	-23.692306
958.992000	-28.876898
959.198000	-12.405451
959.404000	-3.631041
959.609000	-14.004007
959.815000	-17.084801
960.021000	2.768068
960.226000	-2.711039
960.432000	-28.203566
960.638000	-20.119866
960.843000	-10.392785
961.049000	-10.608846
961.255000	-1.107918
961.460000	-13.748669
961.666000	-32.956316
961.872000	-20.866865
962.078000	-18.056077
962.283000	-25.325767
962.489000	-27.642760
962.695000	-18.170195
962.900000	-10.452730
963.106000	-6.190743
963.312000	-14.027062
963.517000	-25.280449
963.723000	-28.063567
963.929000	1.730223
964.134000	7.333448
964.340000	-17.529559
964.546000	-19.116373
964.752000	-21.459657
964.957000	-28.140337
965.163000	-4.980665
965.369000	-11.916240
965.574000	-10.124543
965.780000	-13.247152
966.000000	-23.806762
966.220000	-17.919670
966.440000	-9.770982
966.661000	-0.561022
966.881000	-19.891846
967.101000	-40.475371
967.321000	-40.512327
967.541000	-22.632256
967.761000	-25.652607
967.981000	-16.864507
968.202000	-12.901924
968.422000	1.210389
968.642000	-0.847233
968.862000	-8.203824
969.082000	-17.504982
969.302000	-5.806866
969.522000	-8.654920
969.743000	3.835665
969.963000	-14.214201
970.183000	-25.651584
970.403000	-27.741745
970.623000	-25.792337
970.843000	1.845909
971.063000	-0.363689
971.284000	-22.319816
971.504000	-37.324980
971.724000	-14.667503
971.944000	-21.381546
972.164000	-37.643928
972.384000	-26.557117
972.604000	-38.610866
972.825000	-46.702158
973.045000	-34.436577
973.265000	13.272067
973.485000	4.143028
973.705000	-16.208870
973.925000	-25.406573
974.145000	-55.256253
974.365000	-15.271246
974.586000	-15.360743
974.806000	-31.725831
975.026000	-3.608078
975.246000	-19.597998
975.466000	-29.147228
975.686000	-12.489174
975.906000	-20.454177
976.127000	-43.892872
976.347000	-38.901535
976.567000	-4.747368
976.787000	-9.091131
977.007000	-19.003767
977.227000	-34.030301
977.447000	-37.888797
977.668000	-50.492776
977.888000	-39.795715
978.108000	-44.598258
978.328000	-23.054771
978.548000	3.425593
978.768000	9.245237
978.988000	0.263071
979.209000	-22.558755
979.429000	-19.302213
979.649000	-5.259899
979.869000	-30.546582
980.089000	-49.870717
980.309000	-54.284629
980.529000	-59.098260
980.750000	-35.090444
980.970000	-42.417543
981.190000	-24.755154
981.410000	-28.709333
981.630000	-35.040109
981.850000	-28.214620
982.070000	-30.608555
982.291000	-66.402171
982.511000	-57.800818
982.731000	-13.907368
982.951000	-26.532602
983.171000	-20.110993
983.391000	-20.391417
983.611000	-0.131052
983.832000	-26.914310
984.052000	-54.886716
984.272000	-27.244779
984.492000	-19.618568
984.712000	-37.494508
984.932000	-54.183291
985.152000	-60.617109
985.373000	-46.250873
985.593000	-13.826789
985.813000	-31.474370
986.033000	-39.960724
986.253000	2.338827
986.473000	-4.400658
986.693000	-38.636657
986.914000	-40.437656
987.134000	5.455946
987.354000	-34.392775
987.574000	186.656852
987.794000	109.458921
988.014000	-44.426010
988.234000	-34.521847
988.455000	-21.647805
988.675000	-15.113071
988.895000	-25.379563
989.115000	-45.990257
989.335000	-27.238651
989.555000	-2.420609
989.775000	-55.171625
989.995000	-41.355376
990.216000	-23.404286
990.436000	-22.084086
990.656000	5.305650
990.876000	-24.009172
991.096000	-10.528776
991.316000	21.524755
991.536000	-23.029395
991.757000	-41.107626
991.977000	-91.500671
992.197000	-25.961239
992.417000	-42.513332
992.637000	-80.416080
992.857000	-82.150163
993.077000	-75.274751
993.298000	-41.346164
993.518000	-50.250439
993.738000	-95.855340
993.958000	-50.344748
994.178000	-47.004779
994.398000	-53.061509
994.618000	-94.011873
994.839000	-132.014123
995.059000	-28.144128
995.279000	20.426230
995.499000	-24.111335
995.719000	2.003932
995.939000	-31.461950
996.159000	-49.486310
996.380000	-41.032619
996.600000	-78.156662
996.820000	-44.807476
997.040000	14.329241
997.260000	-41.029005
997.480000	-44.074350
997.700000	-101.942021
997.921000	-75.607151
998.141000	29.981784
998.361000	-10.973117
998.581000	-67.377094
998.801000	-95.872967
999.021000	-61.599165
999.241000	-41.205285
999.462000	-62.345861
999.682000	-101.481490
999.902000	-82.891789
1000.122000	-102.220100
1000.342000	-160.584288
1000.562000	-82.272368
1000.782000	-75.828848
1001.003000	-1018.213570
