Wavelength	Irradiance
(nm)	(mW/cm2/nm)

294.396000	0.000000
294.577000	0.000000
294.757000	-0.000000
294.938000	-0.000000
295.118000	-0.000000
295.299000	0.000000
295.479000	-0.000000
295.660000	-0.000000
295.840000	-0.000000
296.021000	-0.000000
296.202000	-0.000000
296.382000	-0.000000
296.563000	-0.000000
296.743000	-0.000000
296.924000	-0.000000
297.104000	-0.000000
297.285000	-0.000000
297.465000	-0.000000
297.646000	-0.000000
297.826000	-0.000000
298.007000	0.000000
298.187000	-0.000000
298.368000	-0.000000
298.548000	0.000000
298.729000	0.000000
298.909000	-0.000000
299.090000	-0.000000
299.270000	-0.000000
299.451000	-0.000000
299.631000	-0.000000
299.812000	-0.000000
299.992000	0.000000
300.173000	0.000000
300.353000	-0.000000
300.534000	0.000000
300.714000	0.000000
300.895000	0.000000
301.075000	-0.000000
301.256000	0.000000
301.436000	-0.000000
301.617000	-0.000000
301.797000	-0.000000
301.978000	-0.000000
302.159000	0.000000
302.339000	0.000000
302.520000	-0.000000
302.700000	-0.000000
302.881000	0.000000
303.061000	0.000000
303.242000	0.000000
303.422000	0.000000
303.603000	-0.000000
303.783000	-0.000000
303.964000	-0.000000
304.144000	-0.000000
304.325000	-0.000000
304.505000	0.000000
304.686000	0.000000
304.866000	0.000000
305.047000	-0.000000
305.227000	-0.000000
305.408000	-0.000000
305.588000	-0.000000
305.769000	-0.000000
305.949000	-0.000000
306.130000	-0.000000
306.310000	-0.000000
306.491000	-0.000000
306.671000	0.000000
306.852000	-0.000000
307.032000	-0.000000
307.213000	-0.000000
307.393000	-0.000000
307.574000	0.000000
307.755000	0.000000
307.935000	-0.000000
308.116000	-0.000000
308.296000	-0.000000
308.477000	-0.000000
308.657000	0.000000
308.838000	0.000000
309.018000	0.000000
309.199000	-0.000000
309.379000	-0.000000
309.560000	0.000000
309.740000	-0.000000
309.921000	0.000000
310.101000	-0.000000
310.282000	-0.000000
310.462000	-0.000000
310.643000	-0.000000
310.823000	-0.000000
311.004000	-0.000000
311.184000	-0.000000
311.365000	0.000000
311.545000	0.000000
311.726000	0.000000
311.906000	0.000000
312.087000	0.000000
312.267000	-0.000000
312.448000	-0.000000
312.628000	-0.000000
312.809000	-0.000000
312.989000	-0.000000
313.170000	-0.000000
313.344000	-0.000000
313.518000	-0.000000
313.691000	-0.000000
313.865000	-0.000000
314.039000	-0.000000
314.213000	-0.000000
314.387000	-0.000000
314.560000	-0.000000
314.734000	-0.000000
314.908000	-0.000000
315.082000	-0.000000
315.255000	0.000000
315.429000	0.000000
315.603000	-0.000000
315.777000	-0.000000
315.951000	0.000000
316.124000	-0.000000
316.298000	-0.000000
316.472000	-0.000000
316.646000	-0.000000
316.820000	-0.000000
316.993000	0.000000
317.167000	-0.000000
317.341000	-0.000000
317.515000	-0.000000
317.688000	-0.000000
317.862000	-0.000000
318.036000	-0.000000
318.210000	-0.000000
318.384000	-0.000000
318.557000	-0.000000
318.731000	-0.000000
318.905000	0.000000
319.079000	0.000000
319.253000	-0.000000
319.426000	0.000000
319.600000	0.000000
319.774000	-0.000000
319.948000	-0.000000
320.122000	0.000000
320.295000	0.000000
320.469000	-0.000000
320.643000	-0.000000
320.817000	-0.000000
320.990000	-0.000000
321.164000	-0.000000
321.338000	-0.000000
321.512000	-0.000000
321.686000	-0.000000
321.859000	-0.000000
322.033000	-0.000000
322.207000	-0.000000
322.381000	-0.000000
322.555000	0.000000
322.728000	-0.000000
322.902000	-0.000000
323.076000	-0.000000
323.250000	-0.000000
323.423000	-0.000000
323.597000	-0.000000
323.771000	-0.000000
323.945000	-0.000000
324.119000	-0.000000
324.292000	-0.000000
324.466000	-0.000000
324.640000	0.000000
324.814000	0.000000
324.988000	-0.000000
325.161000	-0.000000
325.335000	-0.000000
325.509000	-0.000000
325.683000	-0.000000
325.856000	-0.000000
326.030000	-0.000000
326.204000	-0.000000
326.378000	-0.000000
326.552000	-0.000000
326.725000	-0.000000
326.899000	-0.000000
327.073000	-0.000000
327.247000	-0.000000
327.421000	0.000000
327.594000	-0.000000
327.768000	-0.000000
327.942000	-0.000000
328.116000	0.000000
328.289000	0.000000
328.463000	0.000000
328.637000	0.000000
328.811000	-0.000000
328.985000	-0.000000
329.158000	-0.000000
329.332000	-0.000000
329.506000	-0.000000
329.680000	-0.000000
329.854000	-0.000000
330.027000	0.000000
330.201000	0.000000
330.375000	0.000000
330.549000	0.000000
330.723000	-0.000000
330.896000	-0.000000
331.070000	-0.000000
331.244000	-0.000000
331.418000	-0.000000
331.591000	0.000000
331.765000	-0.000000
331.939000	-0.000000
332.113000	-0.000000
332.287000	-0.000000
332.460000	0.000000
332.634000	0.000000
332.808000	-0.000000
332.982000	-0.000000
333.156000	-0.000000
333.329000	-0.000000
333.503000	-0.000000
333.677000	-0.000000
333.851000	-0.000000
334.024000	-0.000000
334.198000	-0.000000
334.372000	-0.000000
334.546000	-0.000000
334.720000	-0.000000
334.893000	-0.000000
335.067000	-0.000000
335.241000	-0.000000
335.415000	-0.000000
335.589000	-0.000000
335.762000	-0.000000
335.936000	-0.000000
336.110000	-0.000000
336.284000	-0.000000
336.458000	-0.000000
336.631000	-0.000000
336.805000	-0.000000
336.979000	-0.000000
337.153000	-0.000000
337.326000	-0.000000
337.500000	-0.000000
337.674000	-0.000000
337.848000	-0.000000
338.022000	0.000000
338.195000	-0.000000
338.369000	-0.000000
338.543000	-0.000000
338.717000	-0.000000
338.891000	0.000000
339.064000	0.000000
339.238000	-0.000000
339.412000	-0.000000
339.586000	-0.000000
339.759000	-0.000000
339.933000	-0.000000
340.107000	0.000000
340.281000	-0.000000
340.455000	-0.000000
340.628000	-0.000000
340.802000	-0.000000
340.976000	0.000000
341.150000	-0.000000
341.324000	-0.000000
341.497000	-0.000000
341.671000	-0.000000
341.845000	-0.000000
342.019000	-0.000000
342.192000	-0.000000
342.366000	-0.000000
342.540000	-0.000000
342.714000	-0.000000
342.888000	-0.000000
343.061000	-0.000000
343.235000	-0.000000
343.409000	-0.000000
343.583000	-0.000000
343.757000	-0.000000
343.930000	-0.000000
344.104000	-0.000000
344.278000	0.000000
344.452000	0.000000
344.626000	-0.000000
344.799000	-0.000000
344.973000	-0.000000
345.147000	-0.000000
345.321000	-0.000000
345.494000	-0.000000
345.668000	0.000000
345.842000	0.000000
346.016000	-0.000000
346.190000	0.000000
346.363000	0.000000
346.537000	-0.000000
346.711000	-0.000000
346.885000	-0.000000
347.059000	-0.000000
347.232000	-0.000000
347.406000	0.000000
347.580000	-0.000000
347.754000	-0.000000
347.927000	0.000000
348.101000	0.000000
348.275000	-0.000000
348.449000	-0.000000
348.623000	-0.000000
348.796000	0.000000
348.970000	0.000000
349.144000	-0.000000
349.318000	-0.000000
349.492000	-0.000000
349.665000	-0.000000
349.839000	-0.000000
350.013000	-0.000000
350.187000	-0.000000
350.361000	-0.000000
350.534000	-0.000000
350.708000	-0.000000
350.882000	-0.000000
351.056000	0.000000
351.229000	0.000000
351.403000	-0.000000
351.577000	-0.000000
351.751000	-0.000000
351.925000	-0.000000
352.098000	-0.000000
352.272000	-0.000000
352.446000	-0.000000
352.620000	-0.000000
352.794000	-0.000000
352.967000	-0.000000
353.141000	0.000000
353.315000	0.000000
353.489000	-0.000000
353.662000	-0.000000
353.836000	-0.000000
354.010000	-0.000000
354.184000	-0.000000
354.358000	-0.000000
354.531000	-0.000000
354.705000	-0.000000
354.879000	-0.000000
355.053000	-0.000000
355.227000	0.000000
355.400000	-0.000000
355.574000	-0.000000
355.748000	0.000000
355.922000	-0.000000
356.095000	-0.000000
356.269000	0.000000
356.443000	-0.000000
356.617000	-0.000000
356.791000	-0.000000
356.964000	-0.000000
357.138000	-0.000000
357.312000	-0.000000
357.486000	-0.000000
357.660000	-0.000000
357.833000	-0.000000
358.007000	-0.000000
358.181000	-0.000000
358.355000	-0.000000
358.529000	-0.000000
358.702000	-0.000000
358.876000	-0.000000
359.050000	-0.000000
359.224000	-0.000000
359.397000	0.000000
359.571000	-0.000000
359.745000	-0.000000
359.919000	-0.000000
360.093000	-0.054384
360.266000	0.095366
360.440000	0.104267
360.614000	0.128937
360.788000	0.090762
360.962000	-0.191628
361.135000	-0.031765
361.309000	-0.181257
361.483000	-0.329031
361.657000	-0.252712
361.830000	-0.246260
362.004000	0.030623
362.178000	-0.343504
362.352000	-0.246871
362.526000	-0.037574
362.699000	-0.017364
362.873000	-0.366650
363.047000	-0.374016
363.221000	-0.336251
363.395000	-0.189068
363.568000	-0.165445
363.742000	-0.228233
363.916000	-0.187106
364.090000	-0.239717
364.263000	-0.323352
364.437000	-0.386359
364.611000	-0.031324
364.785000	0.003054
364.959000	-0.176015
365.132000	-0.216782
365.306000	-0.248380
365.480000	-0.087242
365.656000	-0.190043
365.831000	-0.170553
366.007000	-0.123632
366.183000	-0.139176
366.358000	-0.240711
366.534000	-0.112233
366.710000	-0.275316
366.886000	-0.261096
367.061000	-0.121678
367.237000	0.029646
367.413000	-0.085535
367.588000	-0.322916
367.764000	-0.284347
367.940000	-0.309619
368.115000	-0.324605
368.291000	-0.365551
368.467000	-0.206051
368.643000	0.097447
368.818000	-0.223747
368.994000	-0.384661
369.170000	-0.317228
369.345000	-0.257328
369.521000	-0.312988
369.697000	-0.197456
369.872000	-0.227230
370.048000	-0.371791
370.224000	-0.350905
370.399000	-0.511819
370.575000	-0.434475
370.751000	-0.465006
370.927000	-0.458734
371.102000	-0.372528
371.278000	-0.281857
371.454000	-0.212924
371.629000	-0.057110
371.805000	-0.154466
371.981000	0.083078
372.156000	0.306216
372.332000	0.099001
372.508000	0.017176
372.683000	0.007845
372.859000	-0.168699
373.035000	-0.273849
373.211000	0.229538
373.386000	0.003292
373.562000	-0.479256
373.738000	-0.526916
373.913000	-0.565373
374.089000	-0.482788
374.265000	-0.038949
374.440000	0.055392
374.616000	0.059996
374.792000	-0.208189
374.968000	0.141295
375.143000	-0.015289
375.319000	-0.278404
375.495000	-0.390399
375.670000	-0.269150
375.846000	-0.192294
376.022000	-0.293104
376.197000	-0.230033
376.373000	-0.359268
376.549000	-0.367180
376.724000	-0.446535
376.900000	-0.293473
377.076000	-0.157077
377.252000	0.048035
377.427000	0.179349
377.603000	-0.166006
377.779000	-0.156918
377.954000	-0.406830
378.130000	-0.342939
378.306000	-0.164738
378.481000	-0.082709
378.657000	-0.145240
378.833000	-0.288644
379.009000	-0.210764
379.184000	-0.096522
379.360000	-0.118135
379.536000	-0.123644
379.711000	-0.250016
379.887000	-0.296245
380.063000	-0.275146
380.238000	-0.340364
380.414000	-0.068763
380.590000	-0.260022
380.765000	-0.272789
380.941000	-0.055022
381.117000	-0.094675
381.293000	-0.200879
381.468000	-0.303882
381.644000	-0.188253
381.820000	-0.166146
381.995000	-0.077815
382.171000	0.211047
382.347000	0.183709
382.522000	-0.221279
382.698000	0.137101
382.874000	0.119059
383.050000	-0.248226
383.225000	0.177915
383.401000	0.281912
383.577000	-0.114562
383.752000	-0.201168
383.928000	-0.165270
384.104000	-0.083116
384.279000	-0.242274
384.455000	-0.147089
384.631000	-0.160574
384.806000	-0.300800
384.982000	-0.103189
385.158000	-0.215753
385.334000	-0.181663
385.509000	-0.191254
385.685000	-0.364751
385.861000	-0.221205
386.036000	-0.368611
386.212000	-0.528599
386.388000	-0.308462
386.563000	-0.281600
386.739000	-0.346539
386.915000	-0.505464
387.090000	-0.232953
387.266000	-0.054596
387.442000	0.069622
387.618000	-0.045314
387.793000	-0.338565
387.969000	-0.520227
388.145000	-0.346266
388.320000	-0.340726
388.496000	-0.350149
388.672000	-0.623001
388.847000	-0.237741
389.023000	-0.063013
389.199000	-0.320251
389.375000	-0.088636
389.550000	-0.278625
389.726000	-0.214168
389.902000	-0.333833
390.077000	-0.091490
390.253000	-0.053745
390.429000	-0.221077
390.604000	-0.167170
390.780000	-0.118565
390.956000	-0.208148
391.131000	-0.138930
391.307000	0.136445
391.483000	-0.156185
391.659000	-0.337999
391.834000	-0.121639
392.010000	-0.271707
392.186000	-0.349334
392.361000	-0.319945
392.537000	-0.410691
392.713000	0.024130
392.888000	0.325185
393.064000	0.100841
393.240000	-0.226213
393.416000	-0.267002
393.591000	-0.298670
393.767000	-0.482885
393.943000	-0.321109
394.118000	0.086632
394.294000	0.157675
394.470000	-0.009595
394.645000	0.086078
394.821000	0.253877
394.997000	-0.022029
395.172000	-0.104603
395.348000	-0.187661
395.524000	-0.449855
395.700000	-0.301535
395.875000	-0.103835
396.051000	-0.136490
396.227000	-0.170542
396.402000	-0.237868
396.578000	-0.129603
396.754000	-0.343047
396.929000	-0.308715
397.105000	0.039709
397.281000	-0.038059
397.457000	-0.197086
397.632000	-0.178860
397.808000	-0.346590
397.984000	-0.514676
398.159000	-0.487005
398.335000	-0.265979
398.511000	0.246786
398.686000	0.023150
398.862000	-0.275520
399.038000	-0.423683
399.213000	-0.197429
399.389000	-0.424770
399.565000	-0.129929
399.741000	0.063084
399.916000	0.031238
400.092000	0.253124
400.268000	-0.085282
400.443000	-0.256465
400.619000	0.152459
400.795000	0.100255
400.970000	-0.109341
401.146000	-0.194207
401.322000	0.047362
401.497000	0.443742
401.673000	0.108559
401.849000	-0.183575
402.025000	-0.069810
402.200000	-0.186325
402.376000	-0.302896
402.552000	0.148237
402.727000	0.075179
402.903000	-0.265982
403.079000	-0.213972
403.254000	0.018884
403.430000	0.050687
403.606000	-0.081154
403.782000	-0.105008
403.957000	-0.253457
404.133000	-0.354471
404.309000	-0.189823
404.484000	-0.049186
404.660000	-0.105463
404.841000	-0.225902
405.023000	0.030727
405.204000	-0.005203
405.385000	-0.278631
405.566000	-0.365435
405.748000	-0.179163
405.929000	0.047555
406.110000	-0.101644
406.292000	-0.180177
406.473000	-0.100877
406.654000	-0.290569
406.835000	-0.045259
407.017000	-0.124889
407.198000	-0.143224
407.379000	-0.150698
407.560000	-0.206428
407.742000	-0.219962
407.923000	-0.205184
408.104000	-0.259939
408.286000	-0.040918
408.467000	0.042402
408.648000	-0.219820
408.829000	-0.341840
409.011000	-0.211388
409.192000	-0.343601
409.373000	-0.172165
409.555000	-0.112543
409.736000	-0.123639
409.917000	-0.231149
410.098000	-0.198110
410.280000	-0.044184
410.461000	-0.063621
410.642000	-0.028545
410.823000	0.198181
411.005000	0.081017
411.186000	-0.134336
411.367000	-0.205009
411.549000	-0.138272
411.730000	0.045816
411.911000	0.174747
412.092000	0.006626
412.274000	-0.070790
412.455000	-0.016668
412.636000	0.041514
412.818000	-0.171195
412.999000	-0.265994
413.180000	-0.155618
413.361000	-0.117439
413.543000	-0.112956
413.724000	-0.201108
413.905000	-0.185733
414.087000	-0.112906
414.268000	-0.096424
414.449000	-0.161516
414.630000	-0.277139
414.812000	-0.345434
414.993000	-0.016308
415.174000	0.165814
415.355000	0.006490
415.537000	-0.271004
415.718000	0.033102
415.899000	-0.088388
416.081000	-0.220250
416.262000	0.025260
416.443000	-0.072581
416.624000	-0.098677
416.806000	0.085333
416.987000	0.274602
417.168000	0.179093
417.350000	0.055179
417.531000	-0.004850
417.712000	0.006342
417.893000	0.222649
418.075000	0.232961
418.256000	0.073407
418.437000	0.159752
418.618000	0.341839
418.800000	0.415741
418.981000	0.121103
419.162000	0.204955
419.344000	0.410007
419.525000	0.263271
419.706000	0.211372
419.887000	0.378368
420.069000	0.574945
420.250000	0.433602
420.431000	0.362126
420.613000	0.281912
420.794000	0.129470
420.975000	0.416150
421.156000	0.272666
421.338000	0.331591
421.519000	0.301956
421.700000	0.295438
421.882000	0.336153
422.063000	0.564551
422.244000	0.903793
422.425000	0.707849
422.607000	0.439153
422.788000	0.403692
422.969000	0.360331
423.150000	0.375518
423.332000	0.337618
423.513000	0.453194
423.694000	0.511268
423.876000	0.646680
424.057000	0.728230
424.238000	0.734680
424.419000	0.796449
424.601000	0.680831
424.782000	0.739706
424.963000	0.932926
425.145000	0.876244
425.326000	1.030981
425.507000	0.996337
425.688000	0.905220
425.870000	0.860545
426.051000	0.725555
426.232000	0.751313
426.413000	0.829933
426.595000	0.862494
426.776000	0.998586
426.957000	0.995484
427.139000	1.024477
427.320000	1.188341
427.501000	1.352928
427.682000	1.287089
427.864000	1.419548
428.045000	1.675998
428.226000	1.581455
428.408000	1.326979
428.589000	1.476921
428.770000	1.492049
428.951000	1.415725
429.133000	1.304822
429.314000	1.494013
429.495000	1.562279
429.677000	1.575161
429.858000	1.595257
430.039000	1.770212
430.220000	2.057813
430.402000	2.183558
430.583000	1.920007
430.764000	1.930690
430.945000	2.154818
431.127000	2.256130
431.308000	2.165922
431.489000	2.466265
431.671000	2.520349
431.852000	2.503493
432.033000	2.492846
432.214000	2.636941
432.396000	2.771319
432.577000	2.581302
432.758000	2.435200
432.940000	2.610852
433.121000	2.873363
433.302000	3.023213
433.483000	3.172657
433.665000	3.441999
433.846000	3.466625
434.027000	3.322745
434.208000	3.357866
434.390000	3.373855
434.571000	3.800482
434.752000	4.233841
434.934000	4.167973
435.115000	4.210480
435.296000	4.184172
435.477000	4.111467
435.659000	3.976767
435.840000	4.232348
436.026000	4.265548
436.211000	4.327629
436.397000	4.171229
436.582000	4.398938
436.768000	4.801028
436.953000	4.811979
437.139000	4.933935
437.325000	5.422333
437.510000	5.442374
437.696000	5.684005
437.881000	5.778674
438.067000	5.501699
438.252000	5.670813
438.438000	5.738941
438.624000	5.993409
438.809000	6.218697
438.995000	6.385713
439.180000	6.423927
439.366000	6.522729
439.551000	6.609173
439.737000	6.802673
439.923000	7.079854
440.108000	7.182464
440.294000	7.343079
440.479000	7.606793
440.665000	7.734791
440.850000	7.701826
441.036000	7.889546
441.222000	8.241240
441.407000	8.289917
441.593000	8.470326
441.778000	8.716164
441.964000	9.026553
442.149000	8.852815
442.335000	8.993221
442.521000	9.210871
442.706000	9.603854
442.892000	9.684759
443.077000	9.891502
443.263000	10.204095
443.448000	10.304883
443.634000	10.400262
443.820000	10.891660
444.005000	10.965572
444.191000	10.968896
444.376000	11.169336
444.562000	11.695111
444.747000	12.011216
444.933000	12.115335
445.119000	12.282183
445.304000	12.320256
445.490000	12.774107
445.675000	13.011760
445.861000	13.104257
446.046000	13.370650
446.232000	13.637235
446.418000	13.858763
446.603000	14.164262
446.789000	14.401372
446.974000	14.659567
447.160000	14.699429
447.345000	15.019325
447.531000	15.237849
447.717000	15.730223
447.902000	16.084402
448.088000	16.331226
448.273000	16.437547
448.459000	16.666410
448.644000	16.824079
448.830000	17.121947
449.016000	17.396424
449.201000	17.919951
449.387000	18.322251
449.572000	18.599834
449.758000	18.590844
449.943000	18.851877
450.129000	19.041809
450.315000	19.289499
450.500000	19.621541
450.686000	20.185001
450.871000	20.476271
451.057000	20.696862
451.243000	20.925171
451.428000	21.250066
451.614000	21.517825
451.799000	21.854358
451.985000	22.288362
452.170000	22.483999
452.356000	22.599789
452.542000	22.774637
452.727000	23.116768
452.913000	23.387252
453.098000	23.811863
453.284000	24.182509
453.469000	24.396485
453.655000	24.755693
453.841000	24.807611
454.026000	24.770743
454.212000	24.889418
454.397000	25.103544
454.583000	25.338080
454.768000	25.359275
454.954000	25.833555
455.140000	26.068598
455.325000	25.971951
455.511000	25.942739
455.696000	26.144066
455.882000	26.311839
456.067000	26.696645
456.253000	26.704614
456.439000	26.682041
456.624000	26.671540
456.810000	26.607429
456.995000	26.797704
457.181000	26.643835
457.366000	26.704302
457.552000	26.756385
457.738000	27.034301
457.923000	26.883474
458.109000	26.946709
458.294000	26.886040
458.480000	26.753819
458.665000	26.555169
458.851000	26.209676
459.037000	25.814301
459.222000	25.843432
459.408000	25.725967
459.593000	25.637951
459.779000	25.552862
459.964000	25.540679
460.150000	25.519666
460.336000	25.129333
460.521000	24.536917
460.707000	24.124795
460.892000	23.938006
461.078000	24.071656
461.263000	23.708429
461.449000	23.232445
461.635000	22.850071
461.820000	22.676511
462.006000	22.437851
462.191000	22.051608
462.377000	21.592706
462.562000	21.809158
462.748000	21.568436
462.934000	20.934024
463.119000	20.250989
463.305000	20.074141
463.490000	19.796655
463.676000	19.558635
463.861000	19.331099
464.047000	18.940362
464.233000	18.592800
464.418000	18.294819
464.604000	17.789781
464.789000	17.641018
464.975000	17.443814
465.160000	17.204790
465.346000	16.932577
465.532000	16.463306
465.717000	16.053061
465.903000	16.116721
466.088000	15.800622
466.274000	15.328153
466.459000	14.993586
466.645000	15.074570
466.831000	14.649341
467.016000	14.369215
467.202000	14.082069
467.387000	13.765926
467.573000	13.389621
467.758000	13.454646
467.944000	13.154663
468.130000	12.847717
468.315000	12.860334
468.501000	12.766376
468.686000	12.444406
468.872000	12.078503
469.057000	11.967943
469.243000	11.752767
469.429000	11.450035
469.614000	11.180101
469.800000	11.036619
469.985000	11.103463
470.171000	10.868755
470.356000	10.577407
470.542000	10.615153
470.728000	10.418269
470.913000	10.162153
471.099000	10.183196
471.284000	9.951521
471.470000	9.785483
471.655000	9.634652
471.841000	9.367920
472.027000	9.127654
472.212000	9.280976
472.398000	9.196308
472.583000	8.924997
472.769000	8.831820
472.954000	8.697149
473.140000	8.388324
473.326000	8.222469
473.511000	8.429630
473.697000	8.333097
473.882000	8.125541
474.068000	7.912747
474.253000	7.640307
474.439000	7.731147
474.625000	7.677739
474.810000	7.503542
474.996000	7.318235
475.181000	7.000296
475.367000	7.074724
475.552000	7.216414
475.738000	6.761389
475.924000	6.740108
476.109000	6.785085
476.295000	6.440654
476.480000	6.391095
476.666000	6.339311
476.851000	6.195746
477.037000	6.135148
477.223000	5.841525
477.408000	5.654982
477.594000	5.576703
477.779000	5.534723
477.965000	5.348236
478.151000	5.192487
478.336000	5.239490
478.522000	5.038871
478.707000	4.926056
478.893000	4.989694
479.078000	4.810265
479.264000	4.738160
479.450000	4.649758
479.635000	4.688545
479.821000	4.544326
480.006000	4.430859
480.192000	4.294202
480.377000	4.252708
480.563000	4.225966
480.749000	3.949183
480.934000	3.874445
481.120000	3.851809
481.305000	3.849298
481.491000	3.743815
481.676000	3.786136
481.862000	3.854321
482.048000	3.529474
482.233000	3.412815
482.419000	3.392350
482.604000	3.316834
482.790000	3.237915
482.975000	3.119488
483.161000	3.200248
483.347000	3.144522
483.532000	3.063621
483.718000	2.836805
483.903000	2.784298
484.089000	2.752221
484.274000	2.576265
484.460000	2.728029
484.646000	2.685967
484.831000	2.484765
485.017000	2.429159
485.202000	2.432969
485.388000	2.577239
485.573000	2.541365
485.759000	2.342896
485.945000	2.500600
486.130000	2.249031
486.316000	2.227447
486.501000	2.336314
486.687000	2.073081
486.872000	1.907105
487.058000	2.059543
487.244000	2.077625
487.429000	1.864913
487.615000	1.999344
487.800000	2.063252
487.986000	1.910712
488.171000	1.923498
488.357000	1.841948
488.543000	1.876780
488.728000	1.846918
488.914000	1.731691
489.099000	1.666929
489.285000	1.590992
489.470000	1.766512
489.656000	1.754012
489.842000	1.661942
490.027000	1.681610
490.213000	1.533213
490.398000	1.250403
490.584000	1.443784
490.769000	1.463005
490.955000	1.498866
491.141000	1.479144
491.326000	1.433079
491.512000	1.568653
491.697000	1.451238
491.883000	1.266849
492.068000	1.171782
492.254000	1.165694
492.440000	1.241269
492.625000	1.156106
492.811000	1.126666
492.996000	1.230675
493.182000	1.188982
493.367000	0.948863
493.553000	0.941005
493.739000	1.020661
493.924000	1.021829
494.110000	1.072530
494.295000	0.950970
494.481000	0.984446
494.666000	0.974369
494.852000	1.123427
495.038000	0.981552
495.223000	0.878185
495.409000	0.878805
495.594000	0.877573
495.780000	0.902081
495.965000	0.768897
496.151000	0.944762
496.337000	0.967966
496.522000	0.716300
496.708000	0.799166
496.893000	0.903458
497.079000	0.791767
497.264000	0.742312
497.450000	0.758587
497.636000	0.809949
497.821000	0.634942
498.007000	0.821166
498.192000	0.866939
498.378000	0.708166
498.563000	0.604414
498.749000	0.650401
498.935000	0.612111
499.120000	0.708985
499.306000	0.539621
499.491000	0.445238
499.677000	0.559230
499.862000	0.649270
500.048000	0.661087
500.234000	0.526309
500.419000	0.551272
500.605000	0.770652
500.790000	0.655141
500.976000	0.434525
501.161000	0.324938
501.347000	0.429051
501.533000	0.549547
501.718000	0.487813
501.904000	0.414015
502.089000	0.454836
502.275000	0.541872
502.460000	0.529614
502.646000	0.522219
502.832000	0.567888
503.017000	0.536932
503.203000	0.242989
503.388000	0.240887
503.574000	0.451853
503.759000	0.462443
503.945000	0.476643
504.131000	0.406902
504.316000	0.312831
504.502000	0.326359
504.687000	0.321853
504.873000	0.203658
505.058000	0.139073
505.244000	0.147107
505.430000	0.198578
505.615000	0.341815
505.801000	0.401893
505.986000	0.168642
506.172000	0.225262
506.358000	0.233868
506.543000	0.214869
506.729000	0.428108
506.914000	0.364165
507.100000	0.471208
507.285000	0.270919
507.471000	0.143044
507.657000	0.392714
507.842000	0.243109
508.028000	0.083261
508.213000	0.126970
508.399000	0.203519
508.584000	0.348262
508.770000	0.195195
508.956000	0.050948
509.141000	0.146176
509.327000	0.296502
509.512000	0.243707
509.698000	0.211425
509.883000	0.261130
510.069000	0.135978
510.255000	0.256476
510.440000	0.311604
510.626000	0.185441
510.811000	0.117131
510.997000	0.158311
511.182000	0.349953
511.368000	0.257057
511.554000	-0.069449
511.739000	0.037582
511.925000	0.298378
512.110000	0.265188
512.296000	0.375822
512.481000	0.303972
512.667000	0.153112
512.853000	-0.003574
513.038000	0.136834
513.224000	0.081790
513.409000	-0.042130
513.595000	0.081913
513.780000	-0.072499
513.966000	0.021175
514.152000	0.056931
514.337000	-0.022837
514.523000	0.048705
514.708000	0.125880
514.894000	0.148324
515.079000	-0.009079
515.265000	0.054387
515.451000	0.117933
515.636000	0.032291
515.822000	0.117994
516.007000	-0.039522
516.193000	0.051631
516.378000	0.165116
516.564000	0.062692
516.750000	0.087578
516.935000	0.189893
517.121000	0.198148
517.306000	0.259183
517.492000	0.237410
517.677000	-0.011899
517.863000	-0.061718
518.049000	0.096067
518.234000	0.051732
518.420000	0.143201
518.605000	0.298210
518.791000	0.217803
518.976000	0.129756
519.162000	0.024129
519.348000	0.079613
519.533000	0.090577
519.719000	0.287534
519.904000	0.176824
520.090000	0.090588
520.275000	0.304101
520.461000	0.307481
520.647000	0.124136
520.832000	-0.092727
521.018000	-0.000833
521.203000	0.013011
521.389000	-0.141910
521.574000	-0.045137
521.760000	0.096215
521.946000	0.057571
522.131000	-0.075992
522.317000	0.040856
522.502000	0.035282
522.688000	0.088105
522.873000	-0.025872
523.059000	-0.064866
523.245000	-0.011960
523.430000	-0.126155
523.616000	-0.123335
523.801000	-0.182042
523.987000	-0.112549
524.172000	0.041050
524.358000	0.055035
524.544000	0.052156
524.729000	0.171631
524.915000	0.180408
525.100000	0.021462
525.286000	0.068948
525.471000	0.046748
525.657000	0.063609
525.843000	-0.099033
526.028000	0.049692
526.214000	0.069318
526.399000	-0.088094
526.585000	-0.183824
526.770000	-0.209135
526.956000	-0.077034
527.142000	-0.093948
527.327000	0.078239
527.513000	-0.006504
527.698000	-0.128252
527.884000	-0.077573
528.069000	-0.083088
528.255000	0.075814
528.441000	0.030419
528.626000	-0.026520
528.812000	0.127365
528.997000	0.030549
529.183000	-0.066495
529.368000	-0.032398
529.554000	0.007762
529.740000	-0.000865
529.925000	-0.026816
530.111000	-0.015299
530.296000	0.010696
530.482000	0.115050
530.667000	0.033920
530.853000	0.138732
531.039000	0.019529
531.224000	0.010843
531.410000	0.110444
531.595000	0.051901
531.781000	0.078304
531.967000	-0.033325
532.152000	0.087862
532.338000	-0.042388
532.523000	-0.176111
532.709000	-0.197627
532.894000	-0.078781
533.080000	-0.009896
533.266000	-0.108934
533.451000	-0.139460
533.637000	-0.158045
533.822000	-0.000910
534.008000	-0.067597
534.193000	-0.034380
534.379000	0.047939
534.565000	-0.068366
534.750000	-0.093237
534.936000	0.085560
535.121000	-0.004026
535.307000	0.085930
535.492000	0.073639
535.678000	-0.147846
535.864000	-0.044919
536.049000	0.289708
536.235000	0.027516
536.420000	0.024465
536.606000	-0.055125
536.791000	-0.119558
536.977000	-0.174483
537.163000	0.028064
537.348000	0.063920
537.534000	0.136210
537.719000	-0.086121
537.905000	-0.244249
538.090000	-0.027393
538.276000	0.111614
538.462000	0.105332
538.647000	0.105758
538.833000	-0.044614
539.018000	0.056282
539.204000	0.056321
539.389000	-0.153820
539.575000	0.145113
539.761000	0.077529
539.946000	-0.193194
540.132000	-0.076820
540.317000	-0.149591
540.503000	0.043970
540.688000	0.086055
540.874000	0.229597
541.060000	0.309870
541.245000	0.153381
541.431000	-0.064474
541.616000	0.006006
541.802000	-0.015204
541.987000	0.119499
542.173000	0.141312
542.359000	-0.004633
542.544000	0.116363
542.730000	-0.068953
542.915000	-0.097770
543.101000	0.052676
543.286000	-0.065712
543.472000	-0.210653
543.658000	-0.124025
543.843000	-0.048210
544.029000	0.111638
544.214000	0.009831
544.400000	-0.281773
544.585000	-0.110692
544.771000	-0.089063
544.957000	0.153167
545.142000	0.248872
545.328000	0.282699
545.513000	0.290612
545.699000	0.258488
545.884000	0.091664
546.070000	0.087994
546.261000	0.077135
546.451000	-0.027287
546.642000	-0.240762
546.833000	-0.158660
547.023000	-0.274873
547.214000	-0.193151
547.405000	-0.019952
547.595000	0.221258
547.786000	0.191839
547.977000	-0.023903
548.167000	-0.141640
548.358000	-0.168964
548.549000	0.178773
548.740000	0.109867
548.930000	-0.273039
549.121000	-0.220058
549.312000	-0.224755
549.502000	-0.279400
549.693000	-0.113137
549.884000	-0.016609
550.074000	0.029846
550.265000	-0.218743
550.456000	-0.067379
550.646000	0.065197
550.837000	0.014450
551.028000	-0.095027
551.218000	-0.032449
551.409000	-0.173950
551.600000	-0.126939
551.790000	-0.005129
551.981000	-0.127433
552.172000	-0.135576
552.362000	0.133147
552.553000	0.221186
552.744000	0.006746
552.934000	-0.088571
553.125000	-0.096687
553.316000	-0.100730
553.506000	0.186317
553.697000	0.034839
553.888000	-0.009194
554.079000	0.190829
554.269000	0.187016
554.460000	-0.165808
554.651000	-0.186073
554.841000	-0.246632
555.032000	-0.150301
555.223000	-0.057703
555.413000	-0.021292
555.604000	-0.110138
555.795000	-0.150877
555.985000	-0.009323
556.176000	-0.110453
556.367000	-0.357174
556.557000	-0.244727
556.748000	-0.167942
556.939000	-0.167684
557.129000	-0.305470
557.320000	-0.163587
557.511000	-0.236212
557.701000	-0.207522
557.892000	-0.066202
558.083000	0.120495
558.273000	-0.049911
558.464000	-0.212237
558.655000	-0.070144
558.845000	-0.049725
559.036000	0.006877
559.227000	-0.102427
559.418000	0.059623
559.608000	0.120415
559.799000	-0.256322
559.990000	-0.395932
560.180000	-0.194797
560.371000	-0.324348
560.562000	-0.291589
560.752000	-0.110203
560.943000	-0.251604
561.134000	-0.395927
561.324000	-0.178213
561.515000	0.026903
561.706000	-0.113763
561.896000	-0.302040
562.087000	-0.229581
562.278000	-0.185435
562.468000	-0.366027
562.659000	-0.349035
562.850000	0.018803
563.040000	0.110818
563.231000	-0.345528
563.422000	-0.192748
563.612000	-0.240901
563.803000	-0.252426
563.994000	-0.259152
564.185000	-0.278528
564.375000	-0.104321
564.566000	-0.151736
564.757000	-0.128321
564.947000	-0.255147
565.138000	-0.088188
565.329000	-0.162997
565.519000	-0.332531
565.710000	-0.222306
565.901000	-0.009088
566.091000	0.038300
566.282000	-0.135120
566.473000	-0.118993
566.663000	-0.103164
566.854000	-0.317642
567.045000	-0.188220
567.235000	0.002727
567.426000	0.002726
567.617000	-0.032210
567.807000	-0.071048
567.998000	-0.105774
568.189000	-0.159978
568.379000	-0.078434
568.570000	-0.070608
568.761000	-0.162864
568.951000	-0.185670
569.142000	-0.270604
569.333000	-0.182067
569.524000	-0.281090
569.714000	-0.411435
569.905000	-0.456664
570.096000	-0.058555
570.286000	-0.012613
570.477000	0.128451
570.668000	0.033130
570.858000	-0.039221
571.049000	-0.179479
571.240000	-0.259293
571.430000	-0.073175
571.621000	-0.137140
571.812000	0.002634
572.002000	0.010177
572.193000	-0.249494
572.384000	-0.132781
572.574000	-0.046304
572.765000	-0.143919
572.956000	-0.210894
573.146000	0.103918
573.337000	-0.072261
573.528000	-0.150623
573.718000	-0.001118
573.909000	0.110557
574.100000	0.061943
574.290000	-0.130517
574.481000	-0.218762
574.672000	-0.156227
574.863000	-0.034211
575.053000	-0.078205
575.244000	-0.030402
575.435000	-0.184066
575.625000	-0.205114
575.816000	-0.255801
576.007000	-0.204861
576.197000	-0.190605
576.388000	-0.164452
576.579000	0.089639
576.769000	0.093159
576.960000	-0.200303
577.155000	-0.398417
577.350000	-0.156212
577.545000	0.042131
577.740000	-0.133918
577.935000	0.238978
578.130000	0.059880
578.326000	-0.329947
578.521000	-0.011791
578.716000	0.041612
578.911000	-0.231991
579.106000	-0.103703
579.301000	0.069512
579.496000	-0.131200
579.691000	-0.377099
579.886000	-0.214873
580.081000	-0.078047
580.276000	-0.119752
580.471000	-0.147657
580.666000	-0.286787
580.861000	-0.314553
581.057000	-0.276415
581.252000	-0.095181
581.447000	-0.199329
581.642000	-0.192695
581.837000	-0.199395
582.032000	-0.164129
582.227000	0.064511
582.422000	0.088494
582.617000	-0.155276
582.812000	-0.291634
583.007000	-0.247054
583.202000	-0.311404
583.397000	-0.038407
583.592000	0.158448
583.788000	-0.139680
583.983000	-0.082106
584.178000	0.009109
584.373000	-0.159088
584.568000	-0.162111
584.763000	-0.226101
584.958000	-0.286554
585.153000	-0.175707
585.348000	-0.178969
585.543000	-0.017814
585.738000	-0.064842
585.933000	-0.279933
586.128000	-0.071554
586.324000	-0.058269
586.519000	-0.038032
586.714000	-0.007747
586.909000	0.009111
587.104000	0.076853
587.299000	-0.017892
587.494000	-0.061695
587.689000	-0.112486
587.884000	-0.085720
588.079000	-0.146716
588.274000	-0.116435
588.469000	-0.146692
588.664000	-0.109570
588.859000	-0.041785
589.055000	0.002381
589.250000	-0.035048
589.445000	-0.154329
589.640000	-0.202187
589.835000	0.009228
590.030000	0.162977
590.225000	0.169841
590.420000	-0.014715
590.615000	-0.162009
590.810000	-0.172092
591.005000	-0.176231
591.200000	-0.224418
591.395000	-0.224384
591.591000	-0.175974
591.786000	-0.028448
591.981000	-0.080095
592.176000	-0.018256
592.371000	0.012750
592.566000	-0.080231
592.761000	0.102254
592.956000	0.033453
593.151000	0.143884
593.346000	0.068162
593.541000	0.043897
593.736000	0.044032
593.931000	-0.084287
594.126000	0.033695
594.322000	0.106639
594.517000	-0.060081
594.712000	-0.192135
594.907000	-0.147496
595.102000	0.016410
595.297000	0.155968
595.492000	0.247214
595.687000	0.002453
595.882000	-0.088687
596.077000	0.062166
596.272000	0.276357
596.467000	0.286984
596.662000	0.153653
596.857000	0.150737
597.053000	0.196959
597.248000	0.274634
597.443000	0.228988
597.638000	0.172776
597.833000	0.009588
598.028000	0.236561
598.223000	0.318756
598.418000	0.198288
598.613000	0.134191
598.808000	0.241161
599.003000	0.237855
599.198000	0.123898
599.393000	0.245222
599.589000	0.410532
599.784000	0.178009
599.979000	0.239250
600.174000	0.515802
600.369000	0.315123
600.564000	0.383890
600.759000	0.665300
600.954000	0.797232
601.149000	0.550790
601.344000	0.208336
601.539000	0.400170
601.734000	0.406867
601.929000	0.183497
602.124000	0.241607
602.320000	0.488770
602.515000	0.695709
602.710000	0.678962
602.905000	0.355251
603.100000	0.336528
603.295000	0.569912
603.490000	0.728381
603.685000	0.754041
603.880000	0.722088
604.075000	0.566463
604.270000	0.648391
604.465000	0.684565
604.660000	0.424575
604.856000	0.600273
605.051000	0.899018
605.246000	0.868912
605.441000	0.652805
605.636000	0.509679
605.831000	0.709413
606.026000	0.679678
606.221000	0.761678
606.416000	0.972961
606.611000	1.125364
606.806000	1.109577
607.001000	1.317908
607.196000	1.115733
607.391000	0.961752
607.587000	1.193773
607.782000	1.213931
607.977000	1.018301
608.172000	1.400771
608.367000	1.497429
608.562000	1.295497
608.757000	1.276457
608.952000	1.264497
609.147000	1.654443
609.342000	1.578580
609.537000	1.293393
609.732000	1.430343
609.927000	1.472389
610.122000	1.519863
610.318000	1.825096
610.513000	2.013637
610.708000	1.711596
610.903000	1.833837
611.098000	1.965873
611.293000	1.932487
611.488000	1.947828
611.683000	1.913479
611.878000	1.982062
612.073000	2.129988
612.268000	2.192831
612.463000	2.265983
612.658000	2.315304
612.854000	2.327763
613.049000	2.306003
613.244000	2.444239
613.439000	2.460401
613.634000	2.203362
613.829000	2.513023
614.024000	2.369837
614.219000	2.461260
614.414000	2.895237
614.609000	2.707951
614.804000	2.551519
614.999000	2.598972
615.194000	2.851444
615.389000	2.866330
615.585000	2.709852
615.780000	2.997321
615.975000	3.041920
616.170000	3.040249
616.365000	3.271589
616.560000	3.538045
616.755000	3.537146
616.950000	3.604737
617.145000	3.724728
617.340000	3.642641
617.535000	3.424575
617.730000	3.682628
617.925000	3.524618
618.120000	3.568690
618.316000	4.097076
618.511000	4.116548
618.706000	3.997399
618.901000	4.128949
619.096000	4.361637
619.291000	4.282938
619.486000	4.446752
619.681000	4.272180
619.876000	4.388997
620.071000	4.582864
620.266000	4.847969
620.461000	5.071328
620.656000	5.104677
620.852000	5.149956
621.047000	5.106717
621.242000	5.037589
621.437000	5.397788
621.632000	5.738233
621.827000	5.578817
622.022000	5.442481
622.217000	5.634432
622.412000	6.043801
622.607000	6.166731
622.802000	5.931649
622.997000	6.037434
623.192000	6.211174
623.387000	6.313826
623.583000	6.326315
623.778000	6.861028
623.973000	6.881857
624.168000	6.779699
624.363000	6.965028
624.558000	7.185290
624.753000	6.978843
624.948000	7.295812
625.143000	7.477801
625.338000	7.494510
625.533000	7.607993
625.728000	7.900627
625.923000	8.161448
626.119000	8.139032
626.314000	8.055830
626.509000	8.147001
626.704000	8.418223
626.899000	8.487968
627.094000	8.562339
627.289000	8.611278
627.484000	8.841089
627.679000	9.067112
627.874000	9.125019
628.069000	9.348648
628.264000	9.487267
628.459000	9.631689
628.654000	9.644648
628.850000	9.691146
629.045000	9.790880
629.240000	9.876967
629.435000	9.970471
629.630000	10.214714
629.825000	10.299469
630.020000	10.455348
630.215000	10.381361
630.410000	10.431054
630.605000	10.431012
630.800000	10.502304
630.995000	10.779377
631.190000	11.086732
631.385000	10.718574
631.581000	10.693717
631.776000	10.821482
631.971000	10.527189
632.166000	10.556976
632.361000	10.484440
632.556000	10.520826
632.751000	10.406602
632.946000	10.165729
633.141000	9.986664
633.336000	9.980406
633.531000	10.019967
633.726000	9.801294
633.921000	9.414143
634.117000	9.192371
634.312000	8.910159
634.507000	8.862325
634.702000	8.811774
634.897000	8.704591
635.092000	8.656412
635.287000	8.517967
635.482000	7.946134
635.677000	7.850382
635.872000	7.855714
636.067000	7.690186
636.262000	7.207500
636.457000	6.640821
636.652000	6.430948
636.848000	6.202267
637.043000	6.128669
637.238000	6.054195
637.433000	5.601328
637.628000	5.361069
637.823000	5.486881
638.018000	5.447463
638.213000	5.022386
638.408000	4.730729
638.603000	4.509253
638.798000	4.323777
638.993000	4.148852
639.188000	3.944077
639.383000	3.718105
639.579000	3.984499
639.774000	3.683215
639.969000	3.381406
640.164000	3.292396
640.359000	3.129930
640.554000	3.069329
640.749000	3.054634
640.944000	3.061266
641.139000	2.916096
641.334000	2.638341
641.529000	2.085777
641.724000	2.167464
641.919000	2.251324
642.115000	2.434394
642.310000	2.365560
642.505000	2.173382
642.700000	2.032383
642.895000	1.869746
643.090000	1.972296
643.285000	1.986621
643.480000	1.845466
643.675000	1.903485
643.870000	2.218178
644.065000	1.929752
644.260000	1.414717
644.455000	1.450462
644.650000	1.363980
644.846000	1.468316
645.041000	1.121742
645.236000	0.882190
645.431000	0.969091
645.626000	0.759306
645.821000	0.944367
646.016000	1.051994
646.211000	1.378719
646.406000	1.247350
646.601000	1.007127
646.796000	0.844429
646.991000	0.605580
647.186000	0.693144
647.381000	0.842184
647.577000	0.895768
647.772000	0.929405
647.967000	0.835072
648.162000	0.778003
648.357000	0.682694
648.552000	0.807637
648.747000	0.832201
648.942000	0.755584
649.137000	0.622466
649.332000	0.410194
649.527000	0.472952
649.722000	0.676036
649.917000	0.779943
650.113000	0.366960
650.308000	0.323791
650.503000	0.386691
650.698000	0.616503
650.893000	0.451385
651.088000	0.544259
651.283000	0.564979
651.478000	0.301292
651.673000	0.340013
651.868000	0.184278
652.063000	0.424632
652.258000	0.542592
652.453000	0.673141
652.648000	0.311823
652.844000	0.228770
653.039000	0.356739
653.234000	-0.006381
653.429000	-0.168664
653.624000	0.072231
653.819000	0.333386
654.014000	0.185688
654.209000	0.062717
654.404000	0.176116
654.599000	0.033137
654.794000	0.077515
654.989000	0.399617
655.184000	0.350509
655.380000	-0.060930
655.575000	-0.145160
655.770000	-0.145401
655.965000	-0.026308
656.160000	-0.031288
656.355000	0.192158
656.550000	0.137962
656.745000	0.138055
656.940000	0.028432
657.135000	0.133148
657.330000	0.063358
657.525000	-0.206187
657.720000	0.018504
657.915000	0.198363
658.111000	0.193439
658.306000	0.353671
658.501000	0.108802
658.696000	-0.201980
658.891000	0.048638
659.086000	-0.061650
659.281000	-0.026608
659.476000	-0.172444
659.671000	-0.564537
659.866000	-0.378703
660.061000	-0.006542
660.256000	0.139468
660.451000	0.064001
660.646000	-0.178126
660.842000	-0.046983
661.037000	-0.183453
661.232000	-0.178655
661.427000	-0.057144
661.622000	-0.310566
661.817000	-0.310482
662.012000	-0.006601
662.207000	-0.255582
662.402000	-0.337729
662.597000	-0.139160
662.792000	-0.358021
662.987000	-0.444233
663.182000	-0.083119
663.378000	-0.113806
663.573000	-0.518246
663.768000	-0.461012
663.963000	-0.282634
664.158000	-0.272163
664.353000	0.136895
664.548000	0.372613
664.743000	0.070297
664.938000	-0.278593
665.133000	-0.268752
665.328000	0.235185
665.523000	0.147988
665.718000	-0.145942
665.913000	-0.156491
666.109000	-0.084373
666.304000	0.050193
666.499000	-0.048093
666.694000	0.164397
666.889000	0.325128
667.084000	-0.053590
667.279000	-0.110755
667.474000	-0.147236
667.669000	-0.121193
667.864000	-0.043223
668.059000	0.014082
668.254000	-0.038122
668.449000	-0.205462
668.644000	-0.069596
668.840000	0.061144
669.035000	-0.132405
669.230000	-0.374411
669.425000	-0.075143
669.620000	-0.238023
669.815000	-0.333805
670.010000	-0.444135
670.205000	-0.307410
670.400000	-0.222646
670.595000	-0.218044
670.790000	-0.223624
670.985000	-0.186813
671.180000	-0.022781
671.376000	-0.256123
671.571000	-0.362980
671.766000	-0.443723
671.961000	-0.459879
672.156000	-0.396426
672.351000	-0.199059
672.546000	-0.188783
672.741000	-0.151017
672.936000	-0.145871
673.131000	0.432371
673.326000	0.062860
673.521000	-0.453309
673.716000	-0.609238
673.911000	-0.647340
674.107000	0.003774
674.302000	0.084700
674.497000	-0.179855
674.692000	-0.304296
674.887000	-0.278217
675.082000	-0.153712
675.277000	0.025564
675.472000	-0.154130
675.667000	-0.290732
675.862000	-0.296338
676.057000	-0.181854
676.252000	-0.116567
676.447000	-0.264975
676.643000	-0.138683
676.838000	0.130159
677.033000	-0.172140
677.228000	0.130669
677.423000	0.103164
677.618000	-0.377817
677.813000	-0.460523
678.008000	-0.290070
678.203000	-0.190439
678.398000	-0.368777
678.593000	-0.201979
678.788000	-0.079825
678.983000	-0.380798
679.178000	-0.252691
679.374000	-0.331267
679.569000	-0.208818
679.764000	-0.299276
679.959000	-0.451960
680.154000	-0.440792
680.349000	-0.656983
680.544000	-0.543273
680.739000	-0.334716
680.934000	-0.527158
681.129000	-0.415314
681.324000	-0.489574
681.519000	-0.320394
681.714000	-0.331892
681.909000	-0.467950
682.105000	-0.469267
682.300000	-0.036062
682.495000	-0.076091
682.690000	-0.145073
682.885000	-0.179622
683.080000	-0.295213
683.275000	-0.272331
683.470000	0.038622
683.665000	0.281350
683.860000	0.467024
684.055000	0.108282
684.250000	-0.314730
684.445000	-0.377885
684.641000	0.067911
684.836000	-0.333140
685.031000	-0.363518
685.226000	-0.217939
685.421000	0.168162
685.616000	-0.072069
685.811000	-0.277809
686.006000	0.039348
686.201000	-0.084093
686.396000	-0.538961
686.591000	-0.498638
686.786000	-0.049173
686.981000	-0.108427
687.176000	-0.031479
687.372000	-0.186112
687.567000	-0.055323
687.762000	-0.097232
687.957000	-0.073368
688.152000	-0.330563
688.347000	-0.289240
688.542000	-0.506077
688.737000	-0.829888
688.932000	-0.819276
689.127000	-0.399073
689.322000	-0.025956
689.517000	-0.291494
689.712000	-0.540839
689.908000	-0.462573
690.103000	-0.390579
690.298000	-0.293438
690.493000	-0.288115
690.688000	-0.605607
690.883000	-0.479176
691.078000	0.071625
691.273000	0.108368
691.468000	-0.320829
691.663000	-0.371311
691.858000	-0.137341
692.053000	-0.026482
692.248000	-0.069663
692.443000	-0.118976
692.639000	-0.193352
692.834000	-0.051400
693.029000	0.518524
693.224000	0.545883
693.419000	-0.238617
693.614000	-0.494991
693.809000	-0.670258
694.004000	-0.752881
694.199000	-0.564983
694.394000	-0.284392
694.589000	-0.598924
694.784000	-0.467421
694.979000	-0.196915
695.174000	-0.197414
695.370000	0.325528
695.565000	0.067536
695.760000	-0.406778
695.955000	-0.128734
696.150000	0.105937
696.345000	-0.364895
696.540000	-0.282603
696.740000	-0.269656
696.940000	-0.084850
697.140000	0.158390
697.340000	-0.053317
697.539000	-0.034064
697.739000	-0.194819
697.939000	-0.169217
698.139000	-0.420585
698.339000	-0.784202
698.539000	-0.648066
698.739000	-0.785859
698.939000	-0.600591
699.138000	-0.608102
699.338000	0.004547
699.538000	0.271894
699.738000	-0.119670
699.938000	-0.276847
700.138000	-0.526441
700.338000	-0.639734
700.538000	-0.318355
700.737000	-0.357785
700.937000	-0.842869
701.137000	-0.745469
701.337000	-0.200398
701.537000	-0.200838
701.737000	-0.306505
701.937000	-0.293929
702.137000	-0.453192
702.337000	-0.500477
702.536000	-0.461539
702.736000	-0.422086
702.936000	-0.656434
703.136000	-0.256518
703.336000	-0.276548
703.536000	-0.344463
703.736000	-0.634912
703.936000	-0.532813
704.135000	-0.465390
704.335000	-0.257927
704.535000	-0.542248
704.735000	-0.623919
704.935000	-0.089713
705.135000	-0.090150
705.335000	-0.369286
705.535000	-0.219812
705.735000	-0.158536
705.934000	-0.138053
706.134000	-0.410217
706.334000	-0.458924
706.534000	-0.507386
706.734000	-0.569298
706.934000	-0.487259
707.134000	-0.453207
707.334000	-0.282915
707.533000	-0.297164
707.733000	-0.351812
707.933000	-0.516919
708.133000	-0.255746
708.333000	-0.139910
708.533000	-0.381841
708.733000	-0.112532
708.933000	-0.340660
709.132000	-0.472867
709.332000	-0.334965
709.532000	-0.516415
709.732000	-0.376857
709.932000	-0.822999
710.132000	-0.829436
710.332000	-0.954144
710.532000	-0.280317
710.732000	-0.078816
710.931000	-0.525594
711.131000	-0.541663
711.331000	-0.226510
711.531000	-0.339287
711.731000	-0.396480
711.931000	-0.404191
712.131000	-0.502344
712.331000	-0.262881
712.530000	-0.283679
712.730000	-0.467927
712.930000	-0.277275
713.130000	-0.193286
713.330000	-0.469990
713.530000	-0.450374
713.730000	0.303946
713.930000	0.004981
714.129000	-0.528160
714.329000	-0.672482
714.529000	-0.287173
714.729000	0.169231
714.929000	-0.173521
715.129000	-0.531439
715.329000	-0.417384
715.529000	-0.426282
715.729000	0.205924
715.928000	-0.102861
716.128000	-0.268468
716.328000	-0.096011
716.528000	-0.226210
716.728000	-0.067229
716.928000	-0.341960
717.128000	-0.161580
717.328000	-0.168798
717.527000	-0.401111
717.727000	-0.452325
717.927000	-0.366374
718.127000	-0.366584
718.327000	-0.783414
718.527000	-0.768426
718.727000	-0.316274
718.927000	-0.243672
719.127000	-0.678120
719.326000	-0.375367
719.526000	0.056445
719.726000	-0.207890
719.926000	-0.658443
720.126000	-0.614302
720.326000	-0.282404
720.526000	-0.415204
720.726000	-0.475635
720.925000	-0.276089
721.125000	-0.700579
721.325000	-0.499383
721.525000	-0.455964
721.725000	-0.485770
721.925000	-0.419998
722.125000	-0.464796
722.325000	0.012682
722.524000	-0.436228
722.724000	-0.818851
722.924000	-0.931170
723.124000	-0.677306
723.324000	-0.174944
723.524000	-0.054861
723.724000	-0.724363
723.924000	-0.621276
724.124000	-0.289223
724.323000	-0.183740
724.523000	-0.198689
724.723000	0.224858
724.923000	-0.047711
725.123000	-0.032599
725.323000	-0.032657
725.523000	-0.192513
725.723000	-0.511564
725.922000	-0.565409
726.122000	-0.421296
726.322000	-0.422432
726.522000	-0.461078
726.722000	0.203924
726.922000	-0.078614
727.122000	-0.300997
727.322000	-0.009969
727.521000	-0.263683
727.721000	-0.394952
727.921000	-0.279482
728.121000	-0.248623
728.321000	-0.619232
728.521000	-0.566698
728.721000	-0.412775
728.921000	0.013161
729.121000	0.726587
729.320000	0.121879
729.520000	-0.312877
729.720000	-0.546687
729.920000	-0.471156
730.120000	-0.197180
730.320000	-0.236728
730.520000	-0.502569
730.720000	-0.331658
730.919000	-0.409988
731.119000	-0.206547
731.319000	-0.592335
731.519000	-0.607985
731.719000	-0.419537
731.919000	-0.569394
732.119000	-1.035760
732.319000	-1.086491
732.519000	-0.493259
732.718000	-0.676247
732.918000	-0.653025
733.118000	-0.495564
733.318000	-0.273624
733.518000	-0.497030
733.718000	-0.929132
733.918000	-0.841743
734.118000	-0.721585
734.317000	-0.363466
734.517000	-0.587310
734.717000	-0.574037
734.917000	-0.147667
735.117000	-0.204369
735.317000	-0.301226
735.517000	0.143330
735.717000	0.379283
735.916000	-0.384214
736.116000	-0.611124
736.316000	-0.467908
736.516000	-0.410618
736.716000	-0.459831
736.916000	-1.019363
737.116000	-0.645252
737.316000	0.030486
737.516000	-0.093290
737.715000	-0.134654
737.915000	-0.729776
738.115000	-0.881330
738.315000	-0.649663
738.515000	-0.840334
738.715000	-0.603287
738.915000	-0.086061
739.115000	-0.462818
739.314000	-0.454039
739.514000	0.022658
739.714000	-0.044588
739.914000	-0.213468
740.114000	-0.391387
740.314000	-0.019457
740.514000	0.565118
740.714000	-0.410609
740.913000	-1.041216
741.113000	-0.855253
741.313000	-0.454487
741.513000	-0.301849
741.713000	-0.225495
741.913000	-0.312705
742.113000	-0.398243
742.313000	-0.993853
742.513000	-0.502998
742.712000	-0.184366
742.912000	-0.582682
743.112000	-0.506466
743.312000	-0.733552
743.512000	-0.456125
743.712000	-0.431341
743.912000	-0.878973
744.112000	-1.046147
744.311000	-1.031389
744.511000	-0.601631
744.711000	-0.294059
744.911000	-0.727799
745.111000	-0.719849
745.311000	-0.330898
745.511000	-0.517909
745.711000	-0.722911
745.911000	-0.456746
746.110000	-0.929072
746.310000	-1.158561
746.510000	-0.852068
746.710000	-0.344008
746.910000	-0.371284
747.110000	-0.804092
747.310000	-1.049042
747.510000	-0.645585
747.709000	-0.229264
747.909000	-0.320703
748.109000	-0.212397
748.309000	-0.413788
748.509000	-0.771238
748.709000	-0.755730
748.909000	-0.443384
749.109000	-0.500639
749.308000	-0.021227
749.508000	-0.280672
749.708000	-0.354896
749.908000	-0.104731
750.108000	-0.142226
750.308000	-0.916967
750.508000	-0.245961
750.708000	-0.751226
750.908000	-0.940359
751.107000	-0.096865
751.307000	0.307159
751.507000	-0.200923
751.707000	-0.219510
751.907000	-0.408933
752.107000	-0.372413
752.307000	-0.887099
752.507000	-0.641566
752.706000	-0.488707
752.906000	0.598577
753.106000	-0.357327
753.306000	-1.069504
753.506000	-0.108880
753.706000	-0.601484
753.906000	-0.253956
754.106000	0.113126
754.305000	-0.099719
754.505000	-0.294117
754.705000	-0.510440
754.905000	-0.472099
755.105000	-0.208501
755.305000	-0.836148
755.505000	-0.710757
755.705000	-0.189969
755.905000	-0.220158
756.104000	-0.862618
756.304000	-1.281055
756.504000	-1.472330
756.704000	-0.491995
756.904000	-0.292236
757.104000	-0.520901
757.304000	-0.581215
757.504000	-0.193586
757.703000	-0.544547
757.903000	-0.023121
758.103000	0.138004
758.303000	-0.295976
758.503000	-0.428424
758.703000	-0.459880
758.903000	-0.632744
759.103000	-0.176192
759.303000	-0.177038
759.502000	-0.444505
759.702000	-0.095434
759.902000	-0.487860
760.102000	-0.726823
760.302000	-0.252081
760.502000	-0.065159
760.702000	-0.230974
760.902000	-0.490952
761.101000	-0.794236
761.301000	-1.045891
761.501000	-0.649850
761.701000	-0.828839
761.901000	-0.822649
762.101000	-0.308495
762.301000	-0.392731
762.501000	-0.835635
762.700000	-0.945345
762.900000	-0.860963
763.100000	-0.427261
763.300000	-0.269327
763.500000	-0.397464
763.703000	-0.300554
763.905000	-0.770764
764.108000	-0.366961
764.311000	-0.431210
764.513000	-0.538860
764.716000	-0.390454
764.919000	-0.627932
765.121000	-0.994522
765.324000	-1.116391
765.527000	-0.991969
765.729000	-0.720323
765.932000	0.236148
766.135000	0.170803
766.337000	-0.177422
766.540000	-0.614826
766.743000	-0.520381
766.945000	-0.936587
767.148000	-1.389904
767.351000	-1.213657
767.553000	-0.378824
767.756000	-0.644575
767.958000	-0.821389
768.161000	-0.346323
768.364000	-0.736287
768.566000	-1.249864
768.769000	-0.628692
768.972000	-0.293646
769.174000	-0.798509
769.377000	-1.598220
769.580000	-1.669158
769.782000	-0.689348
769.985000	-1.018711
770.188000	-1.971025
770.390000	-1.117098
770.593000	0.337095
770.796000	-0.026124
770.998000	-0.492109
771.201000	-0.720167
771.404000	-0.333818
771.606000	-0.746923
771.809000	-0.632333
772.012000	-0.564812
772.214000	-1.448111
772.417000	-1.540002
772.620000	-0.174901
772.822000	-0.671617
773.025000	-1.132624
773.228000	-0.903866
773.430000	-1.032564
773.633000	-0.930259
773.836000	-0.653114
774.038000	-0.434338
774.241000	-0.492428
774.444000	-0.855929
774.646000	-0.015168
774.849000	-0.377716
775.052000	-0.634875
775.254000	-0.120667
775.457000	-0.530216
775.659000	-0.554951
775.862000	-0.754584
776.065000	-0.744072
776.267000	-0.415653
776.470000	0.031934
776.673000	-0.630842
776.875000	-0.039172
777.078000	-0.003555
777.281000	-0.895810
777.483000	-0.278072
777.686000	-0.170982
777.889000	-0.362680
778.091000	-0.063657
778.294000	-1.059048
778.497000	-0.976346
778.699000	-0.772807
778.902000	-0.510130
779.105000	-0.546347
779.307000	0.237934
779.510000	-0.717818
779.713000	-0.477572
779.915000	-0.771759
780.118000	0.374664
780.321000	0.472876
780.523000	-0.640539
780.726000	-0.934866
780.929000	-0.836545
781.131000	-0.886907
781.334000	-1.592019
781.537000	-1.510044
781.739000	-0.164366
781.942000	-0.857124
782.145000	-1.371280
782.347000	-1.421906
782.550000	-1.111616
782.753000	-1.115270
782.955000	-0.942980
783.158000	-0.792237
783.361000	-0.530716
783.563000	-0.869614
783.766000	-1.073166
783.968000	1.042053
784.171000	1.148100
784.374000	-0.370919
784.576000	-0.674543
784.779000	-0.205961
784.982000	0.085147
785.184000	-0.668259
785.387000	-0.157402
785.590000	0.674038
785.792000	0.484015
785.995000	0.124725
786.198000	-0.042501
786.400000	-0.508289
786.603000	-0.509579
786.806000	-0.740680
787.008000	-0.456255
787.211000	-0.029835
787.414000	-0.993128
787.616000	-1.088339
787.819000	-1.195672
788.022000	-1.630040
788.224000	-0.805873
788.427000	-1.279867
788.630000	-0.650759
788.832000	-0.399526
789.035000	-0.925477
789.238000	-1.696651
789.440000	-1.214403
789.643000	-0.083624
789.846000	-0.789371
790.048000	-0.257534
790.251000	0.036037
790.454000	-0.470204
790.656000	-0.044119
790.859000	-0.486432
791.062000	-0.769192
791.264000	-0.419823
791.467000	-0.906506
791.669000	-1.622763
791.872000	-0.898809
792.075000	-1.249838
792.277000	-1.114608
792.480000	-0.630460
792.683000	-1.253402
792.885000	-1.472099
793.088000	-1.204645
793.291000	-1.303395
793.493000	-1.415385
793.696000	-0.456445
793.899000	-0.224041
794.101000	-0.803184
794.304000	-1.136388
794.507000	-0.640253
794.709000	-0.128961
794.912000	-0.992676
795.115000	-1.175927
795.317000	-0.645675
795.520000	-0.354363
795.723000	-0.637050
795.925000	-1.299905
796.128000	-1.565479
796.331000	-1.161387
796.533000	-1.418764
796.736000	-0.558699
796.939000	-0.332032
797.141000	-1.118742
797.344000	-0.404733
797.547000	-0.032908
797.749000	-0.276536
797.952000	-0.738772
798.155000	-1.369419
798.357000	-1.478858
798.560000	-1.109226
798.763000	-0.381948
798.965000	-0.526676
799.168000	-0.717379
799.371000	-0.601670
799.573000	-0.735229
799.776000	-1.541464
799.978000	-1.473368
800.181000	-0.828608
800.384000	0.717862
800.586000	0.128544
800.789000	-1.422231
800.992000	-1.214645
801.194000	-1.439198
801.397000	-1.606043
801.600000	-1.581778
801.802000	-0.198203
802.005000	-0.393184
802.208000	-1.713662
802.410000	-0.798424
802.613000	-0.877178
802.816000	-1.058962
803.018000	-1.575304
803.221000	-1.033500
803.424000	0.389696
803.626000	-0.247545
803.829000	-1.010093
804.032000	0.362028
804.234000	1.110184
804.437000	-0.587391
804.640000	-1.061933
804.842000	-0.941493
805.045000	-1.501842
805.248000	-0.978875
805.450000	-1.039716
805.653000	-0.828650
805.856000	-0.858805
806.058000	0.104370
806.261000	-0.863473
806.464000	-0.926857
806.666000	-0.709159
806.869000	-1.028804
807.072000	-1.737594
807.274000	-1.990954
807.477000	-1.332507
807.679000	-0.700821
807.882000	-1.273256
808.085000	-1.186062
808.287000	-0.372309
808.490000	-1.093455
808.693000	-1.078205
808.895000	-0.710523
809.098000	-0.646680
809.301000	-0.809846
809.503000	-1.055911
809.706000	-0.069911
809.909000	0.255215
810.111000	0.043952
810.314000	-0.575944
810.517000	-0.948112
810.719000	-1.166060
810.922000	-0.727563
811.125000	0.355625
811.327000	0.225802
811.530000	-0.617213
811.735000	-0.996295
811.940000	-1.230354
812.146000	-1.302047
812.351000	-0.370854
812.556000	-0.655667
812.761000	-1.645206
812.967000	-0.559733
813.172000	-0.005037
813.377000	-0.645091
813.582000	-0.021989
813.788000	-0.311674
813.993000	-1.245266
814.198000	-0.702318
814.403000	-1.415752
814.609000	-0.552420
814.814000	-0.572090
815.019000	-0.159481
815.224000	-0.125119
815.429000	-1.178416
815.635000	-0.853271
815.840000	-0.628952
816.045000	-0.579602
816.250000	-0.144698
816.456000	-1.524550
816.661000	-2.478889
816.866000	-1.868967
817.071000	-1.393375
817.277000	-2.215836
817.482000	-1.599647
817.687000	-0.660342
817.892000	-0.895529
818.097000	-0.523267
818.303000	-0.255380
818.508000	0.458074
818.713000	7.220273
818.918000	4.021699
819.124000	0.407331
819.329000	-0.834340
819.534000	-1.035641
819.739000	-1.180331
819.945000	-1.131417
820.150000	-0.936943
820.355000	-0.609373
820.560000	-0.260978
820.766000	-0.279944
820.971000	-0.483987
821.176000	-2.348333
821.381000	-3.114107
821.586000	-2.041021
821.792000	-0.172692
821.997000	-0.637510
822.202000	-0.991625
822.407000	-1.405174
822.613000	-1.501626
822.818000	-1.280558
823.023000	-0.981770
823.228000	-0.969217
823.434000	-0.496495
823.639000	-0.289455
823.844000	-1.219674
824.049000	-0.366362
824.255000	0.260902
824.460000	-0.350131
824.665000	-0.867923
824.870000	0.032681
825.075000	-0.429246
825.281000	-0.623606
825.486000	0.246649
825.691000	-1.775835
825.896000	-3.065560
826.102000	-1.078390
826.307000	-0.748697
826.512000	-1.085059
826.717000	-0.970314
826.923000	-0.953347
827.128000	-0.658718
827.333000	-1.598706
827.538000	-0.745393
827.744000	-0.486785
827.949000	-1.565555
828.154000	-0.869261
828.359000	-0.146476
828.564000	-0.590862
828.770000	-0.957793
828.975000	-0.472879
829.180000	-0.944433
829.385000	-1.983982
829.591000	-1.685184
829.796000	-1.014516
830.001000	-0.892748
830.206000	-1.702197
830.412000	-1.328549
830.617000	-1.538874
830.822000	-0.630693
831.027000	-1.065431
831.232000	-1.677838
831.438000	-1.521351
831.643000	-0.595444
831.848000	-0.955467
832.053000	-1.636635
832.259000	-1.469071
832.464000	-3.046305
832.669000	-2.395927
832.874000	-2.072527
833.080000	-1.760772
833.285000	0.293582
833.490000	-0.349545
833.695000	-1.668577
833.901000	-1.264369
834.106000	-1.744146
834.311000	-1.141947
834.516000	-0.881282
834.721000	-1.480021
834.927000	-0.139118
835.132000	-0.404898
835.337000	0.835377
835.542000	-0.452493
835.748000	-2.342615
835.953000	-0.386205
836.158000	0.396104
836.363000	-0.074146
836.569000	-0.391719
836.774000	-1.208980
836.979000	-1.823623
837.184000	-2.351650
837.390000	-2.127874
837.595000	-1.424670
837.800000	-0.809090
838.005000	-0.721803
838.210000	-1.483452
838.416000	-1.790282
838.621000	-1.121646
838.826000	-1.353043
839.031000	-1.080061
839.237000	-1.746183
839.442000	-2.337459
839.647000	-2.733540
839.852000	-2.344033
840.058000	-2.091904
840.263000	-1.911722
840.468000	-2.199620
840.673000	-1.484833
840.878000	-1.438522
841.084000	-1.927060
841.289000	-0.945505
841.494000	1.785483
841.699000	1.232341
841.905000	0.309505
842.110000	0.629705
842.315000	-1.701614
842.520000	-1.160253
842.726000	-1.089261
842.931000	-1.407767
843.136000	-0.527091
843.341000	-1.802483
843.547000	-1.400720
843.752000	-1.178151
843.957000	-2.317842
844.162000	-1.849449
844.367000	-1.297183
844.573000	-0.871051
844.778000	-1.020718
844.983000	-0.616980
845.188000	-0.313900
845.394000	-1.552777
845.599000	-1.523278
845.804000	-1.657350
846.009000	-1.071877
846.215000	-2.198013
846.420000	-2.282377
846.625000	-1.004579
846.830000	0.227374
847.036000	-1.189647
847.241000	-1.985879
847.446000	0.071198
847.651000	-1.093652
847.856000	-2.305982
848.062000	-1.803626
848.267000	-0.222504
848.472000	-1.702814
848.677000	-2.948458
848.883000	-0.384943
849.088000	1.188277
849.293000	-0.881755
849.498000	-1.480441
849.704000	-0.828417
849.909000	-1.817373
850.114000	-2.502736
850.319000	-0.942342
850.524000	-1.113272
850.730000	-0.369492
850.935000	-0.622012
851.140000	-0.539753
851.345000	-0.511714
851.551000	-0.288880
851.756000	-0.375027
851.961000	-1.450382
852.166000	-1.762295
852.372000	-1.142931
852.577000	-1.008444
852.782000	-1.160014
852.987000	0.421927
853.193000	-0.066254
853.398000	-0.729009
853.603000	-2.261224
853.808000	-2.695822
854.013000	-1.637087
854.219000	-0.649616
854.424000	0.985515
854.629000	1.104924
854.834000	-1.336531
855.040000	-0.632461
855.245000	-0.689535
855.450000	-3.254146
855.655000	-4.040408
855.861000	-3.648428
856.066000	-2.595390
856.271000	-2.750181
856.476000	-0.432235
856.682000	-1.162120
856.887000	-3.859209
857.092000	-2.439461
857.297000	-0.253163
857.502000	-0.895456
857.708000	-1.417761
857.913000	-0.223923
858.118000	-0.628429
858.323000	-0.723420
858.529000	-0.970301
858.734000	-1.718966
858.939000	-1.724033
859.144000	-2.762157
859.350000	-3.294408
859.555000	-2.865336
859.760000	-0.577454
859.965000	0.337539
860.171000	-1.530245
860.376000	-0.963975
860.581000	-2.880524
860.786000	-5.455301
860.991000	-3.934779
861.197000	-2.421162
861.402000	-1.009292
861.607000	-2.171525
861.812000	-2.602137
862.018000	-2.774767
862.223000	-1.313408
862.428000	-0.436012
862.633000	-0.600199
862.839000	-1.066011
863.044000	-2.106583
863.249000	-2.465947
863.454000	-0.840517
863.659000	-1.342911
863.865000	-2.153312
864.070000	-2.830488
864.275000	-2.969754
864.480000	-2.476545
864.686000	-4.181257
864.891000	-3.302313
865.096000	-1.442231
865.301000	-1.376610
865.507000	-0.869308
865.712000	-0.147738
865.917000	-1.186046
866.122000	-0.391801
866.328000	-3.636862
866.533000	-4.017617
866.738000	-0.812922
866.943000	-1.094339
867.148000	0.622322
867.354000	-2.030448
867.559000	-4.405893
867.764000	-2.895814
867.969000	-1.299523
868.175000	-1.973032
868.380000	-3.054067
868.585000	-4.241110
868.790000	-2.313141
868.996000	-2.292218
869.201000	-3.750497
869.406000	-4.240698
869.611000	-2.968673
869.817000	-2.564154
870.022000	1.966094
870.227000	-0.378035
870.432000	-2.629768
870.637000	-2.152746
870.843000	-2.425233
871.048000	-1.014408
871.253000	0.732432
871.458000	-0.908043
871.664000	-3.734234
871.869000	-3.642814
872.074000	-2.363769
872.279000	-0.769846
872.485000	-1.576331
872.690000	-2.503165
872.895000	-1.782168
873.100000	-2.439408
873.306000	-3.185100
873.511000	-2.271994
873.716000	-0.128885
873.921000	-2.232077
874.126000	-3.562181
874.332000	-1.784849
874.537000	-0.843385
874.742000	-0.761728
874.947000	-1.240581
875.153000	1.108194
875.358000	-1.255155
875.563000	-2.495963
875.768000	-4.075476
875.974000	-4.617385
876.179000	-1.428797
876.384000	-0.866325
876.589000	-1.982284
876.794000	-2.518682
877.000000	-3.754409
877.205000	-4.119277
877.410000	-1.415622
877.615000	-3.226115
877.821000	-4.958990
878.026000	-2.341395
878.231000	-2.839805
878.436000	-4.385557
878.642000	-3.409408
878.847000	-1.441611
879.052000	0.323166
879.257000	-1.960085
879.463000	-3.404150
879.668000	-2.514662
879.873000	-0.523667
880.078000	-3.128359
880.283000	-5.539862
880.489000	-5.625430
880.694000	-4.703207
880.899000	-3.047846
881.104000	-0.578961
881.310000	1.858723
881.515000	-0.360882
881.720000	0.640690
881.925000	2.748151
882.131000	4.107143
882.336000	0.251770
882.541000	-3.663790
882.746000	-3.279229
882.952000	-3.230731
883.157000	-3.283486
883.362000	-3.288530
883.567000	-4.068176
883.772000	-4.287829
883.978000	-3.700765
884.183000	-1.245516
884.388000	-2.198455
884.593000	-4.111814
884.799000	0.855314
885.004000	0.589087
885.209000	-1.545277
885.414000	-1.308752
885.620000	-4.159609
885.825000	-1.656096
886.030000	-1.933797
886.235000	-3.406107
886.440000	-2.769427
886.646000	-4.780384
886.851000	-4.421222
887.056000	-0.398848
887.261000	-1.120556
887.467000	-3.780970
887.672000	-1.716191
887.877000	-3.484094
888.082000	-5.906553
888.288000	-6.129597
888.493000	-8.128018
888.698000	-5.803296
888.903000	-2.197325
889.109000	-2.885750
889.314000	0.331827
889.519000	-0.804212
889.724000	-0.311277
889.929000	-1.647244
890.135000	-2.048474
890.340000	-2.213672
890.545000	-3.960817
890.750000	-5.271058
890.956000	-3.530760
891.161000	-1.268836
891.366000	-3.686504
891.571000	-2.233226
891.777000	-1.629808
891.982000	0.694657
892.187000	-0.677266
892.392000	-0.066041
892.598000	-0.679512
892.803000	-0.943233
893.008000	-4.186275
893.213000	-3.713016
893.418000	-3.273728
893.624000	-4.017832
893.829000	-5.787559
894.034000	-3.298593
894.239000	-1.377248
894.445000	-4.404299
894.650000	-4.163954
894.855000	-4.537168
895.060000	-4.739542
895.266000	-4.030318
895.471000	-5.195467
895.676000	-2.561721
895.881000	-1.513887
896.087000	-3.440345
896.292000	-4.162809
896.497000	-0.557406
896.702000	-2.064376
896.907000	-3.579095
897.113000	0.579756
897.318000	0.200375
897.523000	-0.396376
897.728000	-2.796216
897.934000	-3.439183
898.139000	-2.685928
898.344000	-0.456444
898.549000	-2.062932
898.755000	-2.841240
898.960000	-3.416053
899.165000	-5.090144
899.370000	-3.208073
899.575000	-0.072969
899.781000	-2.887655
899.986000	-4.407702
900.191000	-2.622991
900.396000	-2.229011
900.602000	-2.527684
900.807000	-3.407472
901.012000	-3.082650
901.217000	-0.713147
901.423000	-1.924096
901.628000	-4.771268
901.833000	-1.240998
902.038000	-0.487341
902.244000	-4.174940
902.449000	-3.551631
902.654000	-2.934343
902.859000	-2.511807
903.064000	-1.032212
903.270000	-0.137724
903.475000	-3.913163
903.680000	-7.201733
903.885000	-6.897089
904.091000	-5.537572
904.296000	-5.681372
904.501000	-4.970293
904.706000	-4.863623
904.912000	-0.638539
905.117000	-2.695591
905.322000	-5.102323
905.527000	-4.828789
905.733000	-2.831667
905.938000	-1.968782
906.143000	-3.201910
906.348000	-7.154333
906.553000	-2.393329
906.759000	-0.981100
906.964000	-1.759281
907.169000	-2.222829
907.374000	-4.674970
907.580000	-4.309836
907.785000	-5.508234
907.990000	25.211152
908.195000	18.492934
908.401000	-0.487916
908.606000	-9.227265
908.811000	-10.628000
909.016000	-3.841934
909.221000	-2.239816
909.427000	-2.523148
909.632000	-5.343086
909.837000	-3.868609
910.042000	-4.844600
910.248000	-7.638869
910.453000	-4.057030
910.658000	-4.719031
910.863000	-5.134390
911.069000	-5.082798
911.274000	-1.579236
911.479000	-0.021376
911.684000	-6.855643
911.890000	-3.535145
912.095000	-4.975408
912.300000	-8.553940
912.506000	-6.315740
912.711000	-5.076000
912.917000	-3.467665
913.123000	-4.131161
913.328000	-3.196883
913.534000	-1.959568
913.740000	6.280088
913.946000	2.314972
914.151000	-4.838780
914.357000	-6.614261
914.563000	-2.060401
914.768000	-4.358536
914.974000	-7.018252
915.180000	-6.931283
915.385000	-6.491482
915.591000	-8.907750
915.797000	-5.781790
916.002000	-1.214827
916.208000	-4.133958
916.414000	-6.017318
916.620000	-5.629776
916.825000	-3.157087
917.031000	-3.963434
917.237000	-9.548098
917.442000	-5.816825
917.648000	-8.493602
917.854000	-7.912815
918.059000	-1.183088
918.265000	0.388360
918.471000	-2.848556
918.676000	-7.159685
918.882000	-8.389786
919.088000	-6.627623
919.294000	-13.161205
919.499000	-8.700241
919.705000	-2.184744
919.911000	-2.702747
920.116000	0.061050
920.322000	-6.069619
920.528000	-6.014040
920.733000	-8.687181
920.939000	-8.991958
921.145000	-8.166567
921.350000	-8.271285
921.556000	-7.517258
921.762000	-6.678393
921.968000	-6.240598
922.173000	-7.202240
922.379000	-9.587415
922.585000	-6.196668
922.790000	-8.548391
922.996000	-7.293946
923.202000	-7.955094
923.407000	-7.716599
923.613000	-5.898675
923.819000	-5.632145
924.024000	-5.405366
924.230000	-0.995143
924.436000	-4.696067
924.642000	5.679779
924.847000	2.158233
925.053000	-4.302014
925.259000	-8.287432
925.464000	-2.433362
925.670000	-3.732135
925.876000	-6.506290
926.081000	-8.677487
926.287000	-5.128015
926.493000	-3.662263
926.698000	-3.564452
926.904000	-3.955723
927.110000	-7.408210
927.316000	-6.500397
927.521000	1.338627
927.727000	-3.990675
927.933000	-6.479396
928.138000	-5.212676
928.344000	-12.587957
928.550000	-8.779768
928.755000	-1.913253
928.961000	-7.097001
929.167000	-7.584450
929.372000	1.081421
929.578000	-2.396531
929.784000	-8.760931
929.990000	-9.370531
930.195000	-5.856384
930.401000	-6.014981
930.607000	-5.683621
930.812000	-3.992973
931.018000	-7.867098
931.224000	-14.487900
931.429000	-9.555365
931.635000	-13.334323
931.841000	-14.423982
932.046000	-8.695377
932.252000	-3.422153
932.458000	2.037686
932.664000	-2.381438
932.869000	-7.448231
933.075000	-10.856695
933.281000	-10.506687
933.486000	-2.210855
933.692000	-7.869152
933.898000	-13.546840
934.103000	-3.404793
934.309000	-5.326843
934.515000	-5.145710
934.720000	-3.006360
934.926000	0.910832
935.132000	0.639456
935.338000	-3.341944
935.543000	-11.201978
935.749000	-15.108919
935.955000	-15.036980
936.160000	-10.632093
936.366000	-2.491531
936.572000	-4.596635
936.777000	-2.742496
936.983000	-1.547215
937.189000	-7.615067
937.394000	-9.098937
937.600000	-0.817003
937.806000	4.145822
938.012000	-5.567730
938.217000	7.738471
938.423000	3.312710
938.629000	-9.011237
938.834000	-17.135948
939.040000	-13.060147
939.246000	-5.634202
939.451000	-11.526895
939.657000	-8.785236
939.863000	-14.531088
940.068000	-5.899787
940.274000	-8.018307
940.480000	-2.860413
940.686000	0.482466
940.891000	-6.609115
941.097000	17.419694
941.303000	6.816030
941.508000	-8.056141
941.714000	-5.174465
941.920000	-14.133764
942.125000	-6.386018
942.331000	-6.976895
942.537000	-0.429885
942.742000	-3.455141
942.948000	-13.841446
943.154000	-15.710596
943.360000	-27.697267
943.565000	-8.724627
943.771000	4.996823
943.977000	7.472983
944.182000	-12.973394
944.388000	-15.740200
944.594000	-4.178963
944.799000	-0.654013
945.005000	-7.073684
945.211000	1.700376
945.416000	-1.647226
945.622000	-15.181002
945.828000	-11.523680
946.034000	-2.105315
946.239000	-1.294906
946.445000	-11.191013
946.651000	-22.216427
946.856000	-18.032531
947.062000	-3.100542
947.268000	0.346920
947.473000	-19.117148
947.679000	-18.821250
947.885000	-3.990995
948.090000	-1.518819
948.296000	8.611170
948.502000	0.771561
948.708000	-9.318534
948.913000	-17.730331
949.119000	-4.744794
949.325000	-4.534899
949.530000	-22.646745
949.736000	-28.938134
949.942000	-20.154116
950.147000	-20.726839
950.353000	-13.158474
950.559000	-9.574106
950.764000	11.881988
950.970000	7.452715
951.176000	-12.449448
951.382000	-14.754569
951.587000	-6.768143
951.793000	-0.741997
951.999000	-0.731448
952.204000	-14.167660
952.410000	-27.794458
952.616000	-15.252680
952.821000	-5.604578
953.027000	-14.490711
953.233000	-19.946808
953.438000	-21.000620
953.644000	1.296350
953.850000	-2.344092
954.056000	-12.028465
954.261000	-12.103218
954.467000	-4.708815
954.673000	2.939746
954.878000	-6.573281
955.084000	-7.976753
955.290000	-21.318190
955.495000	-26.298249
955.701000	-23.191861
955.907000	-4.352318
956.112000	-2.687772
956.318000	6.058540
956.524000	7.320619
956.730000	-13.151859
956.935000	-15.378105
957.141000	-11.412990
957.347000	0.416232
957.552000	-11.568923
957.758000	-29.688674
957.964000	-35.924071
958.169000	6.384889
958.375000	7.650710
958.581000	-13.848563
958.786000	-25.099489
958.992000	-30.994897
959.198000	-11.853592
959.404000	-4.923589
959.609000	-14.974832
959.815000	-19.906039
960.021000	4.078498
960.226000	0.969684
960.432000	-26.890427
960.638000	-18.053173
960.843000	-16.549942
961.049000	-17.707522
961.255000	0.188137
961.460000	-14.428433
961.666000	-33.641453
961.872000	-22.417098
962.078000	-19.591974
962.283000	-27.056764
962.489000	-29.016862
962.695000	-15.509014
962.900000	-15.108694
963.106000	-14.709656
963.312000	-19.174434
963.517000	-24.470812
963.723000	-29.115023
963.929000	-2.975726
964.134000	11.158759
964.340000	-18.747654
964.546000	-18.605365
964.752000	-26.703817
964.957000	-40.654519
965.163000	-7.305644
965.369000	-4.051048
965.574000	-5.016111
965.780000	-10.564185
966.000000	-18.895398
966.220000	-13.736920
966.440000	-17.862090
966.661000	-4.171074
966.881000	-20.856553
967.101000	-36.519687
967.321000	-42.949158
967.541000	-18.262329
967.761000	-20.408169
967.981000	-15.239271
968.202000	-18.566898
968.422000	-2.417098
968.642000	3.201880
968.862000	-3.134003
969.082000	-15.038217
969.302000	-3.610305
969.522000	-13.539342
969.743000	1.912241
969.963000	-11.074962
970.183000	-26.685264
970.403000	-31.794833
970.623000	-30.406720
970.843000	-11.441488
971.063000	-15.214996
971.284000	-35.572584
971.504000	-40.937474
971.724000	-20.696251
971.944000	-34.427088
972.164000	-40.658391
972.384000	-28.225928
972.604000	-40.261865
972.825000	-48.058981
973.045000	-36.416025
973.265000	13.628364
973.485000	3.771495
973.705000	-10.283140
973.925000	-15.201607
974.145000	-47.402572
974.365000	-15.569354
974.586000	-12.798348
974.806000	-39.179679
975.026000	-14.491610
975.246000	-28.540368
975.466000	-32.494940
975.686000	-16.874686
975.906000	-18.936360
976.127000	-43.086478
976.347000	-41.488338
976.567000	-9.091614
976.787000	-9.975982
977.007000	-28.559133
977.227000	-34.009679
977.447000	-26.468182
977.668000	-41.239160
977.888000	-32.650450
978.108000	-38.738633
978.328000	-17.656031
978.548000	10.761105
978.768000	16.049402
978.988000	-2.077721
979.209000	-15.055203
979.429000	-25.300896
979.649000	-16.221087
979.869000	-30.207235
980.089000	-41.511720
980.309000	-58.850264
980.529000	-62.926171
980.750000	-32.485746
980.970000	-49.454190
981.190000	-41.381499
981.410000	-36.912000
981.630000	-36.939042
981.850000	-12.201410
982.070000	-12.138188
982.291000	-48.324031
982.511000	-54.541855
982.731000	-16.220137
982.951000	-28.548363
983.171000	-28.710964
983.391000	-38.966022
983.611000	-4.100053
983.832000	-21.979064
984.052000	-57.187938
984.272000	-39.163959
984.492000	-24.641336
984.712000	-33.563475
984.932000	-61.205435
985.152000	-62.386346
985.373000	-31.963421
985.593000	-6.856092
985.813000	-19.698578
986.033000	-34.742583
986.253000	-2.751142
986.473000	-4.441217
986.693000	-38.400006
986.914000	-41.501230
987.134000	8.325963
987.354000	-34.214920
987.574000	173.082619
987.794000	114.390755
988.014000	-44.922894
988.234000	-28.959085
988.455000	-12.960354
988.675000	-7.331144
988.895000	-21.582040
989.115000	-41.980298
989.335000	-31.395747
989.555000	-8.178604
989.775000	-64.852635
989.995000	-59.399157
990.216000	-22.805214
990.436000	-10.601350
990.656000	20.151015
990.876000	-30.868935
991.096000	-11.972027
991.316000	12.170660
991.536000	-27.162179
991.757000	-42.167054
991.977000	-77.960666
992.197000	-23.439658
992.417000	-51.411261
992.637000	-88.886586
992.857000	-93.725396
993.077000	-82.130968
993.298000	-39.054052
993.518000	-41.300454
993.738000	-96.204222
993.958000	-50.115518
994.178000	-56.010505
994.398000	-57.492409
994.618000	-89.782857
994.839000	-131.089330
995.059000	-37.155423
995.279000	42.000000
995.499000	-25.057741
995.719000	-28.913873
995.939000	-45.232530
996.159000	-47.284901
996.380000	-38.899055
996.600000	-69.735891
996.820000	-45.330477
997.040000	-19.047828
997.260000	-75.687047
997.480000	-65.335017
997.700000	-106.216118
997.921000	-56.134887
998.141000	35.396945
998.361000	4.985638
998.581000	-49.787240
998.801000	-85.705197
999.021000	-65.869514
999.241000	-36.605263
999.462000	-82.614063
999.682000	-121.097858
999.902000	-87.954626
1000.122000	-100.649626
1000.342000	-140.174776
1000.562000	-82.088108
1000.782000	-72.112886
1001.003000	-1003.532839
