Wavelength	Irradiance
(nm)	(mW/cm2/nm)

294.396000	0.000000
294.577000	0.000000
294.757000	-0.000000
294.938000	-0.000000
295.118000	-0.000000
295.299000	0.000000
295.479000	-0.000000
295.660000	-0.000000
295.840000	-0.000000
296.021000	-0.000000
296.202000	-0.000000
296.382000	-0.000000
296.563000	-0.000000
296.743000	-0.000000
296.924000	0.000000
297.104000	-0.000000
297.285000	-0.000000
297.465000	-0.000000
297.646000	-0.000000
297.826000	-0.000000
298.007000	0.000000
298.187000	0.000000
298.368000	-0.000000
298.548000	0.000000
298.729000	0.000000
298.909000	-0.000000
299.090000	-0.000000
299.270000	-0.000000
299.451000	-0.000000
299.631000	-0.000000
299.812000	-0.000000
299.992000	0.000000
300.173000	0.000000
300.353000	-0.000000
300.534000	-0.000000
300.714000	0.000000
300.895000	0.000000
301.075000	-0.000000
301.256000	0.000000
301.436000	-0.000000
301.617000	-0.000000
301.797000	-0.000000
301.978000	-0.000000
302.159000	0.000000
302.339000	0.000000
302.520000	-0.000000
302.700000	-0.000000
302.881000	0.000000
303.061000	0.000000
303.242000	0.000000
303.422000	0.000000
303.603000	-0.000000
303.783000	-0.000000
303.964000	-0.000000
304.144000	-0.000000
304.325000	-0.000000
304.505000	-0.000000
304.686000	-0.000000
304.866000	0.000000
305.047000	-0.000000
305.227000	-0.000000
305.408000	-0.000000
305.588000	-0.000000
305.769000	-0.000000
305.949000	-0.000000
306.130000	-0.000000
306.310000	-0.000000
306.491000	-0.000000
306.671000	-0.000000
306.852000	-0.000000
307.032000	-0.000000
307.213000	-0.000000
307.393000	-0.000000
307.574000	0.000000
307.755000	0.000000
307.935000	-0.000000
308.116000	-0.000000
308.296000	-0.000000
308.477000	0.000000
308.657000	0.000000
308.838000	0.000000
309.018000	0.000000
309.199000	-0.000000
309.379000	-0.000000
309.560000	0.000000
309.740000	-0.000000
309.921000	0.000000
310.101000	-0.000000
310.282000	-0.000000
310.462000	-0.000000
310.643000	-0.000000
310.823000	-0.000000
311.004000	-0.000000
311.184000	-0.000000
311.365000	0.000000
311.545000	0.000000
311.726000	-0.000000
311.906000	-0.000000
312.087000	0.000000
312.267000	-0.000000
312.448000	-0.000000
312.628000	-0.000000
312.809000	-0.000000
312.989000	-0.000000
313.170000	-0.000000
313.344000	-0.000000
313.518000	-0.000000
313.691000	-0.000000
313.865000	-0.000000
314.039000	-0.000000
314.213000	-0.000000
314.387000	-0.000000
314.560000	-0.000000
314.734000	-0.000000
314.908000	-0.000000
315.082000	-0.000000
315.255000	-0.000000
315.429000	0.000000
315.603000	-0.000000
315.777000	-0.000000
315.951000	0.000000
316.124000	-0.000000
316.298000	-0.000000
316.472000	-0.000000
316.646000	-0.000000
316.820000	-0.000000
316.993000	-0.000000
317.167000	-0.000000
317.341000	-0.000000
317.515000	-0.000000
317.688000	-0.000000
317.862000	-0.000000
318.036000	-0.000000
318.210000	-0.000000
318.384000	-0.000000
318.557000	-0.000000
318.731000	-0.000000
318.905000	-0.000000
319.079000	0.000000
319.253000	-0.000000
319.426000	0.000000
319.600000	0.000000
319.774000	-0.000000
319.948000	-0.000000
320.122000	0.000000
320.295000	0.000000
320.469000	-0.000000
320.643000	-0.000000
320.817000	-0.000000
320.990000	-0.000000
321.164000	-0.000000
321.338000	-0.000000
321.512000	-0.000000
321.686000	-0.000000
321.859000	-0.000000
322.033000	0.000000
322.207000	-0.000000
322.381000	-0.000000
322.555000	0.000000
322.728000	-0.000000
322.902000	-0.000000
323.076000	-0.000000
323.250000	-0.000000
323.423000	-0.000000
323.597000	-0.000000
323.771000	-0.000000
323.945000	-0.000000
324.119000	-0.000000
324.292000	0.000000
324.466000	-0.000000
324.640000	0.000000
324.814000	0.000000
324.988000	-0.000000
325.161000	-0.000000
325.335000	-0.000000
325.509000	-0.000000
325.683000	-0.000000
325.856000	-0.000000
326.030000	-0.000000
326.204000	-0.000000
326.378000	-0.000000
326.552000	-0.000000
326.725000	-0.000000
326.899000	-0.000000
327.073000	-0.000000
327.247000	-0.000000
327.421000	0.000000
327.594000	-0.000000
327.768000	-0.000000
327.942000	-0.000000
328.116000	0.000000
328.289000	-0.000000
328.463000	-0.000000
328.637000	0.000000
328.811000	-0.000000
328.985000	-0.000000
329.158000	-0.000000
329.332000	-0.000000
329.506000	0.000000
329.680000	-0.000000
329.854000	-0.000000
330.027000	-0.000000
330.201000	0.000000
330.375000	0.000000
330.549000	0.000000
330.723000	-0.000000
330.896000	-0.000000
331.070000	-0.000000
331.244000	-0.000000
331.418000	-0.000000
331.591000	-0.000000
331.765000	-0.000000
331.939000	-0.000000
332.113000	-0.000000
332.287000	-0.000000
332.460000	0.000000
332.634000	0.000000
332.808000	-0.000000
332.982000	-0.000000
333.156000	-0.000000
333.329000	-0.000000
333.503000	-0.000000
333.677000	-0.000000
333.851000	-0.000000
334.024000	-0.000000
334.198000	-0.000000
334.372000	-0.000000
334.546000	-0.000000
334.720000	-0.000000
334.893000	-0.000000
335.067000	-0.000000
335.241000	-0.000000
335.415000	-0.000000
335.589000	-0.000000
335.762000	-0.000000
335.936000	-0.000000
336.110000	-0.000000
336.284000	-0.000000
336.458000	-0.000000
336.631000	-0.000000
336.805000	-0.000000
336.979000	-0.000000
337.153000	-0.000000
337.326000	-0.000000
337.500000	-0.000000
337.674000	-0.000000
337.848000	-0.000000
338.022000	-0.000000
338.195000	-0.000000
338.369000	-0.000000
338.543000	-0.000000
338.717000	-0.000000
338.891000	0.000000
339.064000	0.000000
339.238000	-0.000000
339.412000	-0.000000
339.586000	-0.000000
339.759000	-0.000000
339.933000	-0.000000
340.107000	0.000000
340.281000	-0.000000
340.455000	-0.000000
340.628000	-0.000000
340.802000	-0.000000
340.976000	-0.000000
341.150000	-0.000000
341.324000	-0.000000
341.497000	-0.000000
341.671000	-0.000000
341.845000	-0.000000
342.019000	-0.000000
342.192000	-0.000000
342.366000	-0.000000
342.540000	-0.000000
342.714000	-0.000000
342.888000	-0.000000
343.061000	-0.000000
343.235000	-0.000000
343.409000	-0.000000
343.583000	-0.000000
343.757000	-0.000000
343.930000	-0.000000
344.104000	-0.000000
344.278000	0.000000
344.452000	0.000000
344.626000	-0.000000
344.799000	-0.000000
344.973000	-0.000000
345.147000	-0.000000
345.321000	-0.000000
345.494000	-0.000000
345.668000	0.000000
345.842000	0.000000
346.016000	-0.000000
346.190000	0.000000
346.363000	0.000000
346.537000	-0.000000
346.711000	-0.000000
346.885000	-0.000000
347.059000	-0.000000
347.232000	0.000000
347.406000	0.000000
347.580000	-0.000000
347.754000	-0.000000
347.927000	-0.000000
348.101000	0.000000
348.275000	-0.000000
348.449000	-0.000000
348.623000	-0.000000
348.796000	-0.000000
348.970000	0.000000
349.144000	-0.000000
349.318000	-0.000000
349.492000	-0.000000
349.665000	-0.000000
349.839000	-0.000000
350.013000	-0.000000
350.187000	-0.000000
350.361000	-0.000000
350.534000	-0.000000
350.708000	-0.000000
350.882000	-0.000000
351.056000	0.000000
351.229000	-0.000000
351.403000	-0.000000
351.577000	-0.000000
351.751000	-0.000000
351.925000	-0.000000
352.098000	-0.000000
352.272000	-0.000000
352.446000	-0.000000
352.620000	-0.000000
352.794000	-0.000000
352.967000	-0.000000
353.141000	0.000000
353.315000	0.000000
353.489000	-0.000000
353.662000	-0.000000
353.836000	-0.000000
354.010000	-0.000000
354.184000	-0.000000
354.358000	-0.000000
354.531000	-0.000000
354.705000	-0.000000
354.879000	-0.000000
355.053000	-0.000000
355.227000	0.000000
355.400000	-0.000000
355.574000	0.000000
355.748000	0.000000
355.922000	-0.000000
356.095000	-0.000000
356.269000	-0.000000
356.443000	-0.000000
356.617000	-0.000000
356.791000	-0.000000
356.964000	-0.000000
357.138000	-0.000000
357.312000	-0.000000
357.486000	-0.000000
357.660000	-0.000000
357.833000	-0.000000
358.007000	-0.000000
358.181000	-0.000000
358.355000	-0.000000
358.529000	-0.000000
358.702000	-0.000000
358.876000	-0.000000
359.050000	-0.000000
359.224000	-0.000000
359.397000	-0.000000
359.571000	-0.000000
359.745000	-0.000000
359.919000	-0.000000
360.093000	-0.141893
360.266000	-0.018962
360.440000	0.062814
360.614000	0.105862
360.788000	-0.035654
360.962000	-0.243478
361.135000	-0.166898
361.309000	-0.282461
361.483000	-0.345073
361.657000	-0.277131
361.830000	-0.229571
362.004000	-0.042594
362.178000	-0.353381
362.352000	-0.286537
362.526000	-0.128114
362.699000	-0.125225
362.873000	-0.459055
363.047000	-0.471146
363.221000	-0.409085
363.395000	-0.229536
363.568000	-0.248004
363.742000	-0.246433
363.916000	-0.258105
364.090000	-0.328749
364.263000	-0.308334
364.437000	-0.390253
364.611000	-0.118045
364.785000	-0.095586
364.959000	-0.275358
365.132000	-0.293733
365.306000	-0.298273
365.480000	-0.124245
365.656000	-0.208104
365.831000	-0.191081
366.007000	-0.187984
366.183000	-0.190800
366.358000	-0.282305
366.534000	-0.224510
366.710000	-0.378327
366.886000	-0.276816
367.061000	-0.088294
367.237000	0.054822
367.413000	-0.156045
367.588000	-0.340171
367.764000	-0.365698
367.940000	-0.357470
368.115000	-0.296365
368.291000	-0.381783
368.467000	-0.299998
368.643000	0.058782
368.818000	-0.286877
368.994000	-0.472907
369.170000	-0.372662
369.345000	-0.271295
369.521000	-0.280945
369.697000	-0.089205
369.872000	-0.223589
370.048000	-0.373689
370.224000	-0.290704
370.399000	-0.407442
370.575000	-0.346968
370.751000	-0.443512
370.927000	-0.397807
371.102000	-0.398882
371.278000	-0.380530
371.454000	-0.303566
371.629000	-0.023726
371.805000	-0.039938
371.981000	0.038441
372.156000	0.171938
372.332000	0.008623
372.508000	-0.043218
372.683000	-0.088183
372.859000	-0.147367
373.035000	-0.135797
373.211000	0.246458
373.386000	-0.024028
373.562000	-0.433860
373.738000	-0.523735
373.913000	-0.699188
374.089000	-0.481900
374.265000	-0.099532
374.440000	-0.067275
374.616000	-0.020833
374.792000	-0.245461
374.968000	0.082798
375.143000	-0.098268
375.319000	-0.323052
375.495000	-0.383499
375.670000	-0.220721
375.846000	-0.092236
376.022000	-0.254572
376.197000	-0.239411
376.373000	-0.466681
376.549000	-0.484285
376.724000	-0.507737
376.900000	-0.314057
377.076000	-0.251002
377.252000	-0.063792
377.427000	0.128707
377.603000	-0.225046
377.779000	-0.279570
377.954000	-0.464543
378.130000	-0.306128
378.306000	-0.182029
378.481000	-0.146480
378.657000	-0.268491
378.833000	-0.340313
379.009000	-0.198519
379.184000	-0.115146
379.360000	-0.136148
379.536000	-0.121425
379.711000	-0.252365
379.887000	-0.283587
380.063000	-0.264868
380.238000	-0.320520
380.414000	-0.092179
380.590000	-0.318606
380.765000	-0.308120
380.941000	-0.088617
381.117000	-0.025824
381.293000	-0.131303
381.468000	-0.283316
381.644000	-0.253274
381.820000	-0.203607
381.995000	-0.148927
382.171000	0.135079
382.347000	0.106479
382.522000	-0.283712
382.698000	0.074088
382.874000	0.061491
383.050000	-0.330863
383.225000	0.042978
383.401000	0.209928
383.577000	-0.140418
383.752000	-0.243400
383.928000	-0.202533
384.104000	-0.131305
384.279000	-0.204592
384.455000	-0.133881
384.631000	-0.149559
384.806000	-0.451024
384.982000	-0.239637
385.158000	-0.254213
385.334000	-0.142559
385.509000	-0.133878
385.685000	-0.412352
385.861000	-0.289900
386.036000	-0.409809
386.212000	-0.554567
386.388000	-0.381782
386.563000	-0.325876
386.739000	-0.344813
386.915000	-0.602731
387.090000	-0.331435
387.266000	-0.128322
387.442000	-0.019556
387.618000	-0.130268
387.793000	-0.435786
387.969000	-0.572161
388.145000	-0.434314
388.320000	-0.387766
388.496000	-0.364147
388.672000	-0.528041
388.847000	-0.083669
389.023000	-0.090377
389.199000	-0.475327
389.375000	-0.266826
389.550000	-0.349733
389.726000	-0.210736
389.902000	-0.399952
390.077000	-0.238432
390.253000	-0.218083
390.429000	-0.305508
390.604000	-0.223955
390.780000	-0.204601
390.956000	-0.263352
391.131000	-0.301990
391.307000	0.020187
391.483000	-0.133425
391.659000	-0.351424
391.834000	-0.145322
392.010000	-0.340427
392.186000	-0.403947
392.361000	-0.305348
392.537000	-0.436749
392.713000	-0.015706
392.888000	0.248404
393.064000	-0.045570
393.240000	-0.303923
393.416000	-0.364059
393.591000	-0.417246
393.767000	-0.430505
393.943000	-0.401534
394.118000	-0.000879
394.294000	0.148432
394.470000	-0.073879
394.645000	-0.003784
394.821000	0.288968
394.997000	-0.105615
395.172000	-0.177411
395.348000	-0.282155
395.524000	-0.523266
395.700000	-0.406677
395.875000	-0.161745
396.051000	-0.201702
396.227000	-0.266797
396.402000	-0.308896
396.578000	-0.221153
396.754000	-0.392918
396.929000	-0.339505
397.105000	-0.063902
397.281000	-0.109717
397.457000	-0.229363
397.632000	-0.229773
397.808000	-0.467307
397.984000	-0.559949
398.159000	-0.469492
398.335000	-0.303085
398.511000	0.161366
398.686000	-0.083299
398.862000	-0.387705
399.038000	-0.507816
399.213000	-0.244724
399.389000	-0.514766
399.565000	-0.183871
399.741000	0.063847
399.916000	-0.006532
400.092000	0.236531
400.268000	-0.157791
400.443000	-0.304314
400.619000	0.109552
400.795000	0.024719
400.970000	-0.239149
401.146000	-0.313265
401.322000	0.024652
401.497000	0.398397
401.673000	0.098761
401.849000	-0.182400
402.025000	-0.000847
402.200000	-0.186767
402.376000	-0.293684
402.552000	0.163142
402.727000	-0.000844
402.903000	-0.340641
403.079000	-0.281858
403.254000	0.013219
403.430000	-0.009219
403.606000	-0.146356
403.782000	-0.182507
403.957000	-0.373618
404.133000	-0.492607
404.309000	-0.298620
404.484000	-0.056824
404.660000	-0.101894
404.841000	-0.214306
405.023000	0.049443
405.204000	-0.031658
405.385000	-0.358281
405.566000	-0.362273
405.748000	-0.221669
405.929000	-0.012234
406.110000	-0.068338
406.292000	-0.137261
406.473000	-0.073405
406.654000	-0.296236
406.835000	-0.143827
407.017000	-0.210317
407.198000	-0.183114
407.379000	-0.122015
407.560000	-0.174891
407.742000	-0.204091
407.923000	-0.062435
408.104000	-0.257193
408.286000	-0.145438
408.467000	-0.059085
408.648000	-0.287435
408.829000	-0.377925
409.011000	-0.242363
409.192000	-0.427251
409.373000	-0.231847
409.555000	-0.081564
409.736000	-0.089313
409.917000	-0.214536
410.098000	-0.171761
410.280000	-0.011769
410.461000	-0.096446
410.642000	-0.093887
410.823000	0.182506
411.005000	0.149862
411.186000	-0.113226
411.367000	-0.212104
411.549000	-0.187274
411.730000	-0.000822
411.911000	0.089485
412.092000	-0.079941
412.274000	-0.054969
412.455000	-0.036089
412.636000	-0.022542
412.818000	-0.200989
412.999000	-0.312476
413.180000	-0.225163
413.361000	-0.212436
413.543000	-0.197808
413.724000	-0.267286
413.905000	-0.294212
414.087000	-0.270551
414.268000	-0.227567
414.449000	-0.230666
414.630000	-0.338891
414.812000	-0.431927
414.993000	-0.069821
415.174000	0.017796
415.355000	-0.145114
415.537000	-0.373287
415.718000	-0.040749
415.899000	-0.109669
416.081000	-0.244088
416.262000	-0.066769
416.443000	-0.135045
416.624000	-0.048063
416.806000	0.049208
416.987000	0.152561
417.168000	0.057032
417.350000	-0.126913
417.531000	-0.194056
417.712000	-0.162702
417.893000	0.048819
418.075000	0.124060
418.256000	-0.058167
418.437000	0.030641
418.618000	0.171441
418.800000	0.202437
418.981000	-0.073366
419.162000	0.001803
419.344000	0.214411
419.525000	0.129550
419.706000	0.035751
419.887000	0.212771
420.069000	0.358235
420.250000	0.243702
420.431000	0.237921
420.613000	0.168663
420.794000	-0.068690
420.975000	0.291305
421.156000	0.183097
421.338000	0.118256
421.519000	0.136342
421.700000	0.108204
421.882000	0.097807
422.063000	0.258022
422.244000	0.733076
422.425000	0.500664
422.607000	0.166371
422.788000	0.183797
422.969000	0.087003
423.150000	0.045749
423.332000	0.043040
423.513000	0.286210
423.694000	0.303308
423.876000	0.382715
424.057000	0.504578
424.238000	0.553296
424.419000	0.539252
424.601000	0.406151
424.782000	0.444829
424.963000	0.702150
425.145000	0.615962
425.326000	0.639120
425.507000	0.689707
425.688000	0.605169
425.870000	0.467190
426.051000	0.389114
426.232000	0.420064
426.413000	0.477073
426.595000	0.510743
426.776000	0.497596
426.957000	0.567170
427.139000	0.642244
427.320000	0.702147
427.501000	0.926218
427.682000	0.957969
427.864000	0.936709
428.045000	1.056320
428.226000	1.000148
428.408000	0.723161
428.589000	0.878262
428.770000	0.987517
428.951000	0.892862
429.133000	0.704795
429.314000	0.919808
429.495000	1.019271
429.677000	1.084609
429.858000	1.114105
430.039000	1.200482
430.220000	1.283196
430.402000	1.397411
430.583000	1.233228
430.764000	1.312994
430.945000	1.495518
431.127000	1.584396
431.308000	1.439919
431.489000	1.731495
431.671000	1.812988
431.852000	1.681094
432.033000	1.678730
432.214000	1.802618
432.396000	1.934849
432.577000	1.781487
432.758000	1.681697
432.940000	1.898897
433.121000	2.031704
433.302000	2.032583
433.483000	2.230981
433.665000	2.386614
433.846000	2.358296
434.027000	2.366167
434.208000	2.347994
434.390000	2.341528
434.571000	2.728441
434.752000	3.166492
434.934000	2.999752
435.115000	2.922374
435.296000	3.098612
435.477000	2.980040
435.659000	2.818204
435.840000	3.081179
436.026000	3.072060
436.211000	2.943259
436.397000	2.836555
436.582000	3.059655
436.768000	3.323996
436.953000	3.307262
437.139000	3.395204
437.325000	3.846640
437.510000	3.855804
437.696000	4.010291
437.881000	4.076509
438.067000	3.803100
438.252000	3.981600
438.438000	4.074967
438.624000	4.176149
438.809000	4.333929
438.995000	4.493919
439.180000	4.582596
439.366000	4.637376
439.551000	4.683517
439.737000	4.818851
439.923000	4.946389
440.108000	4.989739
440.294000	5.128321
440.479000	5.301170
440.665000	5.489335
440.850000	5.512446
441.036000	5.674487
441.222000	5.799358
441.407000	5.774894
441.593000	6.031629
441.778000	6.275459
441.964000	6.488812
442.149000	6.343317
442.335000	6.380772
442.521000	6.558429
442.706000	6.888253
442.892000	6.946824
443.077000	6.958583
443.263000	7.213935
443.448000	7.316118
443.634000	7.410362
443.820000	7.914632
444.005000	7.948039
444.191000	7.807762
444.376000	7.954246
444.562000	8.422618
444.747000	8.629307
444.933000	8.667758
445.119000	8.734650
445.304000	8.848551
445.490000	9.148379
445.675000	9.321372
445.861000	9.334947
446.046000	9.597386
446.232000	9.889021
446.418000	10.097446
446.603000	10.239609
446.789000	10.391818
446.974000	10.607140
447.160000	10.479581
447.345000	10.680278
447.531000	10.790892
447.717000	11.230186
447.902000	11.721411
448.088000	11.782153
448.273000	11.761549
448.459000	12.062696
448.644000	12.177707
448.830000	12.376598
449.016000	12.503995
449.201000	12.725836
449.387000	13.112332
449.572000	13.409946
449.758000	13.494206
449.943000	13.524575
450.129000	13.658428
450.315000	13.787092
450.500000	14.092597
450.686000	14.474408
450.871000	14.477239
451.057000	14.883265
451.243000	15.086759
451.428000	15.316987
451.614000	15.501167
451.799000	15.626321
451.985000	16.004854
452.170000	16.350425
452.356000	16.365084
452.542000	16.545360
452.727000	16.798314
452.913000	16.848008
453.098000	17.213315
453.284000	17.599972
453.469000	17.561404
453.655000	17.871291
453.841000	17.900206
454.026000	17.813128
454.212000	17.992776
454.397000	18.141254
454.583000	18.323576
454.768000	18.361449
454.954000	18.542003
455.140000	18.575592
455.325000	18.498533
455.511000	18.694947
455.696000	18.855503
455.882000	18.950000
456.067000	19.445432
456.253000	19.370718
456.439000	19.198495
456.624000	19.085560
456.810000	19.112912
456.995000	19.127912
457.181000	19.025694
457.366000	19.149739
457.552000	19.180051
457.738000	19.293033
457.923000	19.218019
458.109000	19.486402
458.294000	19.400484
458.480000	19.285064
458.665000	19.129389
458.851000	18.892992
459.037000	18.447277
459.222000	18.484653
459.408000	18.408797
459.593000	18.332595
459.779000	18.187689
459.964000	18.308181
460.150000	18.357538
460.336000	18.187094
460.521000	17.751531
460.707000	17.315509
460.892000	17.025503
461.078000	17.253408
461.263000	16.912064
461.449000	16.588354
461.635000	16.466308
461.820000	16.139931
462.006000	16.013178
462.191000	15.793295
462.377000	15.328978
462.562000	15.493568
462.748000	15.489272
462.934000	14.872417
463.119000	14.419970
463.305000	14.362587
463.490000	14.040727
463.676000	13.925561
463.861000	13.775503
464.047000	13.550218
464.233000	13.260384
464.418000	13.031271
464.604000	12.580212
464.789000	12.595537
464.975000	12.345791
465.160000	12.075675
465.346000	11.885108
465.532000	11.665848
465.717000	11.412764
465.903000	11.376429
466.088000	11.106733
466.274000	10.649600
466.459000	10.571700
466.645000	10.752975
466.831000	10.444079
467.016000	10.293493
467.202000	10.039523
467.387000	9.751869
467.573000	9.430362
467.758000	9.635915
467.944000	9.299245
468.130000	9.039127
468.315000	9.073843
468.501000	9.009799
468.686000	8.794128
468.872000	8.678456
469.057000	8.561456
469.243000	8.337826
469.429000	8.111980
469.614000	7.897133
469.800000	7.759192
469.985000	7.786199
470.171000	7.698312
470.356000	7.445508
470.542000	7.479991
470.728000	7.342002
470.913000	7.176187
471.099000	7.157598
471.284000	6.918753
471.470000	6.824173
471.655000	6.813363
471.841000	6.693351
472.027000	6.481370
472.212000	6.618164
472.398000	6.590748
472.583000	6.296695
472.769000	6.290711
472.954000	6.259265
473.140000	5.901228
473.326000	5.702738
473.511000	5.951665
473.697000	5.962589
473.882000	5.743011
474.068000	5.550759
474.253000	5.373751
474.439000	5.386226
474.625000	5.329249
474.810000	5.211209
474.996000	5.193513
475.181000	4.960904
475.367000	5.032666
475.552000	5.173701
475.738000	4.744733
475.924000	4.688608
476.109000	4.780979
476.295000	4.539894
476.480000	4.515068
476.666000	4.382532
476.851000	4.323283
477.037000	4.316307
477.223000	4.092998
477.408000	3.938830
477.594000	3.783893
477.779000	3.907761
477.965000	3.791012
478.151000	3.646550
478.336000	3.709014
478.522000	3.509521
478.707000	3.401076
478.893000	3.445525
479.078000	3.252689
479.264000	3.182440
479.450000	3.160013
479.635000	3.254364
479.821000	3.167195
480.006000	3.129246
480.192000	3.019751
480.377000	2.972941
480.563000	2.942375
480.749000	2.663630
480.934000	2.643011
481.120000	2.719871
481.305000	2.735760
481.491000	2.666035
481.676000	2.656225
481.862000	2.652453
482.048000	2.506104
482.233000	2.434242
482.419000	2.366754
482.604000	2.242791
482.790000	2.221119
482.975000	2.235035
483.161000	2.303238
483.347000	2.212971
483.532000	2.052038
483.718000	1.819905
483.903000	1.885736
484.089000	1.831874
484.274000	1.677344
484.460000	1.818846
484.646000	1.874256
484.831000	1.727486
485.017000	1.726005
485.202000	1.720764
485.388000	1.931709
485.573000	1.867149
485.759000	1.665570
485.945000	1.779898
486.130000	1.570394
486.316000	1.531710
486.501000	1.586438
486.687000	1.455070
486.872000	1.301682
487.058000	1.410327
487.244000	1.417082
487.429000	1.233100
487.615000	1.368253
487.800000	1.432545
487.986000	1.277119
488.171000	1.350353
488.357000	1.302983
488.543000	1.267221
488.728000	1.302538
488.914000	1.216065
489.099000	1.071827
489.285000	1.024553
489.470000	1.217228
489.656000	1.245219
489.842000	1.201900
490.027000	1.204024
490.213000	1.040534
490.398000	0.757600
490.584000	1.004882
490.769000	0.993344
490.955000	1.022338
491.141000	1.016252
491.326000	0.949725
491.512000	1.092335
491.697000	1.031094
491.883000	0.831572
492.068000	0.759305
492.254000	0.793092
492.440000	0.807874
492.625000	0.767451
492.811000	0.714675
492.996000	0.806529
493.182000	0.811514
493.367000	0.654734
493.553000	0.575347
493.739000	0.600966
493.924000	0.681192
494.110000	0.703576
494.295000	0.592280
494.481000	0.677806
494.666000	0.704686
494.852000	0.822170
495.038000	0.662662
495.223000	0.537582
495.409000	0.588882
495.594000	0.493960
495.780000	0.522682
495.965000	0.451871
496.151000	0.644458
496.337000	0.726283
496.522000	0.473419
496.708000	0.555670
496.893000	0.690476
497.079000	0.546765
497.264000	0.456228
497.450000	0.452674
497.636000	0.563230
497.821000	0.407220
498.007000	0.604609
498.192000	0.616202
498.378000	0.436014
498.563000	0.378298
498.749000	0.376816
498.935000	0.385574
499.120000	0.488846
499.306000	0.319966
499.491000	0.233611
499.677000	0.337581
499.862000	0.435839
500.048000	0.462761
500.234000	0.366553
500.419000	0.350419
500.605000	0.468451
500.790000	0.391405
500.976000	0.266778
501.161000	0.145221
501.347000	0.268564
501.533000	0.375332
501.718000	0.307827
501.904000	0.272950
502.089000	0.354032
502.275000	0.375568
502.460000	0.243857
502.646000	0.305780
502.832000	0.367619
503.017000	0.299071
503.203000	0.085703
503.388000	0.084029
503.574000	0.305048
503.759000	0.336831
503.945000	0.361814
504.131000	0.264178
504.316000	0.207723
504.502000	0.239714
504.687000	0.204593
504.873000	0.086064
505.058000	0.016382
505.244000	0.012613
505.430000	0.095625
505.615000	0.188282
505.801000	0.230244
505.986000	0.057801
506.172000	0.136960
506.358000	0.135384
506.543000	0.114552
506.729000	0.318559
506.914000	0.258700
507.100000	0.384915
507.285000	0.134481
507.471000	0.005130
507.657000	0.310996
507.842000	0.175868
508.028000	-0.015757
508.213000	0.008945
508.399000	0.047106
508.584000	0.220875
508.770000	0.136636
508.956000	0.033757
509.141000	0.064214
509.327000	0.159816
509.512000	0.086914
509.698000	0.094665
509.883000	0.167511
510.069000	0.087524
510.255000	0.077983
510.440000	0.127958
510.626000	0.049278
510.811000	0.018626
510.997000	0.120421
511.182000	0.360065
511.368000	0.252915
511.554000	-0.083202
511.739000	-0.040902
511.925000	0.147377
512.110000	0.147239
512.296000	0.274622
512.481000	0.266600
512.667000	0.170678
512.853000	-0.015974
513.038000	0.043748
513.224000	0.012916
513.409000	-0.066114
513.595000	0.016796
513.780000	-0.095131
513.966000	-0.056402
514.152000	-0.044858
514.337000	-0.077618
514.523000	0.001348
514.708000	0.034128
514.894000	0.016821
515.079000	-0.073762
515.265000	-0.052758
515.451000	-0.017980
515.636000	-0.077856
515.822000	0.011026
516.007000	-0.091508
516.193000	0.043873
516.378000	0.173662
516.564000	0.053550
516.750000	0.059370
516.935000	0.165818
517.121000	0.138703
517.306000	0.224026
517.492000	0.166187
517.677000	-0.060628
517.863000	-0.076138
518.049000	0.014922
518.234000	-0.099342
518.420000	0.115752
518.605000	0.286276
518.791000	0.210580
518.976000	0.042205
519.162000	-0.053000
519.348000	0.059613
519.533000	0.020747
519.719000	0.238152
519.904000	0.131549
520.090000	0.080864
520.275000	0.245859
520.461000	0.205515
520.647000	0.003305
520.832000	-0.144827
521.018000	-0.027802
521.203000	-0.023835
521.389000	-0.227139
521.574000	-0.091685
521.760000	0.051823
521.946000	0.040300
522.131000	-0.022018
522.317000	-0.002529
522.502000	-0.082260
522.688000	0.009144
522.873000	-0.008374
523.059000	-0.070740
523.245000	-0.062886
523.430000	-0.137044
523.616000	-0.123363
523.801000	-0.160604
523.987000	-0.133523
524.172000	-0.014270
524.358000	0.026791
524.544000	-0.010348
524.729000	0.100670
524.915000	0.104815
525.100000	-0.041558
525.286000	0.063895
525.471000	0.048400
525.657000	0.068065
525.843000	-0.183225
526.028000	-0.028102
526.214000	-0.075239
526.399000	-0.179875
526.585000	-0.185823
526.770000	-0.197623
526.956000	-0.077627
527.142000	-0.200056
527.327000	-0.040136
527.513000	-0.105513
527.698000	-0.115540
527.884000	-0.102038
528.069000	-0.177264
528.255000	-0.058238
528.441000	-0.114028
528.626000	-0.078448
528.812000	0.152980
528.997000	0.031377
529.183000	-0.104480
529.368000	-0.026693
529.554000	-0.069022
529.740000	-0.059126
529.925000	-0.123728
530.111000	-0.101638
530.296000	-0.012749
530.482000	0.062278
530.667000	0.013597
530.853000	0.070646
531.039000	-0.049580
531.224000	-0.010872
531.410000	0.077311
531.595000	-0.012931
531.781000	0.065077
531.967000	-0.077001
532.152000	0.013875
532.338000	-0.031747
532.523000	-0.148224
532.709000	-0.175897
532.894000	-0.107568
533.080000	-0.057305
533.266000	-0.195992
533.451000	-0.177744
533.637000	-0.136015
533.822000	0.050333
534.008000	-0.068537
534.193000	-0.092219
534.379000	-0.017741
534.565000	-0.097215
534.750000	-0.129885
534.936000	0.105297
535.121000	-0.070018
535.307000	-0.018023
535.492000	-0.024578
535.678000	-0.274157
535.864000	-0.125993
536.049000	0.213853
536.235000	0.008192
536.420000	-0.027356
536.606000	-0.092119
536.791000	-0.184657
536.977000	-0.173873
537.163000	0.067064
537.348000	0.069728
537.534000	0.125071
537.719000	-0.080915
537.905000	-0.249212
538.090000	-0.023795
538.276000	0.080448
538.462000	0.062102
538.647000	0.113732
538.833000	-0.073496
539.018000	0.022883
539.204000	0.037064
539.389000	-0.157589
539.575000	0.118231
539.761000	0.097305
539.946000	-0.173668
540.132000	-0.111648
540.317000	-0.232886
540.503000	-0.104940
540.688000	-0.025120
540.874000	0.194965
541.060000	0.324508
541.245000	0.131936
541.431000	-0.020470
541.616000	-0.015580
541.802000	-0.055195
541.987000	0.071238
542.173000	0.083969
542.359000	-0.083070
542.544000	0.118819
542.730000	-0.043265
542.915000	-0.121084
543.101000	0.112124
543.286000	-0.040972
543.472000	-0.187926
543.658000	-0.091880
543.843000	-0.054046
544.029000	0.157057
544.214000	-0.000765
544.400000	-0.309513
544.585000	-0.149087
544.771000	-0.059779
544.957000	0.107217
545.142000	0.187077
545.328000	0.210790
545.513000	0.257710
545.699000	0.271802
545.884000	0.123914
546.070000	0.053799
546.261000	-0.039909
546.451000	-0.155160
546.642000	-0.283860
546.833000	-0.090057
547.023000	-0.192411
547.214000	-0.253808
547.405000	-0.029777
547.595000	0.265698
547.786000	0.150180
547.977000	-0.080473
548.167000	-0.221422
548.358000	-0.166332
548.549000	0.218930
548.740000	0.036712
548.930000	-0.327839
549.121000	-0.245443
549.312000	-0.276067
549.502000	-0.298375
549.693000	-0.146769
549.884000	-0.117072
550.074000	-0.006241
550.265000	-0.188477
550.456000	-0.090787
550.646000	-0.022682
550.837000	-0.112904
551.028000	-0.222551
551.218000	-0.121236
551.409000	-0.250952
551.600000	-0.215403
551.790000	-0.011876
551.981000	-0.207957
552.172000	-0.197277
552.362000	0.148516
552.553000	0.165949
552.744000	-0.061946
552.934000	-0.128726
553.125000	-0.193016
553.316000	-0.179204
553.506000	0.247717
553.697000	0.080450
553.888000	0.080309
554.079000	0.214792
554.269000	0.100075
554.460000	-0.239719
554.651000	-0.251219
554.841000	-0.364155
555.032000	-0.274451
555.223000	-0.153377
555.413000	-0.023341
555.604000	-0.023440
555.795000	-0.074468
555.985000	-0.029224
556.176000	-0.111302
556.367000	-0.354787
556.557000	-0.276424
556.748000	-0.157410
556.939000	-0.191273
557.129000	-0.358654
557.320000	-0.211121
557.511000	-0.188038
557.701000	-0.196235
557.892000	-0.125947
558.083000	0.149666
558.273000	0.033234
558.464000	-0.247989
558.655000	-0.219393
558.845000	-0.159321
559.036000	-0.043328
559.227000	-0.074533
559.418000	0.016183
559.608000	0.061586
559.799000	-0.295640
559.990000	-0.277152
560.180000	-0.223875
560.371000	-0.379726
560.562000	-0.328330
560.752000	-0.142133
560.943000	-0.300511
561.134000	-0.491425
561.324000	-0.228942
561.515000	0.032886
561.706000	-0.113401
561.896000	-0.329356
562.087000	-0.228018
562.278000	-0.284000
562.468000	-0.421793
562.659000	-0.272311
562.850000	0.102777
563.040000	0.155986
563.231000	-0.297923
563.422000	-0.238281
563.612000	-0.342015
563.803000	-0.249276
563.994000	-0.286972
564.185000	-0.416841
564.375000	-0.170206
564.566000	-0.186639
564.757000	-0.198282
564.947000	-0.325818
565.138000	-0.161388
565.329000	-0.177639
565.519000	-0.351505
565.710000	-0.252355
565.901000	-0.056148
566.091000	0.059977
566.282000	-0.163522
566.473000	-0.132777
566.663000	-0.140861
566.854000	-0.337217
567.045000	-0.216317
567.235000	-0.096275
567.426000	-0.090787
567.617000	-0.152940
567.807000	-0.185618
567.998000	-0.149982
568.189000	-0.201463
568.379000	-0.171202
568.570000	-0.057528
568.761000	-0.111310
568.951000	-0.148805
569.142000	-0.186728
569.333000	-0.256780
569.524000	-0.373930
569.714000	-0.432946
569.905000	-0.520628
570.096000	-0.129395
570.286000	-0.022206
570.477000	0.137942
570.668000	-0.014128
570.858000	-0.056775
571.049000	-0.165477
571.240000	-0.282489
571.430000	-0.096340
571.621000	-0.146245
571.812000	-0.061368
572.002000	-0.043007
572.193000	-0.224695
572.384000	-0.195635
572.574000	-0.119373
572.765000	-0.166502
572.956000	-0.184336
573.146000	0.014969
573.337000	-0.168521
573.528000	-0.183925
573.718000	-0.050362
573.909000	0.074784
574.100000	-0.018954
574.290000	-0.200064
574.481000	-0.160881
574.672000	-0.161065
574.863000	-0.059998
575.053000	-0.160119
575.244000	-0.100766
575.435000	-0.231309
575.625000	-0.214987
575.816000	-0.196891
576.007000	-0.171421
576.197000	-0.125770
576.388000	-0.087163
576.579000	0.032263
576.769000	0.034763
576.960000	-0.289806
577.155000	-0.493813
577.350000	-0.159856
577.545000	0.039575
577.740000	-0.144007
577.935000	0.149728
578.130000	0.061996
578.326000	-0.271000
578.521000	-0.083288
578.716000	-0.008216
578.911000	-0.289224
579.106000	-0.129575
579.301000	-0.008151
579.496000	-0.200177
579.691000	-0.450937
579.886000	-0.248559
580.081000	-0.118331
580.276000	-0.076494
580.471000	-0.186439
580.666000	-0.344667
580.861000	-0.339668
581.057000	-0.332569
581.252000	-0.171571
581.447000	-0.202843
581.642000	-0.230014
581.837000	-0.229705
582.032000	-0.170756
582.227000	-0.024873
582.422000	-0.039289
582.617000	-0.147084
582.812000	-0.290301
583.007000	-0.282967
583.202000	-0.330198
583.397000	-0.045919
583.592000	0.137039
583.788000	-0.119083
583.983000	-0.107144
584.178000	-0.021962
584.373000	-0.212599
584.568000	-0.296734
584.763000	-0.332298
584.958000	-0.386360
585.153000	-0.278209
585.348000	-0.226347
585.543000	-0.099526
585.738000	-0.108887
585.933000	-0.299457
586.128000	-0.099470
586.324000	-0.078511
586.519000	-0.019555
586.714000	0.072386
586.909000	0.063067
587.104000	0.082236
587.299000	-0.043245
587.494000	-0.088025
587.689000	-0.142583
587.884000	-0.064747
588.079000	-0.138279
588.274000	-0.164672
588.469000	-0.107427
588.664000	-0.014960
588.859000	-0.050652
589.055000	-0.095944
589.250000	-0.076935
589.445000	-0.179573
589.640000	-0.225065
589.835000	0.051915
590.030000	0.135609
590.225000	0.142810
590.420000	-0.000719
590.615000	-0.178141
590.810000	-0.115674
591.005000	-0.087291
591.200000	-0.137847
591.395000	-0.152258
591.591000	-0.019930
591.786000	0.056861
591.981000	-0.072911
592.176000	-0.005546
592.371000	0.001688
592.566000	-0.087497
592.761000	0.155929
592.956000	0.180334
593.151000	0.233562
593.346000	0.093732
593.541000	0.173479
593.736000	0.174013
593.931000	-0.010440
594.126000	0.052766
594.322000	0.137867
594.517000	0.084356
594.712000	-0.046939
594.907000	-0.098366
595.102000	0.013931
595.297000	0.165354
595.492000	0.261165
595.687000	0.099819
595.882000	0.060609
596.077000	0.154152
596.272000	0.333559
596.467000	0.390222
596.662000	0.220776
596.857000	0.273550
597.053000	0.335892
597.248000	0.333272
597.443000	0.383264
597.638000	0.359353
597.833000	0.148402
598.028000	0.364205
598.223000	0.534068
598.418000	0.440327
598.613000	0.343096
598.808000	0.487985
599.003000	0.463549
599.198000	0.384155
599.393000	0.441507
599.589000	0.572992
599.784000	0.455553
599.979000	0.546617
600.174000	0.790717
600.369000	0.592841
600.564000	0.664127
600.759000	0.962434
600.954000	1.066536
601.149000	0.928408
601.344000	0.610891
601.539000	0.834283
601.734000	0.823084
601.929000	0.607277
602.124000	0.671175
602.320000	0.878080
602.515000	1.162744
602.710000	1.180420
602.905000	0.892636
603.100000	0.840375
603.295000	0.989581
603.490000	1.145605
603.685000	1.176443
603.880000	1.185546
604.075000	1.068077
604.270000	1.111438
604.465000	1.215827
604.660000	1.019017
604.856000	1.205643
605.051000	1.459996
605.246000	1.484493
605.441000	1.256713
605.636000	1.215916
605.831000	1.354731
606.026000	1.359320
606.221000	1.415349
606.416000	1.600534
606.611000	1.855503
606.806000	1.887388
607.001000	2.029475
607.196000	1.824263
607.391000	1.694601
607.587000	1.879868
607.782000	1.975991
607.977000	1.807847
608.172000	2.216952
608.367000	2.393916
608.562000	2.226562
608.757000	2.150236
608.952000	2.123885
609.147000	2.598896
609.342000	2.584621
609.537000	2.377231
609.732000	2.470180
609.927000	2.449581
610.122000	2.566535
610.318000	2.878791
610.513000	2.995844
610.708000	2.859758
610.903000	3.015622
611.098000	3.119660
611.293000	3.144258
611.488000	3.247599
611.683000	3.274439
611.878000	3.357418
612.073000	3.419203
612.268000	3.436167
612.463000	3.637591
612.658000	3.741148
612.854000	3.791553
613.049000	3.740043
613.244000	3.907246
613.439000	4.055229
613.634000	3.849075
613.829000	4.037128
614.024000	4.014574
614.219000	4.096963
614.414000	4.479984
614.609000	4.403495
614.804000	4.455634
614.999000	4.510539
615.194000	4.551829
615.389000	4.664811
615.585000	4.665281
615.780000	5.079259
615.975000	5.108317
616.170000	5.193157
616.365000	5.455704
616.560000	5.723873
616.755000	5.792927
616.950000	5.754641
617.145000	5.969561
617.340000	5.983438
617.535000	5.828006
617.730000	6.182504
617.925000	6.159746
618.120000	6.265576
618.316000	6.819026
618.511000	6.765016
618.706000	6.783390
618.901000	7.027465
619.096000	7.283425
619.291000	7.227393
619.486000	7.366537
619.681000	7.239361
619.876000	7.371908
620.071000	7.594522
620.266000	8.012978
620.461000	8.263875
620.656000	8.421462
620.852000	8.527798
621.047000	8.459318
621.242000	8.643755
621.437000	9.193849
621.632000	9.289344
621.827000	9.233088
622.022000	9.105178
622.217000	9.549934
622.412000	9.915956
622.607000	9.979270
622.802000	9.939218
622.997000	10.175288
623.192000	10.511987
623.387000	10.715670
623.583000	10.580506
623.778000	11.045942
623.973000	11.290003
624.168000	11.482597
624.363000	11.607659
624.558000	11.839121
624.753000	11.816899
624.948000	12.201256
625.143000	12.422963
625.338000	12.510155
625.533000	12.496716
625.728000	12.888200
625.923000	13.260302
626.119000	13.447325
626.314000	13.468965
626.509000	13.638205
626.704000	13.974283
626.899000	14.097141
627.094000	14.236459
627.289000	14.468177
627.484000	14.689986
627.679000	14.888108
627.874000	15.136646
628.069000	15.671046
628.264000	15.836302
628.459000	15.826306
628.654000	16.082663
628.850000	16.177534
629.045000	16.394186
629.240000	16.535197
629.435000	16.755800
629.630000	16.960116
629.825000	16.914955
630.020000	17.181876
630.215000	17.247175
630.410000	17.543425
630.605000	17.662829
630.800000	17.654134
630.995000	17.889245
631.190000	18.280341
631.385000	18.095334
631.581000	17.908707
631.776000	18.044109
631.971000	17.841628
632.166000	17.724853
632.361000	17.559235
632.556000	17.732853
632.751000	17.726105
632.946000	17.338004
633.141000	17.118202
633.336000	17.043809
633.531000	16.837914
633.726000	16.537526
633.921000	16.249665
634.117000	15.912017
634.312000	15.436519
634.507000	15.165420
634.702000	15.018989
634.897000	14.711321
635.092000	14.485561
635.287000	14.271572
635.482000	13.805509
635.677000	13.512784
635.872000	13.292144
636.067000	13.106465
636.262000	12.512233
636.457000	11.752958
636.652000	11.356048
636.848000	10.965521
637.043000	10.593881
637.238000	10.260451
637.433000	9.849723
637.628000	9.681311
637.823000	9.606646
638.018000	9.313404
638.213000	8.725252
638.408000	8.446155
638.603000	8.119531
638.798000	7.699268
638.993000	7.367752
639.188000	7.068774
639.383000	6.866088
639.579000	7.016008
639.774000	6.418130
639.969000	6.092643
640.164000	5.809902
640.359000	5.509498
640.554000	5.607125
640.749000	5.489683
640.944000	5.378166
641.139000	5.117593
641.334000	4.730595
641.529000	4.160816
641.724000	4.221319
641.919000	4.089835
642.115000	4.204391
642.310000	4.149371
642.505000	3.873493
642.700000	3.729964
642.895000	3.498400
643.090000	3.487453
643.285000	3.494473
643.480000	3.364275
643.675000	3.192653
643.870000	3.400028
644.065000	3.241388
644.260000	2.701935
644.455000	2.663942
644.650000	2.507931
644.846000	2.541178
645.041000	2.201733
645.236000	1.894499
645.431000	1.923863
645.626000	1.749638
645.821000	1.845437
646.016000	1.854169
646.211000	2.141814
646.406000	1.975042
646.601000	1.889451
646.796000	1.718439
646.991000	1.400864
647.186000	1.467675
647.381000	1.706849
647.577000	1.634596
647.772000	1.654840
647.967000	1.496544
648.162000	1.447220
648.357000	1.415445
648.552000	1.431738
648.747000	1.395466
648.942000	1.382858
649.137000	1.268583
649.332000	0.978702
649.527000	0.920683
649.722000	1.174425
649.917000	1.266206
650.113000	0.854091
650.308000	0.698990
650.503000	0.749560
650.698000	0.867532
650.893000	0.742034
651.088000	0.824379
651.283000	0.901378
651.478000	0.576654
651.673000	0.716077
651.868000	0.601176
652.063000	0.849215
652.258000	0.976813
652.453000	1.046081
652.648000	0.653458
652.844000	0.557916
653.039000	0.596642
653.234000	0.150152
653.429000	0.002409
653.624000	0.229419
653.819000	0.516034
654.014000	0.478209
654.209000	0.272055
654.404000	0.406449
654.599000	0.317471
654.794000	0.258170
654.989000	0.591701
655.184000	0.519516
655.380000	0.158469
655.575000	0.148083
655.770000	0.200434
655.965000	0.266502
656.160000	0.183208
656.355000	0.384764
656.550000	0.326676
656.745000	0.358296
656.940000	0.246858
657.135000	0.260761
657.330000	0.323726
657.525000	0.096803
657.720000	0.184493
657.915000	0.236786
658.111000	0.124911
658.306000	0.412149
658.501000	0.251648
658.696000	-0.029119
658.891000	0.163915
659.086000	0.132272
659.281000	0.139517
659.476000	-0.067922
659.671000	-0.451479
659.866000	-0.219326
660.061000	0.079969
660.256000	0.189264
660.451000	0.207070
660.646000	0.030730
660.842000	0.048448
661.037000	-0.149643
661.232000	-0.174656
661.427000	0.023717
661.622000	-0.103910
661.817000	-0.298884
662.012000	-0.040164
662.207000	-0.136226
662.402000	-0.207884
662.597000	0.013202
662.792000	-0.336173
662.987000	-0.382203
663.182000	-0.136713
663.378000	-0.154685
663.573000	-0.412908
663.768000	-0.394183
663.963000	-0.208577
664.158000	-0.194089
664.353000	0.257331
664.548000	0.483269
664.743000	0.156962
664.938000	-0.220155
665.133000	-0.234888
665.328000	0.193449
665.523000	0.114420
665.718000	-0.069671
665.913000	-0.091467
666.109000	-0.080802
666.304000	0.129313
666.499000	-0.098824
666.694000	0.049734
666.889000	0.376412
667.084000	-0.052081
667.279000	-0.175804
667.474000	-0.095781
667.669000	-0.052066
667.864000	-0.106807
668.059000	-0.092367
668.254000	-0.070551
668.449000	-0.231654
668.644000	-0.162270
668.840000	0.068408
669.035000	-0.213576
669.230000	-0.431176
669.425000	-0.070992
669.620000	-0.207074
669.815000	-0.263195
670.010000	-0.255575
670.205000	-0.122911
670.400000	-0.159537
670.595000	-0.082413
670.790000	-0.182441
670.985000	-0.171518
671.180000	0.035973
671.376000	-0.309203
671.571000	-0.507056
671.766000	-0.448571
671.961000	-0.459932
672.156000	-0.423156
672.351000	-0.262620
672.546000	-0.278147
672.741000	-0.180419
672.936000	-0.019824
673.131000	0.448927
673.326000	0.036480
673.521000	-0.441532
673.716000	-0.501747
673.911000	-0.630174
674.107000	-0.042644
674.302000	0.217900
674.497000	-0.035161
674.692000	-0.360561
674.887000	-0.392162
675.082000	-0.198849
675.277000	0.078813
675.472000	-0.069767
675.667000	-0.352424
675.862000	-0.390806
676.057000	-0.280208
676.252000	-0.211845
676.447000	-0.296849
676.643000	-0.081730
676.838000	0.110333
677.033000	-0.162846
677.228000	0.141641
677.423000	0.079938
677.618000	-0.388383
677.813000	-0.473294
678.008000	-0.156460
678.203000	-0.063350
678.398000	-0.316548
678.593000	-0.114121
678.788000	0.014458
678.983000	-0.321198
679.178000	-0.196408
679.374000	-0.247529
679.569000	-0.244143
679.764000	-0.386364
679.959000	-0.462147
680.154000	-0.481944
680.349000	-0.732736
680.544000	-0.609335
680.739000	-0.392345
680.934000	-0.388786
681.129000	-0.389874
681.324000	-0.473747
681.519000	-0.311914
681.714000	-0.316009
681.909000	-0.411148
682.105000	-0.520071
682.300000	-0.057298
682.495000	0.086904
682.690000	-0.045357
682.885000	-0.210095
683.080000	-0.327497
683.275000	-0.275268
683.470000	0.023000
683.665000	0.184813
683.860000	0.379580
684.055000	0.075797
684.250000	-0.325800
684.445000	-0.325282
684.641000	0.116609
684.836000	-0.164012
685.031000	-0.262632
685.226000	-0.299797
685.421000	0.043886
685.616000	-0.189899
685.811000	-0.338364
686.006000	-0.025899
686.201000	-0.108263
686.396000	-0.583884
686.591000	-0.522948
686.786000	-0.113216
686.981000	-0.212766
687.176000	-0.134290
687.372000	-0.192712
687.567000	0.036228
687.762000	-0.017955
687.957000	-0.151569
688.152000	-0.260685
688.347000	-0.269538
688.542000	-0.467716
688.737000	-0.748939
688.932000	-0.838571
689.127000	-0.359407
689.322000	-0.005493
689.517000	-0.322334
689.712000	-0.582083
689.908000	-0.480821
690.103000	-0.545535
690.298000	-0.320231
690.493000	-0.342388
690.688000	-0.628843
690.883000	-0.403964
691.078000	0.007285
691.273000	0.067286
691.468000	-0.147287
691.663000	-0.139226
691.858000	-0.053027
692.053000	-0.096135
692.248000	-0.009925
692.443000	0.015966
692.639000	-0.169940
692.834000	-0.066324
693.029000	0.536428
693.224000	0.473618
693.419000	-0.219366
693.614000	-0.442621
693.809000	-0.626595
694.004000	-0.592730
694.199000	-0.583816
694.394000	-0.326517
694.589000	-0.634809
694.784000	-0.472517
694.979000	-0.181879
695.174000	-0.314790
695.370000	0.241092
695.565000	0.038439
695.760000	-0.315743
695.955000	0.122963
696.150000	0.105239
696.345000	-0.447108
696.540000	-0.135305
696.740000	-0.237845
696.940000	-0.135313
697.140000	0.025586
697.340000	-0.253158
697.539000	-0.167812
697.739000	-0.194883
697.939000	-0.271584
698.139000	-0.497295
698.339000	-0.838572
698.539000	-0.602902
698.739000	-0.604522
698.939000	-0.475072
699.138000	-0.594480
699.338000	0.035011
699.538000	0.149248
699.738000	-0.285181
699.938000	-0.271677
700.138000	-0.464881
700.338000	-0.673332
700.538000	-0.375106
700.737000	-0.222776
700.937000	-0.672784
701.137000	-0.701452
701.337000	-0.135649
701.537000	-0.043150
701.737000	-0.256260
701.937000	-0.293996
702.137000	-0.377616
702.337000	-0.522477
702.536000	-0.612121
702.736000	-0.566182
702.936000	-0.665182
703.136000	-0.184251
703.336000	-0.268580
703.536000	-0.368032
703.736000	-0.717794
703.936000	-0.697494
704.135000	-0.574921
704.335000	-0.260688
704.535000	-0.545016
704.735000	-0.739577
704.935000	-0.143069
705.135000	-0.186468
705.335000	-0.482248
705.535000	-0.220560
705.735000	-0.163367
705.934000	-0.177565
706.134000	-0.482397
706.334000	-0.598102
706.534000	-0.575060
706.734000	-0.518109
706.934000	-0.675944
707.134000	-0.671335
707.334000	-0.332306
707.533000	-0.328115
707.733000	-0.423889
707.933000	-0.587695
708.133000	-0.299011
708.333000	-0.228199
708.533000	-0.523460
708.733000	-0.146430
708.933000	-0.243299
709.132000	-0.335853
709.332000	-0.321858
709.532000	-0.502584
709.732000	-0.370680
709.932000	-0.751413
710.132000	-0.673074
710.332000	-0.911127
710.532000	-0.381246
710.732000	-0.162583
710.931000	-0.363030
711.131000	-0.433121
711.331000	-0.354912
711.531000	-0.562037
711.731000	-0.455001
711.931000	-0.436005
712.131000	-0.440414
712.331000	-0.243218
712.530000	-0.331616
712.730000	-0.594330
712.930000	-0.520050
713.130000	-0.507004
713.330000	-0.611837
713.530000	-0.384988
713.730000	0.257607
713.930000	-0.081193
714.129000	-0.469231
714.329000	-0.560592
714.529000	-0.385581
714.729000	-0.051483
714.929000	-0.071479
715.129000	-0.487164
715.329000	-0.452536
715.529000	-0.419166
715.729000	0.164237
715.928000	-0.077038
716.128000	-0.339076
716.328000	-0.228911
716.528000	-0.360707
716.728000	-0.274770
716.928000	-0.446861
717.128000	-0.173971
717.328000	-0.265224
717.527000	-0.565109
717.727000	-0.484344
717.927000	-0.343139
718.127000	-0.460671
718.327000	-0.936811
718.527000	-0.936342
718.727000	-0.441249
718.927000	-0.452294
719.127000	-0.747254
719.326000	-0.544466
719.526000	0.018986
719.726000	-0.227798
719.926000	-0.755108
720.126000	-0.744906
720.326000	-0.455754
720.526000	-0.657172
720.726000	-0.529708
720.925000	-0.193262
721.125000	-0.630818
721.325000	-0.474228
721.525000	-0.345208
721.725000	-0.621235
721.925000	-0.575987
722.125000	-0.555144
722.325000	-0.095560
722.524000	-0.368212
722.724000	-0.845896
722.924000	-0.908771
723.124000	-0.652629
723.324000	-0.295904
723.524000	-0.238305
723.724000	-0.765056
723.924000	-0.514157
724.124000	-0.302891
724.323000	-0.054517
724.523000	-0.123218
724.723000	0.067306
724.923000	-0.118218
725.123000	-0.134263
725.323000	-0.070707
725.523000	-0.241289
725.723000	-0.480475
725.922000	-0.592881
726.122000	-0.374900
726.322000	-0.440078
726.522000	-0.488681
726.722000	0.137400
726.922000	-0.220652
727.122000	-0.285755
727.322000	0.111120
727.521000	-0.152290
727.721000	-0.368083
727.921000	-0.341153
728.121000	-0.497323
728.321000	-0.838315
728.521000	-0.569868
728.721000	-0.370258
728.921000	0.041727
729.121000	0.823439
729.320000	0.150524
729.520000	-0.447266
729.720000	-0.698407
729.920000	-0.652508
730.120000	-0.410806
730.320000	-0.264150
730.520000	-0.592531
730.720000	-0.550490
730.919000	-0.385765
731.119000	-0.100603
731.319000	-0.800085
731.519000	-0.888067
731.719000	-0.458972
731.919000	-0.679729
732.119000	-1.095002
732.319000	-1.103979
732.519000	-0.589140
732.718000	-0.739749
732.918000	-0.695951
733.118000	-0.558484
733.318000	-0.247378
733.518000	-0.476367
733.718000	-0.935603
733.918000	-0.857811
734.118000	-0.745638
734.317000	-0.507167
734.517000	-0.753247
734.717000	-0.661069
734.917000	-0.080773
735.117000	-0.205257
735.317000	-0.323919
735.517000	0.276052
735.717000	0.527017
735.916000	-0.473647
736.116000	-0.666393
736.316000	-0.447575
736.516000	-0.464578
736.716000	-0.562007
736.916000	-1.006323
737.116000	-0.803557
737.316000	-0.094012
737.516000	-0.099977
737.715000	-0.152084
737.915000	-0.626549
738.115000	-0.738808
738.315000	-0.402492
738.515000	-0.756632
738.715000	-0.673462
738.915000	-0.136276
739.115000	-0.652046
739.314000	-0.727549
739.514000	-0.089875
739.714000	-0.001767
739.914000	-0.226209
740.114000	-0.433738
740.314000	-0.203114
740.514000	0.217659
740.714000	-0.507608
740.913000	-1.026828
741.113000	-0.831463
741.313000	-0.359923
741.513000	-0.408822
741.713000	-0.433927
741.913000	-0.345526
742.113000	-0.393168
742.313000	-0.768103
742.513000	-0.623873
742.712000	-0.474419
742.912000	-0.813936
743.112000	-0.549121
743.312000	-0.885048
743.512000	-0.612324
743.712000	-0.430553
743.912000	-0.989479
744.112000	-1.192678
744.311000	-1.337465
744.511000	-0.772607
744.711000	-0.366559
744.911000	-0.732309
745.111000	-0.857178
745.311000	-0.368247
745.511000	-0.567746
745.711000	-0.842151
745.911000	-0.525392
746.110000	-0.930942
746.310000	-1.155963
746.510000	-0.846793
746.710000	-0.228231
746.910000	-0.020767
747.110000	-0.714138
747.310000	-1.176316
747.510000	-0.825860
747.709000	-0.420560
747.909000	-0.459795
748.109000	-0.199726
748.309000	-0.417533
748.509000	-0.731990
748.709000	-0.760413
748.909000	-0.599532
749.109000	-0.724774
749.308000	-0.189291
749.508000	-0.429900
749.708000	-0.520853
749.908000	-0.105751
750.108000	-0.060516
750.308000	-0.792062
750.508000	-0.191812
750.708000	-0.748513
750.908000	-1.137338
751.107000	-0.311378
751.307000	0.142683
751.507000	-0.444390
751.707000	-0.338309
751.907000	-0.425083
752.107000	-0.260689
752.307000	-0.774049
752.507000	-0.595903
752.706000	-0.622173
752.906000	0.198476
753.106000	-0.699421
753.306000	-1.253136
753.506000	-0.163898
753.706000	-0.630544
753.906000	-0.339992
754.106000	-0.076481
754.305000	-0.259560
754.505000	-0.212677
754.705000	-0.295821
754.905000	-0.398889
755.105000	-0.207620
755.305000	-1.120517
755.505000	-1.006759
755.705000	-0.298340
755.905000	-0.382166
756.104000	-1.108756
756.304000	-1.548660
756.504000	-1.649148
756.704000	-0.498083
756.904000	-0.330237
757.104000	-0.511041
757.304000	-0.490594
757.504000	-0.282956
757.703000	-0.654961
757.903000	-0.016185
758.103000	0.103654
758.303000	-0.419316
758.503000	-0.760732
758.703000	-0.819358
758.903000	-0.905038
759.103000	-0.551084
759.303000	-0.618199
759.502000	-0.684825
759.702000	-0.260751
759.902000	-0.709718
760.102000	-0.725892
760.302000	-0.481443
760.502000	-0.212129
760.702000	-0.103679
760.902000	-0.496245
761.101000	-1.051452
761.301000	-1.250377
761.501000	-0.768868
761.701000	-0.814311
761.901000	-0.597917
762.101000	-0.149615
762.301000	-0.510761
762.501000	-0.975891
762.700000	-0.972975
762.900000	-0.765759
763.100000	-0.440090
763.300000	-0.300305
763.500000	-0.695935
763.703000	-0.589531
763.905000	-0.890270
764.108000	-0.226917
764.311000	-0.526547
764.513000	-0.759653
764.716000	-0.566965
764.919000	-0.582803
765.121000	-1.118541
765.324000	-1.220249
765.527000	-1.013807
765.729000	-0.960539
765.932000	-0.162256
766.135000	-0.078439
766.337000	-0.467066
766.540000	-0.690287
766.743000	-0.341163
766.945000	-0.870817
767.148000	-1.350396
767.351000	-1.273185
767.553000	-0.442992
767.756000	-0.799471
767.958000	-1.232747
768.161000	-0.815574
768.364000	-1.044017
768.566000	-1.272234
768.769000	-0.596420
768.972000	-0.213368
769.174000	-0.770623
769.377000	-1.331026
769.580000	-1.302348
769.782000	-0.632109
769.985000	-1.194814
770.188000	-2.068389
770.390000	-1.219489
770.593000	0.402812
770.796000	0.259995
770.998000	-0.511543
771.201000	-1.005845
771.404000	-0.528754
771.606000	-0.723017
771.809000	-0.634734
772.012000	-0.595859
772.214000	-1.495235
772.417000	-1.479343
772.620000	-0.434509
772.822000	-0.800756
773.025000	-1.050932
773.228000	-0.996330
773.430000	-0.925145
773.633000	-0.505213
773.836000	-0.522144
774.038000	-0.507815
774.241000	-0.695103
774.444000	-0.729934
774.646000	0.079223
774.849000	-0.313516
775.052000	-0.411675
775.254000	-0.330486
775.457000	-0.895515
775.659000	-0.873022
775.862000	-1.004665
776.065000	-0.701873
776.267000	-0.175563
776.470000	0.312128
776.673000	-0.466444
776.875000	-0.035730
777.078000	-0.267963
777.281000	-1.110067
777.483000	-0.436920
777.686000	-0.245234
777.889000	-0.463345
778.091000	-0.212712
778.294000	-1.026785
778.497000	-1.086950
778.699000	-1.028927
778.902000	-0.880487
779.105000	-0.441540
779.307000	0.377916
779.510000	-0.714308
779.713000	-0.410857
779.915000	-0.685317
780.118000	0.347693
780.321000	0.459313
780.523000	-0.448378
780.726000	-1.023207
780.929000	-1.057133
781.131000	-1.101703
781.334000	-1.622924
781.537000	-1.549678
781.739000	-0.443788
781.942000	-0.807775
782.145000	-1.490754
782.347000	-1.587484
782.550000	-1.056969
782.753000	-1.244032
782.955000	-1.142220
783.158000	-1.053937
783.361000	-0.749150
783.563000	-0.775625
783.766000	-0.839283
783.968000	1.258654
784.171000	0.883417
784.374000	-0.507767
784.576000	-0.534192
784.779000	-0.312227
784.982000	0.059603
785.184000	-0.646666
785.387000	-0.038519
785.590000	0.686700
785.792000	0.257927
785.995000	-0.074706
786.198000	-0.219075
786.400000	-0.754156
786.603000	-0.710688
786.806000	-0.708493
787.008000	-0.536519
787.211000	-0.474894
787.414000	-1.196309
787.616000	-1.045354
787.819000	-0.974479
788.022000	-1.443956
788.224000	-0.996627
788.427000	-1.641729
788.630000	-1.130050
788.832000	-0.695017
789.035000	-1.062522
789.238000	-1.678270
789.440000	-1.306315
789.643000	-0.170036
789.846000	-0.813465
790.048000	-0.320384
790.251000	-0.170975
790.454000	-0.524951
790.656000	0.128212
790.859000	-0.537488
791.062000	-0.998876
791.264000	-0.556769
791.467000	-1.332280
791.669000	-1.693042
791.872000	-0.572228
792.075000	-0.988631
792.277000	-0.960351
792.480000	-0.755871
792.683000	-1.172060
792.885000	-1.506217
793.088000	-1.311194
793.291000	-1.458080
793.493000	-1.508693
793.696000	-0.482626
793.899000	-0.195314
794.101000	-0.726172
794.304000	-0.901792
794.507000	-0.661134
794.709000	-0.430007
794.912000	-0.919026
795.115000	-1.369962
795.317000	-0.930302
795.520000	-0.581408
795.723000	-0.879073
795.925000	-1.442289
796.128000	-1.657044
796.331000	-1.020412
796.533000	-1.448611
796.736000	-0.938416
796.939000	-0.651381
797.141000	-0.843128
797.344000	-0.173192
797.547000	-0.263405
797.749000	-0.344022
797.952000	-0.890126
798.155000	-1.451469
798.357000	-1.581641
798.560000	-1.407394
798.763000	-0.755327
798.965000	-0.947581
799.168000	-0.858672
799.371000	-0.594532
799.573000	-0.913701
799.776000	-1.540146
799.978000	-1.483797
800.181000	-0.703655
800.384000	0.832690
800.586000	0.110666
800.789000	-1.491792
800.992000	-1.604424
801.194000	-1.887523
801.397000	-1.767834
801.600000	-1.575974
801.802000	-0.222196
802.005000	-0.474063
802.208000	-2.028658
802.410000	-1.146105
802.613000	-0.919457
802.816000	-0.952162
803.018000	-1.367025
803.221000	-1.157732
803.424000	0.262173
803.626000	-0.237066
803.829000	-0.760389
804.032000	0.232034
804.234000	0.916092
804.437000	-0.711771
804.640000	-0.850619
804.842000	-0.745054
805.045000	-1.180945
805.248000	-1.085731
805.450000	-1.106301
805.653000	-1.015368
805.856000	-1.090357
806.058000	-0.352209
806.261000	-1.282094
806.464000	-1.184908
806.666000	-0.496411
806.869000	-0.852505
807.072000	-2.032340
807.274000	-2.430919
807.477000	-1.297891
807.679000	-0.778496
807.882000	-1.501745
808.085000	-1.109598
808.287000	-0.361284
808.490000	-1.460235
808.693000	-1.315474
808.895000	-0.901546
809.098000	-0.845819
809.301000	-0.758486
809.503000	-1.112669
809.706000	-0.196889
809.909000	0.235545
810.111000	-0.026208
810.314000	-0.677264
810.517000	-1.232870
810.719000	-1.297058
810.922000	-0.900174
811.125000	0.306296
811.327000	0.054226
811.530000	-0.791125
811.735000	-1.171597
811.940000	-1.243767
812.146000	-1.214079
812.351000	-0.504062
812.556000	-0.634145
812.761000	-1.081351
812.967000	-0.474176
813.172000	-0.473677
813.377000	-0.557675
813.582000	-0.240356
813.788000	-0.706972
813.993000	-1.501965
814.198000	-0.610659
814.403000	-1.419321
814.609000	-0.829655
814.814000	-0.628956
815.019000	0.380525
815.224000	-0.039593
815.429000	-1.187216
815.635000	-0.560943
815.840000	-0.500909
816.045000	-0.539743
816.250000	-0.320951
816.456000	-1.568383
816.661000	-2.484327
816.866000	-1.935955
817.071000	-1.713342
817.277000	-2.355719
817.482000	-1.491764
817.687000	-0.834014
817.892000	-0.876123
818.097000	-0.528803
818.303000	-0.003750
818.508000	0.283222
818.713000	7.007260
818.918000	3.867596
819.124000	0.172084
819.329000	-1.252592
819.534000	-1.522013
819.739000	-1.446222
819.945000	-1.236931
820.150000	-0.949910
820.355000	-0.708374
820.560000	-0.297661
820.766000	-0.528966
820.971000	-0.944234
821.176000	-2.431530
821.381000	-2.836541
821.586000	-1.817304
821.792000	-0.302860
821.997000	-0.836570
822.202000	-1.175996
822.407000	-1.545318
822.613000	-1.705645
822.818000	-1.237623
823.023000	-0.923764
823.228000	-0.929730
823.434000	-0.334332
823.639000	-0.295320
823.844000	-1.132609
824.049000	-0.389331
824.255000	-0.390591
824.460000	-0.914740
824.665000	-1.144011
824.870000	-0.111694
825.075000	-0.475635
825.281000	-0.544641
825.486000	0.417361
825.691000	-1.678777
825.896000	-2.718857
826.102000	-0.986932
826.307000	-0.838814
826.512000	-1.226529
826.717000	-1.188980
826.923000	-0.957492
827.128000	-0.807275
827.333000	-1.578996
827.538000	-0.703627
827.744000	-0.032252
827.949000	-1.249845
828.154000	-1.016012
828.359000	0.023878
828.564000	-0.766507
828.770000	-1.194913
828.975000	-0.032675
829.180000	-0.832447
829.385000	-2.316548
829.591000	-1.781627
829.796000	-1.113499
830.001000	-1.029031
830.206000	-1.524531
830.412000	-1.436196
830.617000	-1.468662
830.822000	-0.514338
831.027000	-1.036562
831.232000	-1.364628
831.438000	-1.300619
831.643000	-0.858659
831.848000	-1.141287
832.053000	-1.175286
832.259000	-1.072867
832.464000	-2.712763
832.669000	-2.573221
832.874000	-2.062090
833.080000	-2.071207
833.285000	-0.349512
833.490000	-0.439827
833.695000	-1.802624
833.901000	-1.659295
834.106000	-1.889890
834.311000	-1.059194
834.516000	-0.632205
834.721000	-1.497834
834.927000	-0.344705
835.132000	-0.779041
835.337000	0.926005
835.542000	-0.113903
835.748000	-2.153738
835.953000	-0.348477
836.158000	-0.568644
836.363000	-0.869759
836.569000	-0.749701
836.774000	-1.544908
836.979000	-1.578581
837.184000	-2.315454
837.390000	-2.160032
837.595000	-1.269397
837.800000	-0.726806
838.005000	-0.876541
838.210000	-1.264510
838.416000	-1.885470
838.621000	-1.646707
838.826000	-1.531979
839.031000	-1.278577
839.237000	-1.617158
839.442000	-2.542487
839.647000	-2.505784
839.852000	-1.905206
840.058000	-1.895507
840.263000	-1.638176
840.468000	-1.990143
840.673000	-1.156168
840.878000	-1.324251
841.084000	-1.936900
841.289000	-1.099720
841.494000	1.453340
841.699000	1.134872
841.905000	0.165476
842.110000	0.183521
842.315000	-1.706771
842.520000	-1.086910
842.726000	-1.313261
842.931000	-1.828131
843.136000	-0.853986
843.341000	-2.622949
843.547000	-1.677132
843.752000	-1.260597
843.957000	-1.938901
844.162000	-2.142384
844.367000	-1.651444
844.573000	-1.054150
844.778000	-0.803151
844.983000	-0.911760
845.188000	-0.594879
845.394000	-1.952173
845.599000	-1.749586
845.804000	-1.376657
846.009000	-1.022825
846.215000	-2.524195
846.420000	-2.018583
846.625000	-0.721566
846.830000	0.342106
847.036000	-1.329096
847.241000	-2.017790
847.446000	-0.153208
847.651000	-1.006531
847.856000	-2.549406
848.062000	-2.500689
848.267000	-0.624888
848.472000	-1.756885
848.677000	-2.989191
848.883000	-1.079725
849.088000	0.527247
849.293000	-0.693665
849.498000	-1.437091
849.704000	-0.752137
849.909000	-1.387289
850.114000	-2.174063
850.319000	-1.159658
850.524000	-1.262721
850.730000	-0.919840
850.935000	-1.450711
851.140000	-0.828087
851.345000	-0.475642
851.551000	-0.339645
851.756000	-0.242781
851.961000	-1.806899
852.166000	-1.887041
852.372000	-1.256657
852.577000	-1.265840
852.782000	-1.960511
852.987000	-0.146670
853.193000	-0.308512
853.398000	-0.631328
853.603000	-2.209530
853.808000	-2.878144
854.013000	-1.776952
854.219000	-0.658646
854.424000	1.406333
854.629000	1.368406
854.834000	-1.080141
855.040000	-1.024706
855.245000	-0.793409
855.450000	-3.372452
855.655000	-3.990310
855.861000	-3.389190
856.066000	-2.637795
856.271000	-2.979413
856.476000	-0.704573
856.682000	-1.386958
856.887000	-4.186923
857.092000	-2.175465
857.297000	0.356564
857.502000	-0.434281
857.708000	-1.249651
857.913000	-0.371466
858.118000	-0.938309
858.323000	-1.114935
858.529000	-1.026411
858.734000	-1.551421
858.939000	-1.359586
859.144000	-2.349554
859.350000	-3.160191
859.555000	-3.170072
859.760000	-1.420285
859.965000	-0.161199
860.171000	-2.113512
860.376000	-0.986563
860.581000	-2.485290
860.786000	-4.850189
860.991000	-3.993012
861.197000	-2.977740
861.402000	-0.661360
861.607000	-1.407135
861.812000	-2.864943
862.018000	-2.807622
862.223000	-1.672232
862.428000	-1.062493
862.633000	-0.144638
862.839000	-1.231358
863.044000	-2.289952
863.249000	-2.330203
863.454000	-0.588362
863.659000	-1.826426
863.865000	-3.148256
864.070000	-2.592432
864.275000	-3.020539
864.480000	-2.703252
864.686000	-3.995085
864.891000	-3.261925
865.096000	-1.439162
865.301000	-0.748425
865.507000	-0.824984
865.712000	-0.993282
865.917000	-1.871048
866.122000	-0.711135
866.328000	-3.717410
866.533000	-3.397727
866.738000	-0.324820
866.943000	-1.035251
867.148000	-0.204276
867.354000	-2.487919
867.559000	-3.704424
867.764000	-2.301335
867.969000	-0.884606
868.175000	-1.830674
868.380000	-3.065166
868.585000	-4.323925
868.790000	-2.173202
868.996000	-1.832688
869.201000	-3.413206
869.406000	-4.704148
869.611000	-3.688384
869.817000	-3.377899
870.022000	1.581296
870.227000	-0.675692
870.432000	-3.235020
870.637000	-1.998029
870.843000	-2.373609
871.048000	-1.958588
871.253000	0.174371
871.458000	-1.420358
871.664000	-4.035454
871.869000	-3.820982
872.074000	-2.929480
872.279000	-2.158223
872.485000	-2.920220
872.690000	-2.852382
872.895000	-2.298342
873.100000	-2.921508
873.306000	-3.638290
873.511000	-2.026868
873.716000	0.046477
873.921000	-2.026009
874.126000	-3.067065
874.332000	-1.663101
874.537000	-0.368635
874.742000	-1.362032
874.947000	-1.811723
875.153000	-0.092416
875.358000	-1.271596
875.563000	-1.831308
875.768000	-4.091971
875.974000	-4.363288
876.179000	-0.858493
876.384000	-0.891136
876.589000	-2.967680
876.794000	-2.424591
877.000000	-3.462857
877.205000	-4.953400
877.410000	-2.290996
877.615000	-3.469619
877.821000	-5.188027
878.026000	-4.229899
878.231000	-4.578198
878.436000	-4.498423
878.642000	-3.883705
878.847000	-2.333056
879.052000	-0.772660
879.257000	-3.120472
879.463000	-4.044707
879.668000	-2.799205
879.873000	-0.753995
880.078000	-3.325109
880.283000	-5.287505
880.489000	-5.527317
880.694000	-4.587456
880.899000	-2.254886
881.104000	-0.740461
881.310000	1.026868
881.515000	-0.465668
881.720000	0.723065
881.925000	2.383922
882.131000	3.703442
882.336000	0.454511
882.541000	-3.561845
882.746000	-3.328887
882.952000	-4.294683
883.157000	-3.928984
883.362000	-3.652377
883.567000	-4.140710
883.772000	-4.274642
883.978000	-3.705772
884.183000	-2.181250
884.388000	-2.399183
884.593000	-4.886365
884.799000	-0.393810
885.004000	-0.366904
885.209000	-2.153642
885.414000	-1.304590
885.620000	-4.542032
885.825000	-1.848916
886.030000	-2.500825
886.235000	-3.538488
886.440000	-2.869659
886.646000	-4.847585
886.851000	-4.670784
887.056000	-0.817399
887.261000	-1.390355
887.467000	-4.573381
887.672000	-2.188265
887.877000	-3.362419
888.082000	-5.784297
888.288000	-5.865922
888.493000	-7.754808
888.698000	-5.482210
888.903000	-2.475587
889.109000	-3.648519
889.314000	-0.391754
889.519000	-2.462466
889.724000	-0.321653
889.929000	-1.533965
890.135000	-2.128330
890.340000	-2.424046
890.545000	-4.066206
890.750000	-5.301593
890.956000	-3.596553
891.161000	-1.133928
891.366000	-3.460687
891.571000	-2.868914
891.777000	-3.401404
891.982000	-0.826997
892.187000	-1.151352
892.392000	-1.113052
892.598000	-0.869060
892.803000	-2.175620
893.008000	-4.480292
893.213000	-4.144918
893.418000	-4.391346
893.624000	-4.631682
893.829000	-6.417274
894.034000	-3.877541
894.239000	-1.990463
894.445000	-4.436169
894.650000	-4.826091
894.855000	-4.758506
895.060000	-4.530120
895.266000	-3.819558
895.471000	-5.819663
895.676000	-2.758491
895.881000	-1.471627
896.087000	-3.606744
896.292000	-5.138080
896.497000	-0.731122
896.702000	-1.595984
896.907000	-4.054689
897.113000	0.405829
897.318000	-0.125099
897.523000	-0.961620
897.728000	-2.720451
897.934000	-3.015940
898.139000	-3.176804
898.344000	-0.319511
898.549000	-1.715054
898.755000	-3.811028
898.960000	-4.926807
899.165000	-6.177863
899.370000	-2.284842
899.575000	1.206238
899.781000	-3.676272
899.986000	-4.622177
900.191000	-2.748192
900.396000	-3.227812
900.602000	-2.328551
900.807000	-2.586346
901.012000	-1.591064
901.217000	-1.189158
901.423000	-4.056780
901.628000	-5.612472
901.833000	-1.317323
902.038000	-0.875451
902.244000	-4.643962
902.449000	-3.681799
902.654000	-3.678940
902.859000	-2.589596
903.064000	-1.056675
903.270000	-0.515567
903.475000	-4.291295
903.680000	-6.005036
903.885000	-5.292595
904.091000	-4.513151
904.296000	-6.108236
904.501000	-5.362170
904.706000	-4.563710
904.912000	-0.794144
905.117000	-2.322690
905.322000	-5.636404
905.527000	-5.566537
905.733000	-3.688668
905.938000	-3.227419
906.143000	-5.315934
906.348000	-6.658053
906.553000	-1.854990
906.759000	-1.180527
906.964000	-2.133692
907.169000	-3.234443
907.374000	-5.535604
907.580000	-4.472998
907.785000	-3.531750
907.990000	27.082899
908.195000	17.868541
908.401000	-1.136912
908.606000	-8.387873
908.811000	-9.742445
909.016000	-2.360811
909.221000	-2.697869
909.427000	-4.133768
909.632000	-5.316473
909.837000	-5.257323
910.042000	-7.153883
910.248000	-8.498328
910.453000	-3.765453
910.658000	-5.168496
910.863000	-6.192788
911.069000	-6.805888
911.274000	-2.790928
911.479000	-0.962636
911.684000	-7.489950
911.890000	-4.833755
912.095000	-4.739202
912.300000	-7.455594
912.506000	-6.497326
912.711000	-6.424473
912.917000	-3.145824
913.123000	-2.994541
913.328000	-3.374816
913.534000	-3.144995
913.740000	5.551538
913.946000	1.409343
914.151000	-6.383674
914.357000	-6.507728
914.563000	-2.657389
914.768000	-6.724925
914.974000	-9.271319
915.180000	-7.242531
915.385000	-5.525942
915.591000	-8.216672
915.797000	-3.715963
916.002000	-0.628057
916.208000	-4.166366
916.414000	-5.946197
916.620000	-6.575546
916.825000	-3.953188
917.031000	-3.731095
917.237000	-9.678042
917.442000	-6.413192
917.648000	-7.096639
917.854000	-8.529900
918.059000	-0.480681
918.265000	0.040489
918.471000	-3.738003
918.676000	-7.538233
918.882000	-9.362258
919.088000	-7.127869
919.294000	-11.183186
919.499000	-8.615214
919.705000	-2.738270
919.911000	-2.738150
920.116000	-0.628813
920.322000	-7.130269
920.528000	-7.045144
920.733000	-8.830925
920.939000	-9.494898
921.145000	-8.221130
921.350000	-7.185056
921.556000	-5.389956
921.762000	-5.759089
921.968000	-5.903441
922.173000	-8.132184
922.379000	-10.414364
922.585000	-6.038713
922.790000	-7.819016
922.996000	-7.945966
923.202000	-7.975149
923.407000	-9.437698
923.613000	-6.621334
923.819000	-2.995760
924.024000	-4.523034
924.230000	-3.266581
924.436000	-5.941545
924.642000	4.871616
924.847000	1.719624
925.053000	-5.584670
925.259000	-10.885089
925.464000	-3.105290
925.670000	-4.293456
925.876000	-9.370880
926.081000	-11.415016
926.287000	-6.800991
926.493000	-4.669645
926.698000	-4.968409
926.904000	-3.275091
927.110000	-5.913061
927.316000	-5.499774
927.521000	1.674864
927.727000	-5.190017
927.933000	-6.115131
928.138000	-4.933156
928.344000	-12.174181
928.550000	-8.212309
928.755000	-1.029618
928.961000	-6.126820
929.167000	-7.096958
929.372000	-0.725779
929.578000	-2.622683
929.784000	-7.481359
929.990000	-10.066204
930.195000	-6.257084
930.401000	-5.015551
930.607000	-6.480251
930.812000	-5.484226
931.018000	-7.798130
931.224000	-13.956006
931.429000	-10.936906
931.635000	-14.237922
931.841000	-13.453990
932.046000	-7.854704
932.252000	-2.226213
932.458000	3.732503
932.664000	-2.530740
932.869000	-9.623411
933.075000	-11.168840
933.281000	-10.180009
933.486000	-3.605100
933.692000	-6.137425
933.898000	-11.088529
934.103000	-3.470817
934.309000	-7.059719
934.515000	-4.448419
934.720000	-3.425633
934.926000	-1.170486
935.132000	0.257143
935.338000	-1.858011
935.543000	-9.696756
935.749000	-12.153316
935.955000	-14.882790
936.160000	-12.250518
936.366000	-3.558713
936.572000	-3.937245
936.777000	-2.968789
936.983000	-1.293352
937.189000	-5.966397
937.394000	-11.739624
937.600000	-2.514210
937.806000	3.445535
938.012000	-6.768025
938.217000	4.527085
938.423000	0.078417
938.629000	-7.876429
938.834000	-15.718968
939.040000	-15.021640
939.246000	-10.727981
939.451000	-13.774057
939.657000	-9.089275
939.863000	-11.841219
940.068000	-4.972678
940.274000	-8.279811
940.480000	-6.424523
940.686000	-6.416793
940.891000	-8.347330
941.097000	18.120445
941.303000	3.885318
941.508000	-9.585535
941.714000	-7.205854
941.920000	-19.359367
942.125000	-6.816097
942.331000	-5.014760
942.537000	-0.693423
942.742000	0.356842
942.948000	-10.614293
943.154000	-13.769876
943.360000	-25.219091
943.565000	-12.713303
943.771000	0.231370
943.977000	2.662854
944.182000	-16.503005
944.388000	-17.387790
944.594000	-4.847989
944.799000	3.704090
945.005000	-0.859365
945.211000	0.916639
945.416000	-3.236897
945.622000	-15.919161
945.828000	-12.149136
946.034000	-2.761437
946.239000	-3.927880
946.445000	-14.491654
946.651000	-24.716027
946.856000	-15.591173
947.062000	-2.312234
947.268000	-1.471349
947.473000	-18.258618
947.679000	-19.235606
947.885000	-3.372701
948.090000	-2.082655
948.296000	11.803862
948.502000	0.394122
948.708000	-13.738001
948.913000	-18.073018
949.119000	-1.683019
949.325000	-7.943525
949.530000	-22.414525
949.736000	-28.133471
949.942000	-20.029342
950.147000	-17.640180
950.353000	-16.603333
950.559000	-13.507310
950.764000	8.765366
950.970000	4.164500
951.176000	-5.672864
951.382000	-16.313335
951.587000	-10.053931
951.793000	-1.935938
951.999000	-1.598103
952.204000	-11.327414
952.410000	-27.530488
952.616000	-13.604158
952.821000	-11.211371
953.027000	-18.065679
953.233000	-19.022885
953.438000	-17.248722
953.644000	1.066646
953.850000	-6.898001
954.056000	-13.088718
954.261000	-11.388133
954.467000	-3.133797
954.673000	4.326287
954.878000	-8.828637
955.084000	-13.560480
955.290000	-27.017828
955.495000	-23.982223
955.701000	-21.792875
955.907000	-4.378479
956.112000	-4.045929
956.318000	5.231089
956.524000	3.288317
956.730000	-12.258114
956.935000	-14.335893
957.141000	-20.318982
957.347000	-8.106722
957.552000	-11.522452
957.758000	-28.149170
957.964000	-34.319479
958.169000	0.295643
958.375000	0.122112
958.581000	-17.056521
958.786000	-24.540304
958.992000	-30.997452
959.198000	-12.419390
959.404000	-5.589422
959.609000	-13.133913
959.815000	-22.226264
960.021000	0.490978
960.226000	1.229140
960.432000	-26.476528
960.638000	-21.207919
960.843000	-13.258549
961.049000	-17.710234
961.255000	-9.463296
961.460000	-16.353126
961.666000	-35.390372
961.872000	-21.289349
962.078000	-20.737394
962.283000	-31.656139
962.489000	-31.232128
962.695000	-21.064775
962.900000	-11.355171
963.106000	-10.296760
963.312000	-18.408026
963.517000	-25.162191
963.723000	-26.273188
963.929000	-3.498645
964.134000	-0.464227
964.340000	-21.083093
964.546000	-20.549521
964.752000	-28.421970
964.957000	-36.392207
965.163000	-7.428908
965.369000	-5.394290
965.574000	-5.880852
965.780000	-14.078393
966.000000	-17.757975
966.220000	-11.569402
966.440000	-13.158095
966.661000	-1.822101
966.881000	-21.425940
967.101000	-42.414149
967.321000	-46.386982
967.541000	-13.899130
967.761000	-19.927788
967.981000	-19.688623
968.202000	-15.305324
968.422000	1.089350
968.642000	-3.073145
968.862000	-11.393618
969.082000	-19.318847
969.302000	-9.642669
969.522000	-18.641572
969.743000	1.338569
969.963000	-11.112679
970.183000	-26.513891
970.403000	-24.967570
970.623000	-23.936253
970.843000	-2.553967
971.063000	-5.111231
971.284000	-24.900809
971.504000	-36.710113
971.724000	-20.148517
971.944000	-32.021208
972.164000	-40.846386
972.384000	-31.152102
972.604000	-49.196021
972.825000	-49.635974
973.045000	-38.328521
973.265000	19.427099
973.485000	10.532969
973.705000	-18.693419
973.925000	-21.754571
974.145000	-52.255025
974.365000	-14.597793
974.586000	-14.683344
974.806000	-36.727426
975.026000	-8.994651
975.246000	-19.978258
975.466000	-31.171072
975.686000	-13.814362
975.906000	-22.703182
976.127000	-50.014517
976.347000	-40.682449
976.567000	-3.675061
976.787000	-11.778509
977.007000	-31.543402
977.227000	-32.900769
977.447000	-40.138113
977.668000	-63.896124
977.888000	-38.028968
978.108000	-32.325599
978.328000	-20.103904
978.548000	7.850612
978.768000	18.681134
978.988000	-0.777937
979.209000	-25.690045
979.429000	-28.546958
979.649000	-9.037463
979.869000	-27.157879
980.089000	-51.617875
980.309000	-56.168921
980.529000	-54.243063
980.750000	-30.874089
980.970000	-51.339854
981.190000	-43.397779
981.410000	-36.651006
981.630000	-41.000714
981.850000	-27.308177
982.070000	-26.404641
982.291000	-56.797939
982.511000	-52.020736
982.731000	-14.454191
982.951000	-30.501672
983.171000	-32.883472
983.391000	-29.604199
983.611000	-1.690570
983.832000	-30.650177
984.052000	-56.728340
984.272000	-33.203713
984.492000	-28.666670
984.712000	-40.305458
984.932000	-57.646699
985.152000	-62.392566
985.373000	-51.893195
985.593000	-24.336093
985.813000	-30.089106
986.033000	-49.848889
986.253000	-8.195845
986.473000	-0.127761
986.693000	-33.457493
986.914000	-35.476012
987.134000	8.122731
987.354000	-30.953498
987.574000	175.484500
987.794000	103.122904
988.014000	-49.943688
988.234000	-44.322125
988.455000	-25.927791
988.675000	-9.615899
988.895000	-20.779159
989.115000	-45.566892
989.335000	-37.203598
989.555000	-19.910920
989.775000	-52.847675
989.995000	-50.843499
990.216000	-44.524812
990.436000	-34.925145
990.656000	7.519387
990.876000	-34.254307
991.096000	-22.073913
991.316000	16.116434
991.536000	-12.161805
991.757000	-39.298379
991.977000	-89.873849
992.197000	-30.322469
992.417000	-34.850825
992.637000	-85.912955
992.857000	-87.021013
993.077000	-88.861743
993.298000	-66.215572
993.518000	-58.930060
993.738000	-92.985785
993.958000	-52.531034
994.178000	-61.505375
994.398000	-59.021367
994.618000	-97.140717
994.839000	-148.637267
995.059000	-34.836847
995.279000	37.662295
995.499000	-33.486253
995.719000	-32.931280
995.939000	-45.720238
996.159000	-43.822788
996.380000	-36.236499
996.600000	-88.394953
996.820000	-51.787256
997.040000	-5.318820
997.260000	-71.329308
997.480000	-51.043659
997.700000	-112.169839
997.921000	-67.309205
998.141000	10.808147
998.361000	-26.211725
998.581000	-66.533857
998.801000	-96.643138
999.021000	-59.326994
999.241000	-37.084756
999.462000	-74.156249
999.682000	-121.695728
999.902000	-81.503160
1000.122000	-84.019071
1000.342000	-159.712465
1000.562000	-84.824378
1000.782000	-69.291077
1001.003000	-995.038987
