Wavelength	Irradiance
(nm)	(mW/cm2/nm)

294.396000	0.000000
294.577000	0.000000
294.757000	0.000000
294.938000	-0.000000
295.118000	-0.000000
295.299000	0.000000
295.479000	-0.000000
295.660000	-0.000000
295.840000	-0.000000
296.021000	-0.000000
296.202000	-0.000000
296.382000	-0.000000
296.563000	-0.000000
296.743000	-0.000000
296.924000	0.000000
297.104000	-0.000000
297.285000	-0.000000
297.465000	-0.000000
297.646000	-0.000000
297.826000	-0.000000
298.007000	0.000000
298.187000	-0.000000
298.368000	-0.000000
298.548000	0.000000
298.729000	0.000000
298.909000	-0.000000
299.090000	-0.000000
299.270000	-0.000000
299.451000	-0.000000
299.631000	-0.000000
299.812000	-0.000000
299.992000	0.000000
300.173000	0.000000
300.353000	-0.000000
300.534000	0.000000
300.714000	0.000000
300.895000	0.000000
301.075000	-0.000000
301.256000	0.000000
301.436000	-0.000000
301.617000	-0.000000
301.797000	-0.000000
301.978000	0.000000
302.159000	0.000000
302.339000	0.000000
302.520000	-0.000000
302.700000	-0.000000
302.881000	0.000000
303.061000	0.000000
303.242000	0.000000
303.422000	0.000000
303.603000	-0.000000
303.783000	-0.000000
303.964000	0.000000
304.144000	-0.000000
304.325000	-0.000000
304.505000	-0.000000
304.686000	-0.000000
304.866000	0.000000
305.047000	-0.000000
305.227000	-0.000000
305.408000	-0.000000
305.588000	-0.000000
305.769000	-0.000000
305.949000	-0.000000
306.130000	-0.000000
306.310000	-0.000000
306.491000	-0.000000
306.671000	0.000000
306.852000	-0.000000
307.032000	-0.000000
307.213000	-0.000000
307.393000	-0.000000
307.574000	0.000000
307.755000	0.000000
307.935000	0.000000
308.116000	-0.000000
308.296000	-0.000000
308.477000	0.000000
308.657000	0.000000
308.838000	0.000000
309.018000	0.000000
309.199000	-0.000000
309.379000	-0.000000
309.560000	0.000000
309.740000	-0.000000
309.921000	0.000000
310.101000	0.000000
310.282000	-0.000000
310.462000	-0.000000
310.643000	-0.000000
310.823000	-0.000000
311.004000	-0.000000
311.184000	-0.000000
311.365000	0.000000
311.545000	0.000000
311.726000	0.000000
311.906000	0.000000
312.087000	0.000000
312.267000	-0.000000
312.448000	-0.000000
312.628000	-0.000000
312.809000	-0.000000
312.989000	-0.000000
313.170000	-0.000000
313.344000	-0.000000
313.518000	-0.000000
313.691000	-0.000000
313.865000	-0.000000
314.039000	-0.000000
314.213000	-0.000000
314.387000	-0.000000
314.560000	-0.000000
314.734000	-0.000000
314.908000	-0.000000
315.082000	-0.000000
315.255000	0.000000
315.429000	0.000000
315.603000	0.000000
315.777000	-0.000000
315.951000	0.000000
316.124000	-0.000000
316.298000	-0.000000
316.472000	-0.000000
316.646000	-0.000000
316.820000	-0.000000
316.993000	0.000000
317.167000	-0.000000
317.341000	-0.000000
317.515000	-0.000000
317.688000	-0.000000
317.862000	-0.000000
318.036000	-0.000000
318.210000	-0.000000
318.384000	-0.000000
318.557000	-0.000000
318.731000	-0.000000
318.905000	-0.000000
319.079000	0.000000
319.253000	-0.000000
319.426000	0.000000
319.600000	0.000000
319.774000	-0.000000
319.948000	-0.000000
320.122000	0.000000
320.295000	0.000000
320.469000	-0.000000
320.643000	-0.000000
320.817000	-0.000000
320.990000	-0.000000
321.164000	-0.000000
321.338000	-0.000000
321.512000	-0.000000
321.686000	-0.000000
321.859000	-0.000000
322.033000	-0.000000
322.207000	0.000000
322.381000	-0.000000
322.555000	0.000000
322.728000	0.000000
322.902000	-0.000000
323.076000	-0.000000
323.250000	-0.000000
323.423000	-0.000000
323.597000	-0.000000
323.771000	-0.000000
323.945000	-0.000000
324.119000	-0.000000
324.292000	0.000000
324.466000	-0.000000
324.640000	0.000000
324.814000	0.000000
324.988000	-0.000000
325.161000	-0.000000
325.335000	-0.000000
325.509000	-0.000000
325.683000	-0.000000
325.856000	-0.000000
326.030000	-0.000000
326.204000	-0.000000
326.378000	-0.000000
326.552000	-0.000000
326.725000	-0.000000
326.899000	-0.000000
327.073000	-0.000000
327.247000	-0.000000
327.421000	0.000000
327.594000	-0.000000
327.768000	-0.000000
327.942000	-0.000000
328.116000	0.000000
328.289000	0.000000
328.463000	-0.000000
328.637000	0.000000
328.811000	-0.000000
328.985000	-0.000000
329.158000	-0.000000
329.332000	-0.000000
329.506000	0.000000
329.680000	-0.000000
329.854000	-0.000000
330.027000	-0.000000
330.201000	0.000000
330.375000	0.000000
330.549000	0.000000
330.723000	-0.000000
330.896000	-0.000000
331.070000	-0.000000
331.244000	-0.000000
331.418000	-0.000000
331.591000	-0.000000
331.765000	-0.000000
331.939000	-0.000000
332.113000	-0.000000
332.287000	-0.000000
332.460000	0.000000
332.634000	0.000000
332.808000	-0.000000
332.982000	-0.000000
333.156000	-0.000000
333.329000	-0.000000
333.503000	-0.000000
333.677000	-0.000000
333.851000	-0.000000
334.024000	-0.000000
334.198000	-0.000000
334.372000	-0.000000
334.546000	-0.000000
334.720000	-0.000000
334.893000	-0.000000
335.067000	-0.000000
335.241000	0.000000
335.415000	-0.000000
335.589000	-0.000000
335.762000	-0.000000
335.936000	-0.000000
336.110000	-0.000000
336.284000	-0.000000
336.458000	-0.000000
336.631000	-0.000000
336.805000	-0.000000
336.979000	-0.000000
337.153000	-0.000000
337.326000	-0.000000
337.500000	-0.000000
337.674000	-0.000000
337.848000	-0.000000
338.022000	0.000000
338.195000	-0.000000
338.369000	-0.000000
338.543000	-0.000000
338.717000	-0.000000
338.891000	0.000000
339.064000	0.000000
339.238000	-0.000000
339.412000	-0.000000
339.586000	-0.000000
339.759000	-0.000000
339.933000	-0.000000
340.107000	0.000000
340.281000	-0.000000
340.455000	-0.000000
340.628000	-0.000000
340.802000	-0.000000
340.976000	-0.000000
341.150000	-0.000000
341.324000	-0.000000
341.497000	-0.000000
341.671000	-0.000000
341.845000	-0.000000
342.019000	-0.000000
342.192000	-0.000000
342.366000	-0.000000
342.540000	-0.000000
342.714000	-0.000000
342.888000	-0.000000
343.061000	-0.000000
343.235000	-0.000000
343.409000	-0.000000
343.583000	-0.000000
343.757000	-0.000000
343.930000	-0.000000
344.104000	-0.000000
344.278000	0.000000
344.452000	0.000000
344.626000	-0.000000
344.799000	-0.000000
344.973000	-0.000000
345.147000	-0.000000
345.321000	-0.000000
345.494000	-0.000000
345.668000	0.000000
345.842000	0.000000
346.016000	-0.000000
346.190000	0.000000
346.363000	0.000000
346.537000	-0.000000
346.711000	-0.000000
346.885000	-0.000000
347.059000	-0.000000
347.232000	0.000000
347.406000	0.000000
347.580000	-0.000000
347.754000	-0.000000
347.927000	0.000000
348.101000	0.000000
348.275000	-0.000000
348.449000	-0.000000
348.623000	-0.000000
348.796000	0.000000
348.970000	0.000000
349.144000	-0.000000
349.318000	-0.000000
349.492000	-0.000000
349.665000	-0.000000
349.839000	-0.000000
350.013000	-0.000000
350.187000	-0.000000
350.361000	-0.000000
350.534000	-0.000000
350.708000	-0.000000
350.882000	-0.000000
351.056000	0.000000
351.229000	-0.000000
351.403000	-0.000000
351.577000	-0.000000
351.751000	-0.000000
351.925000	-0.000000
352.098000	-0.000000
352.272000	-0.000000
352.446000	-0.000000
352.620000	-0.000000
352.794000	-0.000000
352.967000	-0.000000
353.141000	0.000000
353.315000	0.000000
353.489000	-0.000000
353.662000	-0.000000
353.836000	-0.000000
354.010000	-0.000000
354.184000	-0.000000
354.358000	-0.000000
354.531000	-0.000000
354.705000	-0.000000
354.879000	-0.000000
355.053000	-0.000000
355.227000	0.000000
355.400000	-0.000000
355.574000	0.000000
355.748000	0.000000
355.922000	-0.000000
356.095000	-0.000000
356.269000	-0.000000
356.443000	-0.000000
356.617000	-0.000000
356.791000	-0.000000
356.964000	-0.000000
357.138000	-0.000000
357.312000	-0.000000
357.486000	-0.000000
357.660000	-0.000000
357.833000	-0.000000
358.007000	-0.000000
358.181000	-0.000000
358.355000	-0.000000
358.529000	-0.000000
358.702000	-0.000000
358.876000	-0.000000
359.050000	-0.000000
359.224000	-0.000000
359.397000	0.000000
359.571000	-0.000000
359.745000	-0.000000
359.919000	-0.000000
360.093000	-0.055107
360.266000	0.024157
360.440000	0.070698
360.614000	0.094417
360.788000	-0.012599
360.962000	-0.215210
361.135000	-0.096978
361.309000	-0.173554
361.483000	-0.307915
361.657000	-0.275506
361.830000	-0.246999
362.004000	-0.072939
362.178000	-0.350351
362.352000	-0.230783
362.526000	-0.058542
362.699000	-0.054273
362.873000	-0.366007
363.047000	-0.334648
363.221000	-0.353788
363.395000	-0.170651
363.568000	-0.191678
363.742000	-0.224477
363.916000	-0.179462
364.090000	-0.268841
364.263000	-0.255335
364.437000	-0.357008
364.611000	-0.050162
364.785000	-0.043365
364.959000	-0.215394
365.132000	-0.215049
365.306000	-0.249420
365.480000	-0.119432
365.656000	-0.192789
365.831000	-0.181418
366.007000	-0.159137
366.183000	-0.199827
366.358000	-0.299376
366.534000	-0.157437
366.710000	-0.345537
366.886000	-0.251423
367.061000	-0.100462
367.237000	0.028805
367.413000	-0.121610
367.588000	-0.322418
367.764000	-0.302495
367.940000	-0.299299
368.115000	-0.253623
368.291000	-0.343699
368.467000	-0.193768
368.643000	0.134539
368.818000	-0.229375
368.994000	-0.319043
369.170000	-0.220137
369.345000	-0.197105
369.521000	-0.254576
369.697000	-0.115019
369.872000	-0.208747
370.048000	-0.340955
370.224000	-0.290382
370.399000	-0.485784
370.575000	-0.372999
370.751000	-0.439906
370.927000	-0.427484
371.102000	-0.354160
371.278000	-0.286952
371.454000	-0.234033
371.629000	0.023726
371.805000	-0.037990
371.981000	0.086410
372.156000	0.257091
372.332000	0.042474
372.508000	-0.013648
372.683000	-0.031332
372.859000	-0.130776
373.035000	-0.160129
373.211000	0.248438
373.386000	0.033903
373.562000	-0.363026
373.738000	-0.462100
373.913000	-0.628715
374.089000	-0.448857
374.265000	-0.015439
374.440000	0.010936
374.616000	0.030754
374.792000	-0.219403
374.968000	0.170106
375.143000	-0.046053
375.319000	-0.327653
375.495000	-0.368587
375.670000	-0.217166
375.846000	-0.145687
376.022000	-0.305289
376.197000	-0.206423
376.373000	-0.387670
376.549000	-0.399143
376.724000	-0.446041
376.900000	-0.310543
377.076000	-0.172143
377.252000	0.052794
377.427000	0.185945
377.603000	-0.203918
377.779000	-0.192785
377.954000	-0.344386
378.130000	-0.220865
378.306000	-0.183299
378.481000	-0.196784
378.657000	-0.268176
378.833000	-0.292864
379.009000	-0.199793
379.184000	-0.029183
379.360000	-0.061942
379.536000	-0.075138
379.711000	-0.187581
379.887000	-0.278506
380.063000	-0.303828
380.238000	-0.337606
380.414000	-0.071415
380.590000	-0.318289
380.765000	-0.315720
380.941000	-0.113354
381.117000	-0.073740
381.293000	-0.163586
381.468000	-0.319844
381.644000	-0.237386
381.820000	-0.114431
381.995000	-0.014798
382.171000	0.184429
382.347000	0.125753
382.522000	-0.288111
382.698000	0.029072
382.874000	0.077410
383.050000	-0.321122
383.225000	0.063682
383.401000	0.257453
383.577000	-0.127422
383.752000	-0.267957
383.928000	-0.175859
384.104000	-0.121449
384.279000	-0.218592
384.455000	-0.128934
384.631000	-0.178666
384.806000	-0.395224
384.982000	-0.168025
385.158000	-0.203871
385.334000	-0.057578
385.509000	-0.147482
385.685000	-0.449724
385.861000	-0.242474
386.036000	-0.370779
386.212000	-0.526577
386.388000	-0.341546
386.563000	-0.294913
386.739000	-0.347601
386.915000	-0.569333
387.090000	-0.251616
387.266000	-0.067424
387.442000	0.035077
387.618000	-0.052969
387.793000	-0.384225
387.969000	-0.528387
388.145000	-0.420074
388.320000	-0.334155
388.496000	-0.322634
388.672000	-0.533864
388.847000	-0.110946
389.023000	-0.076188
389.199000	-0.420756
389.375000	-0.239012
389.550000	-0.302414
389.726000	-0.143532
389.902000	-0.384534
390.077000	-0.181004
390.253000	-0.161192
390.429000	-0.254436
390.604000	-0.141156
390.780000	-0.116133
390.956000	-0.240426
391.131000	-0.288140
391.307000	0.005423
391.483000	-0.188842
391.659000	-0.351122
391.834000	-0.089359
392.010000	-0.259001
392.186000	-0.323940
392.361000	-0.249282
392.537000	-0.399134
392.713000	0.092754
392.888000	0.256120
393.064000	-0.083991
393.240000	-0.254606
393.416000	-0.362288
393.591000	-0.405053
393.767000	-0.445123
393.943000	-0.302550
394.118000	-0.021093
394.294000	0.153117
394.470000	-0.012265
394.645000	0.060546
394.821000	0.295116
394.997000	-0.063136
395.172000	-0.146733
395.348000	-0.232568
395.524000	-0.502429
395.700000	-0.366972
395.875000	-0.139911
396.051000	-0.125382
396.227000	-0.176901
396.402000	-0.217070
396.578000	-0.167242
396.754000	-0.322003
396.929000	-0.247382
397.105000	0.033814
397.281000	-0.053569
397.457000	-0.201942
397.632000	-0.192749
397.808000	-0.465600
397.984000	-0.603878
398.159000	-0.499211
398.335000	-0.321333
398.511000	0.134614
398.686000	-0.075908
398.862000	-0.336595
399.038000	-0.410365
399.213000	-0.161747
399.389000	-0.459421
399.565000	-0.180774
399.741000	0.036002
399.916000	-0.023286
400.092000	0.191599
400.268000	-0.164518
400.443000	-0.281341
400.619000	0.088604
400.795000	-0.033242
400.970000	-0.229056
401.146000	-0.294688
401.322000	0.007934
401.497000	0.412838
401.673000	0.091930
401.849000	-0.224667
402.025000	-0.033049
402.200000	-0.149865
402.376000	-0.248351
402.552000	0.159183
402.727000	-0.020262
402.903000	-0.352998
403.079000	-0.254880
403.254000	0.016313
403.430000	0.025982
403.606000	-0.098504
403.782000	-0.176637
403.957000	-0.370535
404.133000	-0.488111
404.309000	-0.309576
404.484000	-0.066341
404.660000	-0.037052
404.841000	-0.150828
405.023000	0.056705
405.204000	-0.036982
405.385000	-0.352370
405.566000	-0.359191
405.748000	-0.236957
405.929000	-0.019062
406.110000	-0.025873
406.292000	-0.163432
406.473000	-0.120574
406.654000	-0.295954
406.835000	-0.136537
407.017000	-0.175124
407.198000	-0.144171
407.379000	-0.167185
407.560000	-0.205007
407.742000	-0.205205
407.923000	-0.133550
408.104000	-0.301498
408.286000	-0.150722
408.467000	-0.085161
408.648000	-0.334460
408.829000	-0.419239
409.011000	-0.279564
409.192000	-0.440908
409.373000	-0.209302
409.555000	-0.065975
409.736000	-0.095949
409.917000	-0.207320
410.098000	-0.201813
410.280000	-0.101818
410.461000	-0.123495
410.642000	-0.081296
410.823000	0.184148
411.005000	0.088493
411.186000	-0.163670
411.367000	-0.258476
411.549000	-0.263773
411.730000	-0.019736
411.911000	0.107546
412.092000	-0.090582
412.274000	-0.160303
412.455000	-0.080589
412.636000	-0.073872
412.818000	-0.266994
412.999000	-0.340419
413.180000	-0.238408
413.361000	-0.204025
413.543000	-0.232620
413.724000	-0.331617
413.905000	-0.322207
414.087000	-0.355249
414.268000	-0.316673
414.449000	-0.314593
414.630000	-0.401679
414.812000	-0.495926
414.993000	-0.116014
415.174000	0.028685
415.355000	-0.168899
415.537000	-0.400957
415.718000	-0.093750
415.899000	-0.227570
416.081000	-0.350926
416.262000	-0.066505
416.443000	-0.196645
416.624000	-0.177805
416.806000	-0.076838
416.987000	0.037810
417.168000	-0.041263
417.350000	-0.235695
417.531000	-0.290431
417.712000	-0.236871
417.893000	0.029500
418.075000	0.094411
418.256000	-0.159633
418.437000	-0.054211
418.618000	0.020354
418.800000	0.085456
418.981000	-0.108104
419.162000	-0.052030
419.344000	0.126521
419.525000	-0.014858
419.706000	-0.085332
419.887000	0.080212
420.069000	0.238823
420.250000	0.102214
420.431000	0.052669
420.613000	-0.005735
420.794000	-0.229053
420.975000	0.122260
421.156000	-0.054903
421.338000	-0.087204
421.519000	-0.062609
421.700000	-0.126367
421.882000	-0.115967
422.063000	0.047360
422.244000	0.506742
422.425000	0.303190
422.607000	-0.051452
422.788000	-0.057713
422.969000	-0.148964
423.150000	-0.163352
423.332000	-0.196386
423.513000	0.012410
423.694000	0.046263
423.876000	0.084990
424.057000	0.143314
424.238000	0.193276
424.419000	0.261669
424.601000	0.106429
424.782000	0.140198
424.963000	0.322519
425.145000	0.227520
425.326000	0.257506
425.507000	0.288043
425.688000	0.166506
425.870000	0.017679
426.051000	-0.062486
426.232000	0.024011
426.413000	0.054018
426.595000	0.042110
426.776000	0.042090
426.957000	0.105810
427.139000	0.194455
427.320000	0.260160
427.501000	0.382257
427.682000	0.340225
427.864000	0.387943
428.045000	0.596859
428.226000	0.519493
428.408000	0.163538
428.589000	0.276937
428.770000	0.346161
428.951000	0.253886
429.133000	0.135963
429.314000	0.317060
429.495000	0.333948
429.677000	0.358278
429.858000	0.362528
430.039000	0.437711
430.220000	0.548652
430.402000	0.629182
430.583000	0.409101
430.764000	0.434414
430.945000	0.610085
431.127000	0.737190
431.308000	0.550864
431.489000	0.707213
431.671000	0.831968
431.852000	0.766520
432.033000	0.671033
432.214000	0.756199
432.396000	0.813819
432.577000	0.683408
432.758000	0.537368
432.940000	0.603002
433.121000	0.751174
433.302000	0.806999
433.483000	1.025538
433.665000	1.132420
433.846000	1.091696
434.027000	0.972928
434.208000	0.852332
434.390000	0.847912
434.571000	1.323737
434.752000	1.773406
434.934000	1.590638
435.115000	1.569649
435.296000	1.722615
435.477000	1.525974
435.659000	1.272340
435.840000	1.389827
436.026000	1.375865
436.211000	1.303032
436.397000	1.070232
436.582000	1.211169
436.768000	1.457446
436.953000	1.389456
437.139000	1.440101
437.325000	1.767749
437.510000	1.752925
437.696000	1.904507
437.881000	1.917219
438.067000	1.624919
438.252000	1.716369
438.438000	1.717560
438.624000	1.784969
438.809000	1.908203
438.995000	2.045909
439.180000	1.988327
439.366000	1.986256
439.551000	2.038318
439.737000	2.114910
439.923000	2.269819
440.108000	2.246653
440.294000	2.345106
440.479000	2.536081
440.665000	2.580529
440.850000	2.524256
441.036000	2.547529
441.222000	2.605220
441.407000	2.554257
441.593000	2.727114
441.778000	2.882202
441.964000	3.041419
442.149000	2.765024
442.335000	2.781173
442.521000	2.962802
442.706000	3.219822
442.892000	3.203703
443.077000	3.216736
443.263000	3.354673
443.448000	3.327023
443.634000	3.345363
443.820000	3.772255
444.005000	3.747124
444.191000	3.566295
444.376000	3.662613
444.562000	4.081936
444.747000	4.150709
444.933000	4.108437
445.119000	4.059251
445.304000	4.058437
445.490000	4.295745
445.675000	4.386858
445.861000	4.301810
446.046000	4.433828
446.232000	4.584630
446.418000	4.731785
446.603000	4.835365
446.789000	4.925194
446.974000	5.002877
447.160000	4.830661
447.345000	5.006526
447.531000	5.072122
447.717000	5.369131
447.902000	5.558732
448.088000	5.687928
448.273000	5.684220
448.459000	5.687044
448.644000	5.744364
448.830000	5.824739
449.016000	5.886519
449.201000	6.052297
449.387000	6.261518
449.572000	6.451100
449.758000	6.490074
449.943000	6.522635
450.129000	6.549648
450.315000	6.666323
450.500000	6.755981
450.686000	6.999417
450.871000	6.974047
451.057000	7.240477
451.243000	7.309356
451.428000	7.417525
451.614000	7.530026
451.799000	7.571805
451.985000	7.919735
452.170000	8.080499
452.356000	7.937297
452.542000	8.044751
452.727000	8.221315
452.913000	8.193121
453.098000	8.549409
453.284000	8.858091
453.469000	8.754199
453.655000	8.931145
453.841000	8.929168
454.026000	8.778777
454.212000	8.925550
454.397000	9.069428
454.583000	9.023191
454.768000	8.918268
454.954000	9.206788
455.140000	9.281179
455.325000	9.161500
455.511000	9.179896
455.696000	9.284085
455.882000	9.442337
456.067000	9.710666
456.253000	9.506107
456.439000	9.369001
456.624000	9.377128
456.810000	9.446289
456.995000	9.493618
457.181000	9.375882
457.366000	9.586556
457.552000	9.519449
457.738000	9.572819
457.923000	9.591808
458.109000	9.769885
458.294000	9.608065
458.480000	9.551313
458.665000	9.445960
458.851000	9.300233
459.037000	9.057154
459.222000	9.171213
459.408000	9.063334
459.593000	9.042789
459.779000	9.084277
459.964000	9.176102
460.150000	9.278895
460.336000	9.073416
460.521000	8.736449
460.707000	8.475946
460.892000	8.305241
461.078000	8.453182
461.263000	8.445528
461.449000	8.129164
461.635000	8.028699
461.820000	7.965809
462.006000	7.939139
462.191000	7.770606
462.377000	7.444127
462.562000	7.700217
462.748000	7.729084
462.934000	7.189665
463.119000	6.947130
463.305000	7.002341
463.490000	6.802614
463.676000	6.762830
463.861000	6.649035
464.047000	6.498355
464.233000	6.400893
464.418000	6.219723
464.604000	6.055492
464.789000	6.168186
464.975000	6.055824
465.160000	5.825624
465.346000	5.739546
465.532000	5.555820
465.717000	5.397430
465.903000	5.532927
466.088000	5.354992
466.274000	5.089386
466.459000	4.971969
466.645000	5.258933
466.831000	5.117194
467.016000	5.049044
467.202000	4.863598
467.387000	4.683299
467.573000	4.396146
467.758000	4.620973
467.944000	4.430971
468.130000	4.283879
468.315000	4.341887
468.501000	4.386868
468.686000	4.222969
468.872000	4.153206
469.057000	4.140235
469.243000	3.984660
469.429000	3.903533
469.614000	3.778709
469.800000	3.638669
469.985000	3.713927
470.171000	3.723586
470.356000	3.558346
470.542000	3.622364
470.728000	3.539996
470.913000	3.459699
471.099000	3.534660
471.284000	3.369583
471.470000	3.298472
471.655000	3.251586
471.841000	3.200928
472.027000	3.045796
472.212000	3.206117
472.398000	3.232370
472.583000	3.096100
472.769000	3.068365
472.954000	2.974022
473.140000	2.730987
473.326000	2.663842
473.511000	2.918935
473.697000	2.901779
473.882000	2.721762
474.068000	2.606610
474.253000	2.486418
474.439000	2.537588
474.625000	2.571244
474.810000	2.539671
474.996000	2.521979
475.181000	2.304137
475.367000	2.390796
475.552000	2.563098
475.738000	2.195862
475.924000	2.191959
476.109000	2.280425
476.295000	2.116600
476.480000	2.131564
476.666000	2.072360
476.851000	2.022190
477.037000	2.043621
477.223000	1.906869
477.408000	1.781585
477.594000	1.691528
477.779000	1.800282
477.965000	1.798944
478.151000	1.636194
478.336000	1.730295
478.522000	1.624949
478.707000	1.529472
478.893000	1.565127
479.078000	1.408110
479.264000	1.422294
479.450000	1.440643
479.635000	1.526476
479.821000	1.429358
480.006000	1.477639
480.192000	1.456512
480.377000	1.419151
480.563000	1.356530
480.749000	1.134074
480.934000	1.158526
481.120000	1.256566
481.305000	1.300012
481.491000	1.260928
481.676000	1.282547
481.862000	1.266687
482.048000	1.101212
482.233000	1.126479
482.419000	1.116204
482.604000	1.029468
482.790000	0.988020
482.975000	0.998818
483.161000	1.145608
483.347000	1.083760
483.532000	1.010177
483.718000	0.788421
483.903000	0.818200
484.089000	0.862580
484.274000	0.713516
484.460000	0.829403
484.646000	0.856115
484.831000	0.724410
485.017000	0.783170
485.202000	0.801333
485.388000	1.002085
485.573000	1.003051
485.759000	0.804197
485.945000	0.903607
486.130000	0.728151
486.316000	0.738254
486.501000	0.776467
486.687000	0.598306
486.872000	0.532266
487.058000	0.684489
487.244000	0.678050
487.429000	0.517718
487.615000	0.677185
487.800000	0.767009
487.986000	0.637488
488.171000	0.720956
488.357000	0.646530
488.543000	0.630606
488.728000	0.676381
488.914000	0.597263
489.099000	0.484426
489.285000	0.464702
489.470000	0.630747
489.656000	0.653464
489.842000	0.633614
490.027000	0.709504
490.213000	0.533642
490.398000	0.218579
490.584000	0.462934
490.769000	0.487925
490.955000	0.541780
491.141000	0.531967
491.326000	0.502436
491.512000	0.634763
491.697000	0.490707
491.883000	0.359516
492.068000	0.316710
492.254000	0.320137
492.440000	0.401935
492.625000	0.321847
492.811000	0.307916
492.996000	0.422116
493.182000	0.427381
493.367000	0.245833
493.553000	0.152125
493.739000	0.223778
493.924000	0.331979
494.110000	0.348862
494.295000	0.227351
494.481000	0.297353
494.666000	0.323021
494.852000	0.456175
495.038000	0.284266
495.223000	0.160503
495.409000	0.203302
495.594000	0.162272
495.780000	0.209673
495.965000	0.136669
496.151000	0.322135
496.337000	0.398641
496.522000	0.168505
496.708000	0.244031
496.893000	0.374171
497.079000	0.207909
497.264000	0.175816
497.450000	0.202929
497.636000	0.253519
497.821000	0.099245
498.007000	0.295694
498.192000	0.343518
498.378000	0.185264
498.563000	0.122802
498.749000	0.169633
498.935000	0.164713
499.120000	0.244330
499.306000	0.085349
499.491000	0.047019
499.677000	0.133398
499.862000	0.216894
500.048000	0.281729
500.234000	0.139391
500.419000	0.135911
500.605000	0.264963
500.790000	0.152680
500.976000	0.018321
501.161000	-0.049902
501.347000	0.115499
501.533000	0.201599
501.718000	0.118309
501.904000	0.057700
502.089000	0.156284
502.275000	0.225116
502.460000	0.105976
502.646000	0.137853
502.832000	0.174371
503.017000	0.154124
503.203000	-0.034131
503.388000	-0.074629
503.574000	0.140243
503.759000	0.167384
503.945000	0.210855
504.131000	0.105709
504.316000	0.047474
504.502000	0.074711
504.687000	0.061735
504.873000	-0.062523
505.058000	-0.101117
505.244000	-0.126507
505.430000	-0.048472
505.615000	0.060054
505.801000	0.105568
505.986000	-0.075687
506.172000	0.007159
506.358000	0.018504
506.543000	-0.034347
506.729000	0.161073
506.914000	0.151965
507.100000	0.247431
507.285000	0.014837
507.471000	-0.069731
507.657000	0.152553
507.842000	0.027130
508.028000	-0.111439
508.213000	-0.074605
508.399000	-0.027081
508.584000	0.105570
508.770000	0.006289
508.956000	-0.053782
509.141000	-0.007050
509.327000	0.033987
509.512000	-0.002282
509.698000	0.020571
509.883000	0.094165
510.069000	0.027387
510.255000	0.030273
510.440000	0.059087
510.626000	-0.019558
510.811000	-0.070470
510.997000	0.014981
511.182000	0.247077
511.368000	0.116759
511.554000	-0.194457
511.739000	-0.116560
511.925000	0.077435
512.110000	0.069684
512.296000	0.179553
512.481000	0.194712
512.667000	0.101598
512.853000	-0.093725
513.038000	-0.017731
513.224000	-0.052434
513.409000	-0.147840
513.595000	-0.038998
513.780000	-0.167299
513.966000	-0.098559
514.152000	-0.089908
514.337000	-0.136168
514.523000	-0.099583
514.708000	-0.039913
514.894000	-0.005220
515.079000	-0.104384
515.265000	-0.071890
515.451000	-0.037120
515.636000	-0.117267
515.822000	-0.023599
516.007000	-0.151288
516.193000	-0.015848
516.378000	0.072214
516.564000	-0.040984
516.750000	-0.036164
516.935000	0.067333
517.121000	0.072157
517.306000	0.123534
517.492000	0.085905
517.677000	-0.136945
517.863000	-0.161187
518.049000	-0.035271
518.234000	-0.122386
518.420000	0.009307
518.605000	0.193435
518.791000	0.136189
518.976000	-0.019838
519.162000	-0.138226
519.348000	-0.010097
519.533000	-0.022686
519.719000	0.173325
519.904000	0.073450
520.090000	0.022882
520.275000	0.205303
520.461000	0.174600
520.647000	-0.038296
520.832000	-0.241119
521.018000	-0.121899
521.203000	-0.068211
521.389000	-0.238564
521.574000	-0.164181
521.760000	-0.013975
521.946000	-0.028619
522.131000	-0.087099
522.317000	-0.068482
522.502000	-0.124849
522.688000	-0.011090
522.873000	-0.051995
523.059000	-0.078340
523.245000	-0.076320
523.430000	-0.183635
523.616000	-0.157273
523.801000	-0.235539
523.987000	-0.168517
524.172000	-0.026780
524.358000	0.016231
524.544000	-0.035533
524.729000	0.067762
524.915000	0.103058
525.100000	-0.052094
525.286000	0.015241
525.471000	0.015284
525.657000	0.002550
525.843000	-0.205612
526.028000	-0.043628
526.214000	-0.077007
526.399000	-0.192484
526.585000	-0.243757
526.770000	-0.273283
526.956000	-0.157426
527.142000	-0.206770
527.327000	-0.067619
527.513000	-0.171632
527.698000	-0.170833
527.884000	-0.124713
528.069000	-0.157215
528.255000	-0.039157
528.441000	-0.129749
528.626000	-0.103200
528.812000	0.129245
528.997000	-0.018387
529.183000	-0.155221
529.368000	-0.088708
529.554000	-0.084919
529.740000	-0.086167
529.925000	-0.123526
530.111000	-0.105477
530.296000	-0.053019
530.482000	0.050309
530.667000	-0.037950
530.853000	0.023006
531.039000	-0.041215
531.224000	-0.006564
531.410000	0.055984
531.595000	-0.028121
531.781000	0.029357
531.967000	-0.107760
532.152000	0.037896
532.338000	-0.059551
532.523000	-0.218698
532.709000	-0.229939
532.894000	-0.103164
533.080000	-0.059194
533.266000	-0.208386
533.451000	-0.246059
533.637000	-0.167534
533.822000	0.009132
534.008000	-0.129860
534.193000	-0.110109
534.379000	-0.020733
534.565000	-0.117388
534.750000	-0.140440
534.936000	0.092541
535.121000	-0.065466
535.307000	-0.023235
535.492000	-0.003698
535.678000	-0.232366
535.864000	-0.107083
536.049000	0.197488
536.235000	-0.023689
536.420000	-0.031582
536.606000	-0.081858
536.791000	-0.173214
536.977000	-0.179271
537.163000	0.054871
537.348000	0.025665
537.534000	0.099005
537.719000	-0.071517
537.905000	-0.228272
538.090000	0.021485
538.276000	0.098068
538.462000	0.071639
538.647000	0.097618
538.833000	-0.008688
539.018000	0.099790
539.204000	0.059727
539.389000	-0.120510
539.575000	0.167237
539.761000	0.107107
539.946000	-0.159016
540.132000	-0.006511
540.317000	-0.091171
540.503000	0.062528
540.688000	0.086090
540.874000	0.300398
541.060000	0.453137
541.245000	0.289423
541.431000	0.130217
541.616000	0.183742
541.802000	0.134398
541.987000	0.226622
542.173000	0.277321
542.359000	0.179112
542.544000	0.272262
542.730000	0.112040
542.915000	0.107296
543.101000	0.289216
543.286000	0.116379
543.472000	-0.011888
543.658000	0.139971
543.843000	0.144122
544.029000	0.316406
544.214000	0.179179
544.400000	-0.129368
544.585000	0.054469
544.771000	0.149575
544.957000	0.342735
545.142000	0.447235
545.328000	0.507753
545.513000	0.530671
545.699000	0.478444
545.884000	0.298225
546.070000	0.247681
546.261000	0.191199
546.451000	0.011251
546.642000	-0.185308
546.833000	-0.055662
547.023000	-0.173773
547.214000	-0.159981
547.405000	0.004743
547.595000	0.280473
547.786000	0.239175
547.977000	-0.008499
548.167000	-0.166664
548.358000	-0.108663
548.549000	0.219198
548.740000	0.030280
548.930000	-0.267257
549.121000	-0.160493
549.312000	-0.221825
549.502000	-0.280521
549.693000	-0.131633
549.884000	-0.038393
550.074000	0.048296
550.265000	-0.170527
550.456000	-0.060525
550.646000	0.003553
550.837000	-0.033352
551.028000	-0.129206
551.218000	0.013136
551.409000	-0.126988
551.600000	-0.106464
551.790000	0.028447
551.981000	-0.235298
552.172000	-0.203918
552.362000	0.146027
552.553000	0.207923
552.744000	0.045279
552.934000	-0.025578
553.125000	-0.123107
553.316000	-0.183106
553.506000	0.201916
553.697000	0.005046
553.888000	-0.004757
554.079000	0.152063
554.269000	0.129790
554.460000	-0.184637
554.651000	-0.221399
554.841000	-0.370914
555.032000	-0.274169
555.223000	-0.138971
555.413000	0.002250
555.604000	-0.052810
555.795000	-0.125151
555.985000	-0.017591
556.176000	-0.136508
556.367000	-0.398392
556.557000	-0.269037
556.748000	-0.175628
556.939000	-0.202357
557.129000	-0.293057
557.320000	-0.122751
557.511000	-0.162229
557.701000	-0.144982
557.892000	-0.087282
558.083000	0.094570
558.273000	-0.028973
558.464000	-0.215037
558.655000	-0.194985
558.845000	-0.113760
559.036000	-0.023221
559.227000	-0.052995
559.418000	0.030663
559.608000	0.073222
559.799000	-0.237249
559.990000	-0.258544
560.180000	-0.201008
560.371000	-0.394994
560.562000	-0.301227
560.752000	-0.131960
560.943000	-0.280439
561.134000	-0.427706
561.324000	-0.206132
561.515000	0.048627
561.706000	-0.117341
561.896000	-0.330479
562.087000	-0.224933
562.278000	-0.276711
562.468000	-0.399062
562.659000	-0.297219
562.850000	0.055449
563.040000	0.093256
563.231000	-0.356499
563.422000	-0.186323
563.612000	-0.264831
563.803000	-0.182002
563.994000	-0.257525
564.185000	-0.352776
564.375000	-0.147715
564.566000	-0.166949
564.757000	-0.166023
564.947000	-0.260265
565.138000	-0.134813
565.329000	-0.195320
565.519000	-0.326378
565.710000	-0.228584
565.901000	-0.050340
566.091000	0.040906
566.282000	-0.152216
566.473000	-0.139375
566.663000	-0.141959
566.854000	-0.321901
567.045000	-0.203769
567.235000	-0.106911
567.426000	-0.098693
567.617000	-0.107846
567.807000	-0.155451
567.998000	-0.133438
568.189000	-0.235086
568.379000	-0.160113
568.570000	-0.081566
568.761000	-0.143382
568.951000	-0.233299
569.142000	-0.275377
569.333000	-0.251122
569.524000	-0.350844
569.714000	-0.442072
569.905000	-0.519020
570.096000	-0.096979
570.286000	-0.025951
570.477000	0.110194
570.668000	-0.075171
570.858000	-0.109818
571.049000	-0.202397
571.240000	-0.304812
571.430000	-0.068208
571.621000	-0.124824
571.812000	-0.049252
572.002000	-0.038786
572.193000	-0.194139
572.384000	-0.109798
572.574000	-0.084852
572.765000	-0.168870
572.956000	-0.206362
573.146000	0.017857
573.337000	-0.130256
573.528000	-0.160117
573.718000	-0.001827
573.909000	0.081559
574.100000	-0.022589
574.290000	-0.203687
574.481000	-0.182573
574.672000	-0.167270
574.863000	-0.030128
575.053000	-0.176568
575.244000	-0.099228
575.435000	-0.250264
575.625000	-0.256811
575.816000	-0.225928
576.007000	-0.099847
576.197000	-0.085973
576.388000	-0.079285
576.579000	0.036327
576.769000	0.026135
576.960000	-0.266733
577.155000	-0.394949
577.350000	-0.129299
577.545000	-0.004285
577.740000	-0.170144
577.935000	0.142455
578.130000	0.045932
578.326000	-0.243225
578.521000	0.034516
578.716000	0.066722
578.911000	-0.208152
579.106000	-0.071105
579.301000	0.046435
579.496000	-0.137145
579.691000	-0.405179
579.886000	-0.247086
580.081000	-0.111961
580.276000	-0.053033
580.471000	-0.161759
580.666000	-0.299297
580.861000	-0.321136
581.057000	-0.267666
581.252000	-0.116414
581.447000	-0.208687
581.642000	-0.210257
581.837000	-0.183179
582.032000	-0.162012
582.227000	0.051436
582.422000	0.026032
582.617000	-0.175637
582.812000	-0.294848
583.007000	-0.221734
583.202000	-0.288177
583.397000	-0.043301
583.592000	0.181215
583.788000	-0.098723
583.983000	-0.114003
584.178000	-0.013460
584.373000	-0.149973
584.568000	-0.197823
584.763000	-0.253280
584.958000	-0.297942
585.153000	-0.220357
585.348000	-0.210834
585.543000	-0.062821
585.738000	-0.111004
585.933000	-0.310984
586.128000	-0.073368
586.324000	-0.062951
586.519000	-0.052303
586.714000	0.069085
586.909000	0.131802
587.104000	0.103802
587.299000	-0.015833
587.494000	-0.045311
587.689000	-0.106879
587.884000	-0.064510
588.079000	-0.143971
588.274000	-0.105029
588.469000	-0.072804
588.664000	0.025645
588.859000	0.031628
589.055000	-0.019522
589.250000	-0.079079
589.445000	-0.201990
589.640000	-0.153226
589.835000	0.127515
590.030000	0.201620
590.225000	0.189696
590.420000	-0.044795
590.615000	-0.169510
590.810000	-0.138187
591.005000	-0.019719
591.200000	-0.089492
591.395000	-0.177274
591.591000	-0.050906
591.786000	0.048704
591.981000	-0.070264
592.176000	-0.014949
592.371000	0.036906
592.566000	-0.039048
592.761000	0.128455
592.956000	0.110566
593.151000	0.189120
593.346000	0.104873
593.541000	0.121701
593.736000	0.113582
593.931000	-0.040548
594.126000	-0.001702
594.322000	0.038418
594.517000	-0.044244
594.712000	-0.162220
594.907000	-0.142057
595.102000	0.014175
595.297000	0.154607
595.492000	0.228367
595.687000	0.039977
595.882000	-0.013987
596.077000	0.099080
596.272000	0.287102
596.467000	0.321619
596.662000	0.192717
596.857000	0.158891
597.053000	0.180198
597.248000	0.250634
597.443000	0.296800
597.638000	0.277648
597.833000	0.084020
598.028000	0.256458
598.223000	0.395016
598.418000	0.296043
598.613000	0.216273
598.808000	0.342363
599.003000	0.345228
599.198000	0.170708
599.393000	0.241867
599.589000	0.381577
599.784000	0.241440
599.979000	0.364830
600.174000	0.579909
600.369000	0.356660
600.564000	0.464158
600.759000	0.708020
600.954000	0.782345
601.149000	0.637034
601.344000	0.341967
601.539000	0.554924
601.734000	0.483439
601.929000	0.279444
602.124000	0.398851
602.320000	0.653543
602.515000	0.921660
602.710000	0.871377
602.905000	0.558184
603.100000	0.507732
603.295000	0.586315
603.490000	0.736077
603.685000	0.782167
603.880000	0.807409
604.075000	0.664632
604.270000	0.714844
604.465000	0.813118
604.660000	0.615982
604.856000	0.791356
605.051000	1.005049
605.246000	0.988805
605.441000	0.769663
605.636000	0.778886
605.831000	0.969727
606.026000	0.885606
606.221000	0.873921
606.416000	1.064870
606.611000	1.293449
606.806000	1.319390
607.001000	1.460746
607.196000	1.255006
607.391000	1.127142
607.587000	1.415161
607.782000	1.400126
607.977000	1.225557
608.172000	1.626338
608.367000	1.684877
608.562000	1.529148
608.757000	1.509102
608.952000	1.495631
609.147000	1.941407
609.342000	1.845075
609.537000	1.658588
609.732000	1.728103
609.927000	1.724681
610.122000	1.892842
610.318000	2.304188
610.513000	2.503671
610.708000	2.369679
610.903000	2.478932
611.098000	2.597650
611.293000	2.586487
611.488000	2.617184
611.683000	2.620450
611.878000	2.589525
612.073000	2.635222
612.268000	2.700318
612.463000	2.795269
612.658000	2.783370
612.854000	2.765278
613.049000	2.753217
613.244000	2.975758
613.439000	3.116723
613.634000	2.820127
613.829000	2.993195
614.024000	2.874474
614.219000	2.966397
614.414000	3.360724
614.609000	3.200762
614.804000	3.090262
614.999000	3.127650
615.194000	3.291657
615.389000	3.374905
615.585000	3.235533
615.780000	3.513421
615.975000	3.604233
616.170000	3.664994
616.365000	3.972019
616.560000	4.181840
616.755000	4.161924
616.950000	4.133811
617.145000	4.284624
617.340000	4.174264
617.535000	3.987526
617.730000	4.310862
617.925000	4.283698
618.120000	4.352029
618.316000	4.775264
618.511000	4.735813
618.706000	4.620422
618.901000	4.846357
619.096000	5.147852
619.291000	5.079894
619.486000	5.192859
619.681000	4.965653
619.876000	5.046575
620.071000	5.346120
620.266000	5.709111
620.461000	5.935008
620.656000	5.961404
620.852000	5.988699
621.047000	5.967047
621.242000	5.926004
621.437000	6.389777
621.632000	6.585953
621.827000	6.506184
622.022000	6.286192
622.217000	6.634507
622.412000	7.018544
622.607000	7.077633
622.802000	6.914509
622.997000	6.993932
623.192000	7.231618
623.387000	7.363672
623.583000	7.244620
623.778000	7.777800
623.973000	7.908451
624.168000	7.962930
624.363000	8.109116
624.558000	8.341751
624.753000	8.124674
624.948000	8.494917
625.143000	8.643462
625.338000	8.646492
625.533000	8.688066
625.728000	8.967235
625.923000	9.300718
626.119000	9.329521
626.314000	9.240017
626.509000	9.329430
626.704000	9.565277
626.899000	9.697452
627.094000	9.808753
627.289000	10.017128
627.484000	10.177121
627.679000	10.249355
627.874000	10.487494
628.069000	10.997437
628.264000	11.019845
628.459000	10.887975
628.654000	10.953929
628.850000	10.965672
629.045000	11.324757
629.240000	11.448837
629.435000	11.540989
629.630000	11.876875
629.825000	11.907781
630.020000	12.017480
630.215000	11.792853
630.410000	11.998519
630.605000	12.129895
630.800000	12.179063
630.995000	12.334216
631.190000	12.659122
631.385000	12.487309
631.581000	12.276001
631.776000	12.365477
631.971000	12.162830
632.166000	12.248078
632.361000	12.063638
632.556000	12.127656
632.751000	12.195873
632.946000	11.867039
633.141000	11.717870
633.336000	11.639615
633.531000	11.544741
633.726000	11.344601
633.921000	10.962523
634.117000	10.688816
634.312000	10.374990
634.507000	10.274807
634.702000	10.130462
634.897000	9.887230
635.092000	9.801263
635.287000	9.685406
635.482000	9.316772
635.677000	9.169624
635.872000	9.050183
636.067000	8.897043
636.262000	8.448519
636.457000	7.860910
636.652000	7.547673
636.848000	7.252656
637.043000	7.119991
637.238000	6.948544
637.433000	6.509942
637.628000	6.314712
637.823000	6.362097
638.018000	6.221660
638.213000	5.856156
638.408000	5.577583
638.603000	5.248438
638.798000	5.004828
638.993000	4.939090
639.188000	4.772393
639.383000	4.526026
639.579000	4.764998
639.774000	4.398817
639.969000	4.004923
640.164000	3.817374
640.359000	3.658472
640.554000	3.727847
640.749000	3.600366
640.944000	3.554586
641.139000	3.429018
641.334000	3.136410
641.529000	2.657820
641.724000	2.709959
641.919000	2.761381
642.115000	2.928379
642.310000	2.760800
642.505000	2.531148
642.700000	2.501370
642.895000	2.289044
643.090000	2.308013
643.285000	2.429754
643.480000	2.279035
643.675000	2.241475
643.870000	2.506395
644.065000	2.210503
644.260000	1.701059
644.455000	1.748926
644.650000	1.610558
644.846000	1.671993
645.041000	1.407556
645.236000	1.216443
645.431000	1.241502
645.626000	1.022758
645.821000	1.165416
646.016000	1.228883
646.211000	1.622323
646.406000	1.432801
646.601000	1.315957
646.796000	1.104926
646.991000	0.842459
647.186000	0.931506
647.381000	1.120004
647.577000	1.107643
647.772000	1.169841
647.967000	1.000500
648.162000	0.896892
648.357000	0.837396
648.552000	1.005622
648.747000	0.947177
648.942000	0.934281
649.137000	0.833872
649.332000	0.662073
649.527000	0.644851
649.722000	0.902075
649.917000	0.925109
650.113000	0.555821
650.308000	0.425782
650.503000	0.456121
650.698000	0.576652
650.893000	0.527638
651.088000	0.599610
651.283000	0.660737
651.478000	0.346266
651.673000	0.543972
651.868000	0.343187
652.063000	0.565001
652.258000	0.721545
652.453000	0.861639
652.648000	0.489322
652.844000	0.403949
653.039000	0.432110
653.234000	0.035391
653.429000	-0.134931
653.624000	0.030268
653.819000	0.288869
654.014000	0.266515
654.209000	0.106471
654.404000	0.244491
654.599000	0.142983
654.794000	0.160017
654.989000	0.446462
655.184000	0.327257
655.380000	-0.014564
655.575000	-0.026703
655.770000	0.025358
655.965000	0.146976
656.160000	0.013210
656.355000	0.186994
656.550000	0.189312
656.745000	0.274915
656.940000	0.130238
657.135000	0.140678
657.330000	0.125021
657.525000	-0.109034
657.720000	0.106075
657.915000	0.252875
658.111000	0.139256
658.306000	0.335462
658.501000	0.115119
658.696000	-0.155069
658.891000	0.118637
659.086000	0.041401
659.281000	0.071340
659.476000	-0.113320
659.671000	-0.537341
659.866000	-0.250658
660.061000	0.101458
660.256000	0.170232
660.451000	0.068083
660.646000	-0.134932
660.842000	-0.021925
661.037000	-0.177590
661.232000	-0.188473
661.427000	-0.066196
661.622000	-0.204629
661.817000	-0.257756
662.012000	-0.055804
662.207000	-0.201671
662.402000	-0.252099
662.597000	-0.066726
662.792000	-0.394638
662.987000	-0.413905
663.182000	-0.102446
663.378000	-0.057873
663.573000	-0.396435
663.768000	-0.447432
663.963000	-0.245784
664.158000	-0.215178
664.353000	0.243334
664.548000	0.402904
664.743000	0.085485
664.938000	-0.241344
665.133000	-0.259708
665.328000	0.161387
665.523000	0.107562
665.718000	-0.071115
665.913000	-0.132682
666.109000	-0.093121
666.304000	0.097075
666.499000	-0.094842
666.694000	0.051912
666.889000	0.307808
667.084000	-0.015296
667.279000	-0.086264
667.474000	-0.124552
667.669000	-0.066266
667.864000	-0.111911
668.059000	-0.121209
668.254000	-0.114051
668.449000	-0.249587
668.644000	-0.143589
668.840000	0.152912
669.035000	-0.143605
669.230000	-0.449188
669.425000	-0.118442
669.620000	-0.241648
669.815000	-0.270208
670.010000	-0.282866
670.205000	-0.129924
670.400000	-0.120482
670.595000	-0.045087
670.790000	-0.150615
670.985000	-0.132251
671.180000	0.086410
671.376000	-0.288417
671.571000	-0.370899
671.766000	-0.356843
671.961000	-0.452099
672.156000	-0.392904
672.351000	-0.262246
672.546000	-0.328311
672.741000	-0.172575
672.936000	-0.066203
673.131000	0.424924
673.326000	0.031215
673.521000	-0.386576
673.716000	-0.450556
673.911000	-0.577063
674.107000	0.012454
674.302000	0.261706
674.497000	-0.017769
674.692000	-0.326132
674.887000	-0.431643
675.082000	-0.247895
675.277000	-0.006473
675.472000	-0.059855
675.667000	-0.220313
675.862000	-0.298739
676.057000	-0.201459
676.252000	-0.171238
676.447000	-0.258063
676.643000	-0.044894
676.838000	0.189527
677.033000	-0.125888
677.228000	0.176761
677.423000	0.132458
677.618000	-0.287318
677.813000	-0.432273
678.008000	-0.212367
678.203000	-0.109599
678.398000	-0.380402
678.593000	-0.183839
678.788000	-0.102378
678.983000	-0.340321
679.178000	-0.188208
679.374000	-0.299928
679.569000	-0.179091
679.764000	-0.293605
679.959000	-0.473573
680.154000	-0.442143
680.349000	-0.607780
680.544000	-0.506265
680.739000	-0.397877
680.934000	-0.467492
681.129000	-0.456902
681.324000	-0.491220
681.519000	-0.223877
681.714000	-0.287716
681.909000	-0.406770
682.105000	-0.539629
682.300000	-0.139037
682.495000	-0.018822
682.690000	-0.040942
682.885000	-0.149436
683.080000	-0.347235
683.275000	-0.307107
683.470000	0.077879
683.665000	0.245878
683.860000	0.440750
684.055000	0.167403
684.250000	-0.305108
684.445000	-0.377538
684.641000	0.072322
684.836000	-0.171745
685.031000	-0.192787
685.226000	-0.209408
685.421000	0.095565
685.616000	-0.189489
685.811000	-0.303006
686.006000	-0.017266
686.201000	-0.118142
686.396000	-0.523553
686.591000	-0.476989
686.786000	-0.023638
686.981000	-0.114886
687.176000	-0.104771
687.372000	-0.252649
687.567000	0.105353
687.762000	-0.005011
687.957000	-0.157414
688.152000	-0.318847
688.347000	-0.225104
688.542000	-0.454689
688.737000	-0.834628
688.932000	-0.779244
689.127000	-0.356879
689.322000	-0.026198
689.517000	-0.241645
689.712000	-0.486271
689.908000	-0.391277
690.103000	-0.353768
690.298000	-0.234751
690.493000	-0.254553
690.688000	-0.523822
690.883000	-0.298582
691.078000	0.106274
691.273000	0.097715
691.468000	-0.209121
691.663000	-0.253021
691.858000	-0.071996
692.053000	-0.093548
692.248000	-0.022440
692.443000	-0.039700
692.639000	-0.150049
692.834000	0.031645
693.029000	0.521684
693.224000	0.386911
693.419000	-0.212388
693.614000	-0.328579
693.809000	-0.464371
694.004000	-0.528769
694.199000	-0.478265
694.394000	-0.196438
694.589000	-0.517790
694.784000	-0.520517
694.979000	-0.238689
695.174000	-0.259161
695.370000	0.263571
695.565000	-0.034021
695.760000	-0.370655
695.955000	0.081235
696.150000	0.165630
696.345000	-0.346364
696.540000	-0.110298
696.740000	-0.232937
696.940000	-0.083510
697.140000	0.052968
697.340000	-0.236970
697.539000	-0.090879
697.739000	-0.198934
697.939000	-0.190064
698.139000	-0.521641
698.339000	-0.840382
698.539000	-0.609234
698.739000	-0.588196
698.939000	-0.435900
699.138000	-0.539275
699.338000	0.144589
699.538000	0.266091
699.738000	-0.250391
699.938000	-0.294125
700.138000	-0.342810
700.338000	-0.557811
700.538000	-0.314664
700.737000	-0.261519
700.937000	-0.697617
701.137000	-0.694083
701.337000	-0.091204
701.537000	-0.061246
701.737000	-0.304453
701.937000	-0.344621
702.137000	-0.263356
702.337000	-0.426635
702.536000	-0.553380
702.736000	-0.542377
702.936000	-0.704448
703.136000	-0.155652
703.336000	-0.181397
703.536000	-0.374612
703.736000	-0.707896
703.936000	-0.584145
704.135000	-0.583853
704.335000	-0.220147
704.535000	-0.478366
704.735000	-0.663396
704.935000	-0.095379
705.135000	-0.171759
705.335000	-0.407983
705.535000	-0.193883
705.735000	-0.141458
705.934000	-0.143766
706.134000	-0.427157
706.334000	-0.459197
706.534000	-0.495709
706.734000	-0.465006
706.934000	-0.534345
707.134000	-0.527306
707.334000	-0.276682
707.533000	-0.250770
707.733000	-0.291393
707.933000	-0.395000
708.133000	-0.152145
708.333000	-0.102279
708.533000	-0.317556
708.733000	0.003866
708.933000	-0.216212
709.132000	-0.400795
709.332000	-0.369918
709.532000	-0.506963
709.732000	-0.292463
709.932000	-0.709532
710.132000	-0.757755
710.332000	-0.913073
710.532000	-0.280943
710.732000	-0.032712
710.931000	-0.352769
711.131000	-0.405652
711.331000	-0.239062
711.531000	-0.460742
711.731000	-0.405212
711.931000	-0.319473
712.131000	-0.358545
712.331000	-0.210657
712.530000	-0.281849
712.730000	-0.512320
712.930000	-0.326945
713.130000	-0.380129
713.330000	-0.539389
713.530000	-0.319744
713.730000	0.327863
713.930000	-0.008468
714.129000	-0.501077
714.329000	-0.622491
714.529000	-0.250403
714.729000	-0.020993
714.929000	-0.190944
715.129000	-0.481657
715.329000	-0.396908
715.529000	-0.375891
715.729000	0.265190
715.928000	-0.021148
716.128000	-0.343611
716.328000	-0.180400
716.528000	-0.307081
716.728000	-0.236312
716.928000	-0.459007
717.128000	-0.290120
717.328000	-0.292608
717.527000	-0.445284
717.727000	-0.377107
717.927000	-0.276347
718.127000	-0.332622
718.327000	-0.821307
718.527000	-0.741717
718.727000	-0.305244
718.927000	-0.474831
719.127000	-0.713311
719.326000	-0.477368
719.526000	-0.031815
719.726000	-0.150151
719.926000	-0.695236
720.126000	-0.625659
720.326000	-0.419108
720.526000	-0.571477
720.726000	-0.433397
720.925000	-0.223832
721.125000	-0.625098
721.325000	-0.307495
721.525000	-0.313447
721.725000	-0.553019
721.925000	-0.507579
722.125000	-0.484119
722.325000	0.004177
722.524000	-0.286504
722.724000	-0.743109
722.924000	-0.847942
723.124000	-0.620602
723.324000	-0.177122
723.524000	-0.093113
723.724000	-0.661855
723.924000	-0.481923
724.124000	-0.302363
724.323000	-0.061927
724.523000	-0.170283
724.723000	0.168530
724.923000	-0.046121
725.123000	-0.104545
725.323000	-0.011696
725.523000	-0.246082
725.723000	-0.477282
725.922000	-0.480484
726.122000	-0.321038
726.322000	-0.490342
726.522000	-0.498851
726.722000	0.188725
726.922000	-0.190733
727.122000	-0.271816
727.322000	0.084816
727.521000	-0.243234
727.721000	-0.494190
727.921000	-0.402593
728.121000	-0.402492
728.321000	-0.756805
728.521000	-0.561209
728.721000	-0.361584
728.921000	0.042269
729.121000	0.769701
729.320000	0.148351
729.520000	-0.346183
729.720000	-0.561774
729.920000	-0.471468
730.120000	-0.290237
730.320000	-0.219852
730.520000	-0.515387
730.720000	-0.464871
730.919000	-0.415397
731.119000	-0.116546
731.319000	-0.650861
731.519000	-0.769144
731.719000	-0.359243
731.919000	-0.544114
732.119000	-1.053035
732.319000	-1.036954
732.519000	-0.391836
732.718000	-0.647628
732.918000	-0.550985
733.118000	-0.357474
733.318000	-0.118384
733.518000	-0.425547
733.718000	-0.940637
733.918000	-0.860049
734.118000	-0.619221
734.317000	-0.377427
734.517000	-0.601251
734.717000	-0.519612
734.917000	-0.105626
735.117000	-0.119875
735.317000	-0.165069
735.517000	0.194427
735.717000	0.405354
735.916000	-0.458863
736.116000	-0.594811
736.316000	-0.355545
736.516000	-0.332576
736.716000	-0.432797
736.916000	-0.850754
737.116000	-0.572239
737.316000	0.042103
737.516000	-0.044498
737.715000	-0.113919
737.915000	-0.672253
738.115000	-0.741130
738.315000	-0.480319
738.515000	-0.828637
738.715000	-0.602786
738.915000	0.001755
739.115000	-0.496211
739.314000	-0.525029
739.514000	0.016448
739.714000	0.128381
739.914000	-0.048431
740.114000	-0.365098
740.314000	-0.178835
740.514000	0.268664
740.714000	-0.432628
740.913000	-0.850426
741.113000	-0.717457
741.313000	-0.359326
741.513000	-0.441144
741.713000	-0.442329
741.913000	-0.281607
742.113000	-0.362461
742.313000	-0.921361
742.513000	-0.502480
742.712000	-0.331427
742.912000	-0.692119
743.112000	-0.584999
743.312000	-0.896621
743.512000	-0.535402
743.712000	-0.347260
743.912000	-1.059412
744.112000	-1.146026
744.311000	-1.139892
744.511000	-0.710330
744.711000	-0.294854
744.911000	-0.700739
745.111000	-0.664421
745.311000	-0.221693
745.511000	-0.585779
745.711000	-0.751276
745.911000	-0.387656
746.110000	-0.783787
746.310000	-1.033028
746.510000	-0.733512
746.710000	-0.155297
746.910000	-0.054749
747.110000	-0.688296
747.310000	-1.002047
747.510000	-0.784028
747.709000	-0.413582
747.909000	-0.373306
748.109000	-0.045943
748.309000	-0.372135
748.509000	-0.667308
748.709000	-0.824049
748.909000	-0.608528
749.109000	-0.569235
749.308000	-0.043285
749.508000	-0.341716
749.708000	-0.432639
749.908000	-0.134297
750.108000	-0.157471
750.308000	-0.882826
750.508000	-0.099506
750.708000	-0.643079
750.908000	-1.090742
751.107000	-0.379842
751.307000	0.255120
751.507000	-0.275350
751.707000	-0.202458
751.907000	-0.391367
752.107000	-0.303142
752.307000	-0.736777
752.507000	-0.625265
752.706000	-0.621506
752.906000	0.416331
753.106000	-0.521045
753.306000	-1.114571
753.506000	-0.075541
753.706000	-0.521736
753.906000	-0.315659
754.106000	-0.082573
754.305000	-0.194501
754.505000	-0.127062
754.705000	-0.305386
754.905000	-0.367416
755.105000	-0.148692
755.305000	-0.979166
755.505000	-0.806508
755.705000	-0.287316
755.905000	-0.302001
756.104000	-0.921312
756.304000	-1.360713
756.504000	-1.526835
756.704000	-0.483413
756.904000	-0.266703
757.104000	-0.499886
757.304000	-0.455003
757.504000	-0.008425
757.703000	-0.471740
757.903000	-0.082331
758.103000	0.107885
758.303000	-0.287794
758.503000	-0.458708
758.703000	-0.619671
758.903000	-0.804794
759.103000	-0.311544
759.303000	-0.391836
759.502000	-0.518828
759.702000	-0.216934
759.902000	-0.521278
760.102000	-0.522526
760.302000	-0.571486
760.502000	-0.178826
760.702000	-0.204459
760.902000	-0.535480
761.101000	-0.810266
761.301000	-1.037966
761.501000	-0.768137
761.701000	-0.835529
761.901000	-0.512606
762.101000	-0.119397
762.301000	-0.432636
762.501000	-0.775992
762.700000	-0.816617
762.900000	-0.802083
763.100000	-0.502430
763.300000	-0.318189
763.500000	-0.546007
763.703000	-0.681715
763.905000	-0.964148
764.108000	-0.282335
764.311000	-0.533288
764.513000	-0.631420
764.716000	-0.381741
764.919000	-0.484036
765.121000	-0.959396
765.324000	-1.053061
765.527000	-0.925584
765.729000	-0.746833
765.932000	0.097506
766.135000	-0.062446
766.337000	-0.435826
766.540000	-0.540457
766.743000	-0.178668
766.945000	-0.793189
767.148000	-1.272593
767.351000	-1.137625
767.553000	-0.295328
767.756000	-0.624563
767.958000	-1.038510
768.161000	-0.570824
768.364000	-0.903312
768.566000	-1.228606
768.769000	-0.638631
768.972000	-0.364993
769.174000	-0.758079
769.377000	-1.235897
769.580000	-1.376408
769.782000	-0.607706
769.985000	-1.008445
770.188000	-1.893450
770.390000	-1.007889
770.593000	0.598259
770.796000	0.193207
770.998000	-0.407325
771.201000	-0.821878
771.404000	-0.444217
771.606000	-0.782267
771.809000	-0.597915
772.012000	-0.518871
772.214000	-1.430225
772.417000	-1.554795
772.620000	-0.381696
772.822000	-0.683021
773.025000	-0.900914
773.228000	-0.906636
773.430000	-0.855537
773.633000	-0.605769
773.836000	-0.521332
774.038000	-0.343977
774.241000	-0.474267
774.444000	-0.741377
774.646000	0.120877
774.849000	-0.316790
775.052000	-0.533623
775.254000	-0.329666
775.457000	-0.685769
775.659000	-0.617603
775.862000	-0.860085
776.065000	-0.631109
776.267000	-0.022255
776.470000	0.312956
776.673000	-0.378624
776.875000	0.060658
777.078000	-0.043140
777.281000	-0.934355
777.483000	-0.298242
777.686000	-0.152329
777.889000	-0.240470
778.091000	0.040356
778.294000	-1.118298
778.497000	-1.031468
778.699000	-0.796724
778.902000	-0.748794
779.105000	-0.520899
779.307000	0.239263
779.510000	-0.709224
779.713000	-0.461045
779.915000	-0.774075
780.118000	0.378447
780.321000	0.532871
780.523000	-0.460380
780.726000	-0.936582
780.929000	-1.056276
781.131000	-0.989214
781.334000	-1.359188
781.537000	-1.397562
781.739000	-0.408319
781.942000	-0.949763
782.145000	-1.428966
782.347000	-1.355849
782.550000	-1.008173
782.753000	-1.173219
782.955000	-1.049300
783.158000	-0.917267
783.361000	-0.603360
783.563000	-0.651771
783.766000	-0.781159
783.968000	1.043439
784.171000	0.897594
784.374000	-0.422696
784.576000	-0.559883
784.779000	-0.231738
784.982000	0.042701
785.184000	-0.627883
785.387000	-0.154075
785.590000	0.468245
785.792000	0.231865
785.995000	0.011701
786.198000	-0.064911
786.400000	-0.404691
786.603000	-0.505560
786.806000	-0.653298
787.008000	-0.431568
787.211000	-0.392265
787.414000	-1.063285
787.616000	-0.696903
787.819000	-0.684794
788.022000	-1.369601
788.224000	-0.747240
788.427000	-1.442843
788.630000	-0.898127
788.832000	-0.601794
789.035000	-1.162968
789.238000	-1.631060
789.440000	-1.198309
789.643000	0.016725
789.846000	-0.584241
790.048000	-0.169999
790.251000	-0.090626
790.454000	-0.482059
790.656000	0.218055
790.859000	-0.569381
791.062000	-0.899270
791.264000	-0.231909
791.467000	-1.246479
791.669000	-1.777080
791.872000	-0.718369
792.075000	-1.139343
792.277000	-0.997324
792.480000	-0.616707
792.683000	-1.057040
792.885000	-1.314967
793.088000	-1.162216
793.291000	-1.347024
793.493000	-1.474165
793.696000	-0.496059
793.899000	-0.213595
794.101000	-0.609483
794.304000	-0.751010
794.507000	-0.331051
794.709000	-0.152395
794.912000	-0.796229
795.115000	-1.168813
795.317000	-0.875636
795.520000	-0.575525
795.723000	-0.720584
795.925000	-1.229347
796.128000	-1.572371
796.331000	-0.970034
796.533000	-1.417916
796.736000	-0.842883
796.939000	-0.580557
797.141000	-0.797121
797.344000	-0.082091
797.547000	-0.072111
797.749000	-0.252751
797.952000	-0.712706
798.155000	-1.254318
798.357000	-1.595808
798.560000	-1.330054
798.763000	-0.561158
798.965000	-0.789143
799.168000	-0.669214
799.371000	-0.517028
799.573000	-0.861519
799.776000	-1.554492
799.978000	-1.539324
800.181000	-0.743834
800.384000	0.890473
800.586000	0.230640
800.789000	-1.377038
800.992000	-1.391602
801.194000	-1.498215
801.397000	-1.460565
801.600000	-1.298903
801.802000	-0.095972
802.005000	-0.237555
802.208000	-1.691772
802.410000	-0.715136
802.613000	-0.586641
802.816000	-0.803486
803.018000	-1.360682
803.221000	-1.204338
803.424000	0.141170
803.626000	-0.299787
803.829000	-0.860636
804.032000	0.163600
804.234000	0.911817
804.437000	-0.560399
804.640000	-0.812004
804.842000	-0.711725
805.045000	-1.174462
805.248000	-0.998050
805.450000	-0.856491
805.653000	-0.763975
805.856000	-1.040350
806.058000	-0.013085
806.261000	-0.969495
806.464000	-1.085345
806.666000	-0.462441
806.869000	-0.763174
807.072000	-2.130483
807.274000	-2.402229
807.477000	-1.164008
807.679000	-0.810611
807.882000	-1.311945
808.085000	-1.013500
808.287000	-0.371351
808.490000	-1.414287
808.693000	-1.241458
808.895000	-0.810605
809.098000	-0.737985
809.301000	-0.785535
809.503000	-1.054941
809.706000	-0.104704
809.909000	0.208236
810.111000	0.162948
810.314000	-0.344914
810.517000	-0.947136
810.719000	-1.147089
810.922000	-0.789808
811.125000	0.129631
811.327000	0.118835
811.530000	-0.511973
811.735000	-0.910214
811.940000	-1.109306
812.146000	-1.026671
812.351000	-0.386487
812.556000	-0.632977
812.761000	-1.343780
812.967000	-0.302390
813.172000	-0.278564
813.377000	-0.591867
813.582000	0.192995
813.788000	-0.175253
813.993000	-1.304557
814.198000	-0.633276
814.403000	-1.418131
814.609000	-0.618949
814.814000	-0.555598
815.019000	0.459751
815.224000	0.117578
815.429000	-1.041078
815.635000	-0.480982
815.840000	-0.348089
816.045000	-0.307032
816.250000	-0.154984
816.456000	-1.561048
816.661000	-2.311173
816.866000	-1.694730
817.071000	-1.724412
817.277000	-2.490650
817.482000	-1.502924
817.687000	-0.739831
817.892000	-0.694169
818.097000	-0.108761
818.303000	0.247522
818.508000	0.608864
818.713000	7.853590
818.918000	4.106894
819.124000	0.368034
819.329000	-0.904439
819.534000	-1.065282
819.739000	-1.179246
819.945000	-1.057684
820.150000	-0.788822
820.355000	-0.854404
820.560000	-0.315547
820.766000	-0.495666
820.971000	-0.672428
821.176000	-2.113868
821.381000	-2.590613
821.586000	-1.576379
821.792000	-0.041595
821.997000	-0.562050
822.202000	-0.816555
822.407000	-1.530949
822.613000	-1.586525
822.818000	-0.895078
823.023000	-0.633363
823.228000	-0.901958
823.434000	-0.247115
823.639000	0.169511
823.844000	-0.699748
824.049000	-0.035877
824.255000	0.023995
824.460000	-0.739292
824.665000	-1.149376
824.870000	-0.009420
825.075000	-0.211543
825.281000	-0.097306
825.486000	0.969311
825.691000	-1.520838
825.896000	-2.751598
826.102000	-1.012868
826.307000	-0.659557
826.512000	-1.135878
826.717000	-0.946499
826.923000	-1.121910
827.128000	-0.722809
827.333000	-1.452175
827.538000	-0.471416
827.744000	0.151444
827.949000	-0.926537
828.154000	-0.600051
828.359000	0.039328
828.564000	-0.821560
828.770000	-0.853307
828.975000	0.380739
829.180000	-0.388380
829.385000	-2.001110
829.591000	-1.601027
829.796000	-0.946402
830.001000	-1.005939
830.206000	-1.552039
830.412000	-1.109328
830.617000	-1.112008
830.822000	-0.148619
831.027000	-0.896997
831.232000	-1.524054
831.438000	-1.372794
831.643000	-0.813001
831.848000	-0.874052
832.053000	-0.840337
832.259000	-1.026866
832.464000	-2.696394
832.669000	-2.250635
832.874000	-1.918952
833.080000	-1.740233
833.285000	0.049502
833.490000	-0.175631
833.695000	-1.461138
833.901000	-1.301021
834.106000	-1.789542
834.311000	-1.195223
834.516000	-0.362791
834.721000	-1.203809
834.927000	-0.095837
835.132000	-0.421271
835.337000	1.074910
835.542000	-0.229367
835.748000	-1.794003
835.953000	0.137516
836.158000	-0.097124
836.363000	-0.679450
836.569000	-0.581692
836.774000	-1.614770
836.979000	-1.894933
837.184000	-2.146535
837.390000	-1.791246
837.595000	-1.243785
837.800000	-1.094220
838.005000	-0.753857
838.210000	-0.770334
838.416000	-1.138091
838.621000	-1.019235
838.826000	-1.278545
839.031000	-1.219792
839.237000	-1.738897
839.442000	-2.417257
839.647000	-2.553498
839.852000	-1.812672
840.058000	-1.661678
840.263000	-1.711503
840.468000	-2.455567
840.673000	-1.321335
840.878000	-0.938498
841.084000	-1.691637
841.289000	-1.064354
841.494000	1.590703
841.699000	1.408807
841.905000	0.465720
842.110000	0.416782
842.315000	-1.550360
842.520000	-0.913485
842.726000	-1.526687
842.931000	-2.247759
843.136000	-1.051460
843.341000	-2.516496
843.547000	-1.509941
843.752000	-1.223982
843.957000	-2.060192
844.162000	-1.866859
844.367000	-1.198314
844.573000	-0.492411
844.778000	-0.313814
844.983000	-0.430109
845.188000	-0.423383
845.394000	-2.292857
845.599000	-1.828704
845.804000	-1.338768
846.009000	-0.730330
846.215000	-1.856187
846.420000	-1.367073
846.625000	-0.471864
846.830000	0.142696
847.036000	-1.161810
847.241000	-1.683646
847.446000	-0.022151
847.651000	-0.754434
847.856000	-2.136039
848.062000	-1.832838
848.267000	0.230814
848.472000	-1.274824
848.677000	-2.798472
848.883000	-0.710395
849.088000	0.738526
849.293000	-0.968838
849.498000	-1.368385
849.704000	-0.444009
849.909000	-1.308618
850.114000	-2.181739
850.319000	-1.051962
850.524000	-0.883712
850.730000	-0.820661
850.935000	-1.282795
851.140000	-0.209469
851.345000	-0.043062
851.551000	-0.367131
851.756000	-0.221069
851.961000	-1.458581
852.166000	-1.617747
852.372000	-1.066074
852.577000	-0.953879
852.782000	-1.172680
852.987000	0.247129
853.193000	-0.447645
853.398000	-0.669651
853.603000	-1.823418
853.808000	-2.340135
854.013000	-1.520485
854.219000	-0.401713
854.424000	1.377674
854.629000	1.380716
854.834000	-1.160687
855.040000	-0.648495
855.245000	-0.356309
855.450000	-2.864416
855.655000	-3.946734
855.861000	-3.700335
856.066000	-2.298860
856.271000	-2.481790
856.476000	-0.268711
856.682000	-1.225536
856.887000	-4.206022
857.092000	-2.811305
857.297000	-0.057648
857.502000	-0.314479
857.708000	-1.108181
857.913000	-0.025766
858.118000	-0.697773
858.323000	-0.906293
858.529000	-0.894041
858.734000	-1.516607
858.939000	-1.237376
859.144000	-1.909423
859.350000	-3.059450
859.555000	-2.849330
859.760000	-0.689158
859.965000	0.293691
860.171000	-1.612302
860.376000	-0.405315
860.581000	-2.382573
860.786000	-4.915217
860.991000	-3.990760
861.197000	-2.761668
861.402000	-1.279834
861.607000	-1.777553
861.812000	-3.066828
862.018000	-3.067207
862.223000	-2.103408
862.428000	-1.197887
862.633000	-0.153821
862.839000	-0.674590
863.044000	-1.518869
863.249000	-2.397577
863.454000	-0.574408
863.659000	-1.462540
863.865000	-2.161350
864.070000	-2.167019
864.275000	-2.888699
864.480000	-2.570809
864.686000	-4.147007
864.891000	-3.425853
865.096000	-1.042975
865.301000	-0.602566
865.507000	-0.618137
865.712000	-0.666196
865.917000	-1.747602
866.122000	-0.830062
866.328000	-3.751581
866.533000	-3.614810
866.738000	-0.041518
866.943000	-0.078317
867.148000	0.548839
867.354000	-1.741295
867.559000	-3.441417
867.764000	-1.525913
867.969000	-0.669093
868.175000	-2.302703
868.380000	-2.974941
868.585000	-3.643841
868.790000	-1.377452
868.996000	-1.424579
869.201000	-3.016735
869.406000	-4.050723
869.611000	-3.021254
869.817000	-2.698745
870.022000	1.814518
870.227000	-0.416206
870.432000	-2.522438
870.637000	-1.026155
870.843000	-1.864050
871.048000	-2.034018
871.253000	-0.213409
871.458000	-1.012300
871.664000	-3.177295
871.869000	-3.341705
872.074000	-2.594834
872.279000	-1.345903
872.485000	-2.116024
872.690000	-2.326449
872.895000	-2.214815
873.100000	-3.013227
873.306000	-3.310492
873.511000	-1.983221
873.716000	-0.169504
873.921000	-2.186890
874.126000	-2.668319
874.332000	-1.687924
874.537000	-0.282712
874.742000	-0.585702
874.947000	-1.254057
875.153000	0.218438
875.358000	-1.030189
875.563000	-1.730348
875.768000	-4.441183
875.974000	-4.402877
876.179000	-0.841493
876.384000	-0.688993
876.589000	-2.663156
876.794000	-2.464857
877.000000	-3.301660
877.205000	-4.346802
877.410000	-1.421400
877.615000	-3.149480
877.821000	-4.865048
878.026000	-3.542868
878.231000	-4.196924
878.436000	-3.970741
878.642000	-3.205598
878.847000	-1.771122
879.052000	-0.299663
879.257000	-2.702631
879.463000	-3.878526
879.668000	-2.811079
879.873000	-0.438092
880.078000	-3.008432
880.283000	-4.699671
880.489000	-4.969487
880.694000	-4.554322
880.899000	-2.130458
881.104000	-0.722178
881.310000	0.892796
881.515000	-0.234356
881.720000	1.199006
881.925000	2.785844
882.131000	4.274146
882.336000	0.457603
882.541000	-3.589891
882.746000	-3.404045
882.952000	-3.853641
883.157000	-3.518212
883.362000	-3.555022
883.567000	-4.279469
883.772000	-4.064571
883.978000	-3.368015
884.183000	-1.762884
884.388000	-1.949934
884.593000	-4.150063
884.799000	0.601922
885.004000	0.172088
885.209000	-1.841803
885.414000	-1.349911
885.620000	-4.229013
885.825000	-1.106722
886.030000	-1.530649
886.235000	-2.842663
886.440000	-2.168039
886.646000	-5.027743
886.851000	-5.069795
887.056000	-0.427200
887.261000	-0.814687
887.467000	-3.910866
887.672000	-1.027770
887.877000	-2.332828
888.082000	-4.887267
888.288000	-5.400209
888.493000	-7.785786
888.698000	-5.825065
888.903000	-2.298511
889.109000	-3.541108
889.314000	-0.544295
889.519000	-1.958231
889.724000	0.269774
889.929000	-1.582443
890.135000	-2.610936
890.340000	-2.473016
890.545000	-3.608189
890.750000	-5.228009
890.956000	-3.733665
891.161000	-1.183076
891.366000	-3.175523
891.571000	-1.983185
891.777000	-1.879073
891.982000	-0.202313
892.187000	-0.737863
892.392000	-0.309379
892.598000	-0.364791
892.803000	-0.169576
893.008000	-2.818655
893.213000	-3.440318
893.418000	-3.573173
893.624000	-4.282396
893.829000	-6.213435
894.034000	-3.344972
894.239000	-1.455274
894.445000	-4.176508
894.650000	-3.977023
894.855000	-4.018784
895.060000	-4.195780
895.266000	-3.704935
895.471000	-5.224008
895.676000	-1.882308
895.881000	-0.981085
896.087000	-2.591762
896.292000	-4.154193
896.497000	0.087128
896.702000	-2.063837
896.907000	-3.748603
897.113000	1.225072
897.318000	1.034909
897.523000	0.049411
897.728000	-2.316008
897.934000	-3.183281
898.139000	-2.944169
898.344000	-0.026947
898.549000	-1.517610
898.755000	-3.341919
898.960000	-3.616112
899.165000	-5.471487
899.370000	-1.928203
899.575000	1.465559
899.781000	-2.943381
899.986000	-3.810439
900.191000	-2.506288
900.396000	-2.985627
900.602000	-2.144823
900.807000	-2.763328
901.012000	-2.477687
901.217000	-0.921293
901.423000	-3.405592
901.628000	-5.040268
901.833000	0.032627
902.038000	-0.028771
902.244000	-3.840594
902.449000	-3.079847
902.654000	-2.799827
902.859000	-1.899591
903.064000	0.137827
903.270000	0.347903
903.475000	-4.559763
903.680000	-7.195147
903.885000	-6.069800
904.091000	-4.657504
904.296000	-6.018722
904.501000	-5.272301
904.706000	-4.645281
904.912000	-0.073773
905.117000	-2.035078
905.322000	-4.753382
905.527000	-4.337789
905.733000	-3.728049
905.938000	-3.641304
906.143000	-4.420291
906.348000	-6.207642
906.553000	-1.423806
906.759000	-0.390516
906.964000	-2.287065
907.169000	-2.776268
907.374000	-5.576340
907.580000	-4.127171
907.785000	-3.689128
907.990000	21.440435
908.195000	13.878658
908.401000	-0.664368
908.606000	-8.430212
908.811000	-10.395702
909.016000	-2.520389
909.221000	-1.845662
909.427000	-3.134656
909.632000	-5.025094
909.837000	-4.579114
910.042000	-5.653642
910.248000	-8.299565
910.453000	-4.028499
910.658000	-4.550044
910.863000	-4.790463
911.069000	-6.973205
911.274000	-2.240674
911.479000	0.339167
911.684000	-6.737467
911.890000	-3.950328
912.095000	-3.729043
912.300000	-6.944382
912.506000	-5.732637
912.711000	-5.727164
912.917000	-3.140692
913.123000	-2.475761
913.328000	-3.292125
913.534000	-2.618221
913.740000	7.184961
913.946000	3.077330
914.151000	-4.532248
914.357000	-6.529188
914.563000	-2.044552
914.768000	-4.935871
914.974000	-7.274999
915.180000	-6.720939
915.385000	-5.193186
915.591000	-8.348755
915.797000	-3.572405
916.002000	-0.316808
916.208000	-2.943568
916.414000	-5.884665
916.620000	-7.046430
916.825000	-2.541737
917.031000	-3.725467
917.237000	-10.265617
917.442000	-6.093389
917.648000	-7.090883
917.854000	-7.747657
918.059000	-0.445933
918.265000	-0.387534
918.471000	-4.255394
918.676000	-7.297339
918.882000	-9.090202
919.088000	-7.151569
919.294000	-12.013118
919.499000	-6.625238
919.705000	-1.644171
919.911000	-4.031670
920.116000	-1.446881
920.322000	-7.491994
920.528000	-6.422607
920.733000	-8.355943
920.939000	-8.233514
921.145000	-7.338282
921.350000	-7.178714
921.556000	-4.872060
921.762000	-5.083049
921.968000	-6.056943
922.173000	-7.385285
922.379000	-9.173476
922.585000	-4.625537
922.790000	-5.944549
922.996000	-7.377926
923.202000	-8.804083
923.407000	-8.590121
923.613000	-6.648278
923.819000	-4.104800
924.024000	-4.180278
924.230000	-2.008643
924.436000	-4.743708
924.642000	5.291939
924.847000	0.891141
925.053000	-6.377512
925.259000	-10.286165
925.464000	-4.395072
925.670000	-5.617213
925.876000	-8.620076
926.081000	-8.666297
926.287000	-3.832248
926.493000	-2.265831
926.698000	-4.633787
926.904000	-2.038798
927.110000	-5.614862
927.316000	-4.323860
927.521000	3.268568
927.727000	-4.208931
927.933000	-6.709345
928.138000	-5.983245
928.344000	-12.013693
928.550000	-7.018348
928.755000	-1.950855
928.961000	-6.659923
929.167000	-6.467326
929.372000	0.452636
929.578000	-1.197141
929.784000	-6.680068
929.990000	-10.018384
930.195000	-7.967193
930.401000	-6.537123
930.607000	-4.454668
930.812000	-4.172249
931.018000	-7.380811
931.224000	-13.491635
931.429000	-8.929447
931.635000	-12.068571
931.841000	-11.892891
932.046000	-8.225129
932.252000	-3.783716
932.458000	4.082692
932.664000	-0.924195
932.869000	-7.020853
933.075000	-9.636716
933.281000	-9.685576
933.486000	-3.238328
933.692000	-5.274771
933.898000	-9.696887
934.103000	-4.458595
934.309000	-7.744410
934.515000	-4.015804
934.720000	-1.953460
934.926000	0.694679
935.132000	0.266667
935.338000	-2.185329
935.543000	-10.468200
935.749000	-12.833429
935.955000	-13.882683
936.160000	-10.888236
936.366000	-2.590904
936.572000	-3.875565
936.777000	-2.223969
936.983000	0.504723
937.189000	-4.154223
937.394000	-10.977031
937.600000	-1.802030
937.806000	3.293366
938.012000	-5.211269
938.217000	4.482593
938.423000	0.649739
938.629000	-7.977266
938.834000	-15.312735
939.040000	-14.721899
939.246000	-8.934235
939.451000	-13.005597
939.657000	-8.313218
939.863000	-11.292683
940.068000	-2.492359
940.274000	-8.328302
940.480000	-5.736620
940.686000	-2.964484
940.891000	-5.792278
941.097000	18.070005
941.303000	4.151089
941.508000	-8.554421
941.714000	-5.145210
941.920000	-17.401387
942.125000	-5.630122
942.331000	-2.513927
942.537000	1.609266
942.742000	-1.612399
942.948000	-10.270617
943.154000	-13.096564
943.360000	-26.000975
943.565000	-11.351645
943.771000	1.946233
943.977000	2.406030
944.182000	-15.612410
944.388000	-17.848573
944.594000	-3.598224
944.799000	5.313358
945.005000	-1.800574
945.211000	4.076993
945.416000	0.458445
945.622000	-14.651756
945.828000	-12.135058
946.034000	-1.674032
946.239000	-1.251742
946.445000	-7.252910
946.651000	-19.132714
946.856000	-17.768000
947.062000	-2.936395
947.268000	-0.528543
947.473000	-16.379687
947.679000	-20.159146
947.885000	-6.036122
948.090000	-0.757329
948.296000	13.595916
948.502000	-0.832034
948.708000	-10.263008
948.913000	-13.215801
949.119000	-0.178728
949.325000	-5.618591
949.530000	-20.833727
949.736000	-26.112260
949.942000	-16.091571
950.147000	-16.432357
950.353000	-13.779436
950.559000	-9.719937
950.764000	12.140107
950.970000	5.081592
951.176000	-9.992149
951.382000	-15.760861
951.587000	-4.800244
951.793000	2.093331
951.999000	3.072081
952.204000	-11.076738
952.410000	-24.875264
952.616000	-11.816975
952.821000	-6.931512
953.027000	-14.788071
953.233000	-18.295493
953.438000	-19.064376
953.644000	-0.111441
953.850000	-4.492463
954.056000	-10.416237
954.261000	-11.452930
954.467000	-0.194848
954.673000	5.638756
954.878000	-7.511658
955.084000	-6.544193
955.290000	-22.588408
955.495000	-24.785456
955.701000	-18.098059
955.907000	0.882355
956.112000	-1.615042
956.318000	7.475342
956.524000	6.893782
956.730000	-10.800025
956.935000	-12.278190
957.141000	-15.910624
957.347000	-5.518741
957.552000	-7.738705
957.758000	-21.792906
957.964000	-31.533077
958.169000	2.226016
958.375000	-0.122112
958.581000	-16.337798
958.786000	-27.382189
958.992000	-31.516163
959.198000	-10.788561
959.404000	-4.232246
959.609000	-12.674314
959.815000	-16.710257
960.021000	2.964055
960.226000	-5.907211
960.432000	-29.556042
960.638000	-17.451400
960.843000	-12.496136
961.049000	-14.369397
961.255000	-2.295273
961.460000	-14.818244
961.666000	-36.708201
961.872000	-20.594502
962.078000	-16.426045
962.283000	-27.879752
962.489000	-29.127483
962.695000	-18.591185
962.900000	-13.478179
963.106000	-12.639617
963.312000	-17.091743
963.517000	-20.724167
963.723000	-24.322511
963.929000	-0.343798
964.134000	7.831315
964.340000	-17.593055
964.546000	-19.587895
964.752000	-24.468149
964.957000	-28.646075
965.163000	-2.567498
965.369000	-6.652247
965.574000	-4.997647
965.780000	-11.146293
966.000000	-20.649310
966.220000	-13.609784
966.440000	-12.481642
966.661000	-2.129443
966.881000	-20.633203
967.101000	-38.622816
967.321000	-38.534502
967.541000	-12.092020
967.761000	-19.115330
967.981000	-12.110871
968.202000	-12.281195
968.422000	-2.016456
968.642000	-1.432594
968.862000	-3.821462
969.082000	-14.304976
969.302000	-5.447004
969.522000	-9.453423
969.743000	3.710419
969.963000	-17.689080
970.183000	-29.427236
970.403000	-24.573216
970.623000	-23.309523
970.843000	0.074387
971.063000	3.222845
971.284000	-20.949104
971.504000	-37.853245
971.724000	-15.362279
971.944000	-28.673420
972.164000	-39.530425
972.384000	-30.349346
972.604000	-44.047906
972.825000	-50.134170
973.045000	-32.407642
973.265000	23.996610
973.485000	10.832356
973.705000	-10.865721
973.925000	-15.336556
974.145000	-49.281846
974.365000	-19.122256
974.586000	-16.658296
974.806000	-34.585228
975.026000	-2.356426
975.246000	-13.513843
975.466000	-29.544250
975.686000	-14.071772
975.906000	-23.962880
976.127000	-49.839335
976.347000	-42.144988
976.567000	-8.724534
976.787000	-12.198100
977.007000	-24.130863
977.227000	-29.620436
977.447000	-32.002438
977.668000	-50.103568
977.888000	-28.513823
978.108000	-28.549396
978.328000	-19.264896
978.548000	8.994831
978.768000	13.209537
978.988000	-2.604399
979.209000	-19.595814
979.429000	-22.756294
979.649000	-6.521539
979.869000	-29.796836
980.089000	-42.829705
980.309000	-47.428438
980.529000	-54.559451
980.750000	-34.552102
980.970000	-45.611707
981.190000	-34.211388
981.410000	-35.308752
981.630000	-41.530732
981.850000	-28.418889
982.070000	-20.270230
982.291000	-49.906604
982.511000	-46.022780
982.731000	-8.990274
982.951000	-32.215687
983.171000	-33.442850
983.391000	-24.521434
983.611000	9.160530
983.832000	-20.165647
984.052000	-48.339224
984.272000	-23.238464
984.492000	-19.043151
984.712000	-35.959193
984.932000	-56.335585
985.152000	-54.729558
985.373000	-42.224718
985.593000	-20.046485
985.813000	-26.080162
986.033000	-36.591682
986.253000	4.836892
986.473000	2.682982
986.693000	-34.948391
986.914000	-42.543677
987.134000	5.415154
987.354000	-31.373681
987.574000	173.892167
987.794000	101.555546
988.014000	-46.339016
988.234000	-33.720155
988.455000	-16.706817
988.675000	-19.530738
988.895000	-28.203970
989.115000	-42.382951
989.335000	-22.687597
989.555000	2.431868
989.775000	-40.819906
989.995000	-39.617603
990.216000	-28.663167
990.436000	-28.645885
990.656000	3.457820
990.876000	-28.426126
991.096000	-18.458830
991.316000	11.286930
991.536000	-17.243498
991.757000	-34.350121
991.977000	-82.292732
992.197000	-17.799231
992.417000	-38.205146
992.637000	-89.805269
992.857000	-87.853750
993.077000	-77.037642
993.298000	-36.532730
993.518000	-37.981501
993.738000	-91.093100
993.958000	-52.470861
994.178000	-58.965878
994.398000	-48.944548
994.618000	-85.533951
994.839000	-135.389615
995.059000	-41.559747
995.279000	26.026230
995.499000	-17.124440
995.719000	-17.501005
995.939000	-33.938742
996.159000	-36.959839
996.380000	-28.892199
996.600000	-74.090664
996.820000	-30.943422
997.040000	4.590214
997.260000	-62.460927
997.480000	-50.588589
997.700000	-107.555975
997.921000	-67.604097
998.141000	18.969402
998.361000	-20.568407
998.581000	-64.618153
998.801000	-86.205998
999.021000	-61.581886
999.241000	-39.458836
999.462000	-70.203540
999.682000	-119.151852
999.902000	-70.308935
1000.122000	-86.731937
1000.342000	-141.488538
1000.562000	-68.987177
1000.782000	-74.934694
1001.003000	-1057.641819
