Wavelength	Irradiance
(nm)	(mW/cm2/nm)

294.396000	0.000000
294.577000	0.000000
294.757000	-0.000000
294.938000	-0.000000
295.118000	-0.000000
295.299000	0.000000
295.479000	-0.000000
295.660000	-0.000000
295.840000	-0.000000
296.021000	-0.000000
296.202000	-0.000000
296.382000	-0.000000
296.563000	-0.000000
296.743000	-0.000000
296.924000	0.000000
297.104000	-0.000000
297.285000	-0.000000
297.465000	-0.000000
297.646000	-0.000000
297.826000	-0.000000
298.007000	0.000000
298.187000	0.000000
298.368000	-0.000000
298.548000	0.000000
298.729000	0.000000
298.909000	-0.000000
299.090000	-0.000000
299.270000	-0.000000
299.451000	-0.000000
299.631000	-0.000000
299.812000	-0.000000
299.992000	0.000000
300.173000	0.000000
300.353000	-0.000000
300.534000	0.000000
300.714000	0.000000
300.895000	0.000000
301.075000	-0.000000
301.256000	0.000000
301.436000	-0.000000
301.617000	-0.000000
301.797000	-0.000000
301.978000	-0.000000
302.159000	0.000000
302.339000	0.000000
302.520000	-0.000000
302.700000	-0.000000
302.881000	-0.000000
303.061000	0.000000
303.242000	0.000000
303.422000	0.000000
303.603000	-0.000000
303.783000	-0.000000
303.964000	-0.000000
304.144000	-0.000000
304.325000	-0.000000
304.505000	-0.000000
304.686000	-0.000000
304.866000	0.000000
305.047000	-0.000000
305.227000	-0.000000
305.408000	-0.000000
305.588000	-0.000000
305.769000	-0.000000
305.949000	-0.000000
306.130000	-0.000000
306.310000	-0.000000
306.491000	-0.000000
306.671000	0.000000
306.852000	-0.000000
307.032000	-0.000000
307.213000	-0.000000
307.393000	-0.000000
307.574000	0.000000
307.755000	0.000000
307.935000	-0.000000
308.116000	-0.000000
308.296000	-0.000000
308.477000	0.000000
308.657000	0.000000
308.838000	0.000000
309.018000	0.000000
309.199000	-0.000000
309.379000	-0.000000
309.560000	0.000000
309.740000	-0.000000
309.921000	-0.000000
310.101000	0.000000
310.282000	-0.000000
310.462000	-0.000000
310.643000	-0.000000
310.823000	-0.000000
311.004000	-0.000000
311.184000	-0.000000
311.365000	0.000000
311.545000	0.000000
311.726000	0.000000
311.906000	-0.000000
312.087000	0.000000
312.267000	-0.000000
312.448000	-0.000000
312.628000	-0.000000
312.809000	-0.000000
312.989000	-0.000000
313.170000	-0.000000
313.344000	-0.000000
313.518000	-0.000000
313.691000	-0.000000
313.865000	-0.000000
314.039000	-0.000000
314.213000	-0.000000
314.387000	-0.000000
314.560000	-0.000000
314.734000	-0.000000
314.908000	-0.000000
315.082000	-0.000000
315.255000	0.000000
315.429000	0.000000
315.603000	0.000000
315.777000	-0.000000
315.951000	0.000000
316.124000	-0.000000
316.298000	-0.000000
316.472000	-0.000000
316.646000	-0.000000
316.820000	-0.000000
316.993000	-0.000000
317.167000	-0.000000
317.341000	-0.000000
317.515000	-0.000000
317.688000	-0.000000
317.862000	-0.000000
318.036000	-0.000000
318.210000	-0.000000
318.384000	-0.000000
318.557000	-0.000000
318.731000	-0.000000
318.905000	0.000000
319.079000	-0.000000
319.253000	-0.000000
319.426000	0.000000
319.600000	0.000000
319.774000	-0.000000
319.948000	-0.000000
320.122000	0.000000
320.295000	0.000000
320.469000	-0.000000
320.643000	-0.000000
320.817000	-0.000000
320.990000	-0.000000
321.164000	-0.000000
321.338000	-0.000000
321.512000	-0.000000
321.686000	-0.000000
321.859000	-0.000000
322.033000	-0.000000
322.207000	-0.000000
322.381000	-0.000000
322.555000	0.000000
322.728000	-0.000000
322.902000	-0.000000
323.076000	-0.000000
323.250000	-0.000000
323.423000	-0.000000
323.597000	-0.000000
323.771000	-0.000000
323.945000	-0.000000
324.119000	-0.000000
324.292000	-0.000000
324.466000	-0.000000
324.640000	0.000000
324.814000	0.000000
324.988000	-0.000000
325.161000	-0.000000
325.335000	-0.000000
325.509000	-0.000000
325.683000	-0.000000
325.856000	-0.000000
326.030000	-0.000000
326.204000	-0.000000
326.378000	0.000000
326.552000	0.000000
326.725000	-0.000000
326.899000	-0.000000
327.073000	-0.000000
327.247000	-0.000000
327.421000	0.000000
327.594000	-0.000000
327.768000	-0.000000
327.942000	-0.000000
328.116000	0.000000
328.289000	-0.000000
328.463000	-0.000000
328.637000	0.000000
328.811000	-0.000000
328.985000	-0.000000
329.158000	-0.000000
329.332000	-0.000000
329.506000	0.000000
329.680000	-0.000000
329.854000	-0.000000
330.027000	-0.000000
330.201000	0.000000
330.375000	0.000000
330.549000	0.000000
330.723000	-0.000000
330.896000	-0.000000
331.070000	-0.000000
331.244000	-0.000000
331.418000	-0.000000
331.591000	-0.000000
331.765000	-0.000000
331.939000	-0.000000
332.113000	-0.000000
332.287000	-0.000000
332.460000	0.000000
332.634000	0.000000
332.808000	-0.000000
332.982000	-0.000000
333.156000	-0.000000
333.329000	0.000000
333.503000	-0.000000
333.677000	-0.000000
333.851000	-0.000000
334.024000	-0.000000
334.198000	-0.000000
334.372000	-0.000000
334.546000	-0.000000
334.720000	-0.000000
334.893000	-0.000000
335.067000	-0.000000
335.241000	-0.000000
335.415000	-0.000000
335.589000	-0.000000
335.762000	-0.000000
335.936000	-0.000000
336.110000	-0.000000
336.284000	-0.000000
336.458000	-0.000000
336.631000	-0.000000
336.805000	-0.000000
336.979000	-0.000000
337.153000	-0.000000
337.326000	-0.000000
337.500000	-0.000000
337.674000	-0.000000
337.848000	-0.000000
338.022000	-0.000000
338.195000	-0.000000
338.369000	-0.000000
338.543000	-0.000000
338.717000	-0.000000
338.891000	-0.000000
339.064000	0.000000
339.238000	-0.000000
339.412000	-0.000000
339.586000	-0.000000
339.759000	-0.000000
339.933000	-0.000000
340.107000	0.000000
340.281000	-0.000000
340.455000	-0.000000
340.628000	-0.000000
340.802000	-0.000000
340.976000	-0.000000
341.150000	-0.000000
341.324000	-0.000000
341.497000	-0.000000
341.671000	-0.000000
341.845000	-0.000000
342.019000	-0.000000
342.192000	-0.000000
342.366000	-0.000000
342.540000	-0.000000
342.714000	-0.000000
342.888000	-0.000000
343.061000	0.000000
343.235000	0.000000
343.409000	-0.000000
343.583000	-0.000000
343.757000	-0.000000
343.930000	-0.000000
344.104000	-0.000000
344.278000	0.000000
344.452000	0.000000
344.626000	-0.000000
344.799000	-0.000000
344.973000	-0.000000
345.147000	-0.000000
345.321000	-0.000000
345.494000	-0.000000
345.668000	0.000000
345.842000	0.000000
346.016000	-0.000000
346.190000	-0.000000
346.363000	0.000000
346.537000	-0.000000
346.711000	-0.000000
346.885000	-0.000000
347.059000	-0.000000
347.232000	-0.000000
347.406000	0.000000
347.580000	-0.000000
347.754000	-0.000000
347.927000	-0.000000
348.101000	-0.000000
348.275000	-0.000000
348.449000	-0.000000
348.623000	-0.000000
348.796000	0.000000
348.970000	0.000000
349.144000	-0.000000
349.318000	-0.000000
349.492000	-0.000000
349.665000	-0.000000
349.839000	-0.000000
350.013000	-0.000000
350.187000	-0.000000
350.361000	-0.000000
350.534000	-0.000000
350.708000	-0.000000
350.882000	-0.000000
351.056000	0.000000
351.229000	0.000000
351.403000	-0.000000
351.577000	-0.000000
351.751000	-0.000000
351.925000	-0.000000
352.098000	-0.000000
352.272000	-0.000000
352.446000	-0.000000
352.620000	-0.000000
352.794000	-0.000000
352.967000	-0.000000
353.141000	0.000000
353.315000	0.000000
353.489000	-0.000000
353.662000	-0.000000
353.836000	-0.000000
354.010000	-0.000000
354.184000	0.000000
354.358000	-0.000000
354.531000	-0.000000
354.705000	-0.000000
354.879000	-0.000000
355.053000	-0.000000
355.227000	0.000000
355.400000	-0.000000
355.574000	0.000000
355.748000	0.000000
355.922000	-0.000000
356.095000	-0.000000
356.269000	-0.000000
356.443000	-0.000000
356.617000	-0.000000
356.791000	-0.000000
356.964000	-0.000000
357.138000	-0.000000
357.312000	-0.000000
357.486000	-0.000000
357.660000	-0.000000
357.833000	-0.000000
358.007000	-0.000000
358.181000	-0.000000
358.355000	-0.000000
358.529000	-0.000000
358.702000	-0.000000
358.876000	-0.000000
359.050000	-0.000000
359.224000	-0.000000
359.397000	-0.000000
359.571000	-0.000000
359.745000	-0.000000
359.919000	-0.000000
360.093000	-0.041775
360.266000	-0.020780
360.440000	0.085291
360.614000	0.183272
360.788000	0.040417
360.962000	-0.230575
361.135000	-0.058524
361.309000	-0.219548
361.483000	-0.303481
361.657000	-0.230057
361.830000	-0.193561
362.004000	-0.039404
362.178000	-0.361029
362.352000	-0.273970
362.526000	-0.157505
362.699000	-0.105242
362.873000	-0.416045
363.047000	-0.442051
363.221000	-0.388396
363.395000	-0.233956
363.568000	-0.244047
363.742000	-0.245345
363.916000	-0.237432
364.090000	-0.289796
364.263000	-0.244163
364.437000	-0.337287
364.611000	-0.093346
364.785000	-0.071413
364.959000	-0.267120
365.132000	-0.296714
365.306000	-0.365051
365.480000	-0.190683
365.656000	-0.213440
365.831000	-0.216762
366.007000	-0.196056
366.183000	-0.077575
366.358000	-0.219833
366.534000	-0.206380
366.710000	-0.386441
366.886000	-0.357866
367.061000	-0.116158
367.237000	0.018107
367.413000	-0.153683
367.588000	-0.352145
367.764000	-0.383138
367.940000	-0.405127
368.115000	-0.276565
368.291000	-0.344764
368.467000	-0.254971
368.643000	0.071574
368.818000	-0.216032
368.994000	-0.423700
369.170000	-0.291840
369.345000	-0.189585
369.521000	-0.266446
369.697000	-0.146790
369.872000	-0.249176
370.048000	-0.409864
370.224000	-0.283300
370.399000	-0.530514
370.575000	-0.442042
370.751000	-0.485142
370.927000	-0.421688
371.102000	-0.370324
371.278000	-0.308069
371.454000	-0.199092
371.629000	0.049003
371.805000	0.013987
371.981000	0.110193
372.156000	0.199770
372.332000	-0.055028
372.508000	-0.085986
372.683000	-0.060627
372.859000	-0.126122
373.035000	-0.137593
373.211000	0.237550
373.386000	0.019243
373.562000	-0.429849
373.738000	-0.477590
373.913000	-0.658556
374.089000	-0.544588
374.265000	-0.152621
374.440000	-0.077497
374.616000	0.014245
374.792000	-0.228658
374.968000	0.033704
375.143000	-0.120745
375.319000	-0.309426
375.495000	-0.424919
375.670000	-0.358961
375.846000	-0.186527
376.022000	-0.284744
376.197000	-0.186926
376.373000	-0.514884
376.549000	-0.513117
376.724000	-0.427130
376.900000	-0.325386
377.076000	-0.237711
377.252000	0.018371
377.427000	0.086599
377.603000	-0.178283
377.779000	-0.183276
377.954000	-0.350305
378.130000	-0.301070
378.306000	-0.274668
378.481000	-0.297877
378.657000	-0.407736
378.833000	-0.295861
379.009000	-0.167659
379.184000	-0.113219
379.360000	-0.170275
379.536000	-0.196075
379.711000	-0.239001
379.887000	-0.289230
380.063000	-0.402171
380.238000	-0.409869
380.414000	-0.102609
380.590000	-0.333292
380.765000	-0.268926
380.941000	-0.058773
381.117000	-0.067972
381.293000	-0.101241
381.468000	-0.340953
381.644000	-0.250183
381.820000	-0.096899
381.995000	-0.049408
382.171000	0.266703
382.347000	0.295546
382.522000	-0.208815
382.698000	-0.034627
382.874000	0.071072
383.050000	-0.305509
383.225000	0.042471
383.401000	0.153978
383.577000	-0.176528
383.752000	-0.326159
383.928000	-0.263395
384.104000	-0.147715
384.279000	-0.167413
384.455000	-0.010465
384.631000	-0.120048
384.806000	-0.347179
384.982000	-0.196498
385.158000	-0.236679
385.334000	-0.090950
385.509000	-0.143653
385.685000	-0.382662
385.861000	-0.170089
386.036000	-0.353600
386.212000	-0.521467
386.388000	-0.331718
386.563000	-0.331087
386.739000	-0.334589
386.915000	-0.534166
387.090000	-0.231206
387.266000	-0.000956
387.442000	0.104109
387.618000	-0.100443
387.793000	-0.397581
387.969000	-0.545438
388.145000	-0.420050
388.320000	-0.328977
388.496000	-0.418878
388.672000	-0.628019
388.847000	-0.151826
389.023000	-0.119585
389.199000	-0.373030
389.375000	-0.080878
389.550000	-0.285592
389.726000	-0.225497
389.902000	-0.377651
390.077000	-0.236837
390.253000	-0.179755
390.429000	-0.270742
390.604000	-0.184259
390.780000	-0.136572
390.956000	-0.242259
391.131000	-0.380759
391.307000	0.017614
391.483000	-0.167736
391.659000	-0.423968
391.834000	-0.204594
392.010000	-0.218184
392.186000	-0.301705
392.361000	-0.260620
392.537000	-0.377525
392.713000	0.031002
392.888000	0.231944
393.064000	-0.065067
393.240000	-0.366563
393.416000	-0.387022
393.591000	-0.472173
393.767000	-0.537930
393.943000	-0.390679
394.118000	-0.054986
394.294000	0.183767
394.470000	0.097937
394.645000	0.133452
394.821000	0.291873
394.997000	-0.108323
395.172000	-0.138919
395.348000	-0.246264
395.524000	-0.520128
395.700000	-0.319790
395.875000	-0.111380
396.051000	-0.168618
396.227000	-0.192110
396.402000	-0.251248
396.578000	-0.161422
396.754000	-0.342381
396.929000	-0.230472
397.105000	0.016753
397.281000	-0.071396
397.457000	-0.189836
397.632000	-0.109571
397.808000	-0.482206
397.984000	-0.694259
398.159000	-0.598763
398.335000	-0.312319
398.511000	0.200531
398.686000	-0.040239
398.862000	-0.300624
399.038000	-0.403844
399.213000	-0.173370
399.389000	-0.452666
399.565000	-0.174146
399.741000	-0.022501
399.916000	-0.079515
400.092000	0.207815
400.268000	-0.147464
400.443000	-0.354295
400.619000	0.042680
400.795000	-0.070812
400.970000	-0.212213
401.146000	-0.290986
401.322000	0.034003
401.497000	0.456531
401.673000	0.139241
401.849000	-0.192896
402.025000	0.007822
402.200000	-0.156885
402.376000	-0.217464
402.552000	0.281871
402.727000	0.090054
402.903000	-0.303292
403.079000	-0.234323
403.254000	0.090002
403.430000	0.033525
403.606000	-0.069745
403.782000	-0.155654
403.957000	-0.341515
404.133000	-0.485063
404.309000	-0.294752
404.484000	-0.043926
404.660000	-0.074278
404.841000	-0.216920
405.023000	0.007735
405.204000	-0.052584
405.385000	-0.277982
405.566000	-0.242248
405.748000	-0.114112
405.929000	-0.000875
406.110000	-0.057111
406.292000	-0.146491
406.473000	-0.026623
406.654000	-0.204286
406.835000	-0.125948
407.017000	-0.168443
407.198000	-0.094329
407.379000	-0.089832
407.560000	-0.170875
407.742000	-0.189334
407.923000	-0.143004
408.104000	-0.228063
408.286000	-0.086420
408.467000	-0.043530
408.648000	-0.253424
408.829000	-0.303722
409.011000	-0.274204
409.192000	-0.438206
409.373000	-0.163571
409.555000	-0.052249
409.736000	-0.026375
409.917000	-0.146027
410.098000	-0.081438
410.280000	0.003369
410.461000	-0.055484
410.642000	0.020213
410.823000	0.184380
411.005000	0.079241
411.186000	-0.106288
411.367000	-0.249907
411.549000	-0.161141
411.730000	0.108803
411.911000	0.218081
412.092000	-0.017629
412.274000	-0.079985
412.455000	-0.096848
412.636000	-0.005014
412.818000	-0.142330
412.999000	-0.257107
413.180000	-0.200441
413.361000	-0.146925
413.543000	-0.154443
413.724000	-0.216164
413.905000	-0.203747
414.087000	-0.133626
414.268000	-0.123952
414.449000	-0.115960
414.630000	-0.194843
414.812000	-0.350996
414.993000	-0.074334
415.174000	0.178977
415.355000	0.048515
415.537000	-0.172736
415.718000	0.072935
415.899000	-0.000817
416.081000	-0.122868
416.262000	0.080390
416.443000	0.035639
416.624000	0.015354
416.806000	0.136834
416.987000	0.332742
417.168000	0.213491
417.350000	-0.077615
417.531000	-0.028931
417.712000	0.031339
417.893000	0.232144
418.075000	0.327306
418.256000	0.091494
418.437000	0.192589
418.618000	0.240070
418.800000	0.400023
418.981000	0.162724
419.162000	0.236968
419.344000	0.449922
419.525000	0.360118
419.706000	0.252121
419.887000	0.295688
420.069000	0.511507
420.250000	0.515373
420.431000	0.446263
420.613000	0.384209
420.794000	0.216175
420.975000	0.528091
421.156000	0.457394
421.338000	0.457021
421.519000	0.448968
421.700000	0.530140
421.882000	0.510089
422.063000	0.548653
422.244000	0.989557
422.425000	0.854157
422.607000	0.493427
422.788000	0.455143
422.969000	0.404333
423.150000	0.388896
423.332000	0.363985
423.513000	0.536184
423.694000	0.658957
423.876000	0.760605
424.057000	0.848438
424.238000	0.835616
424.419000	0.946416
424.601000	0.825906
424.782000	0.853135
424.963000	1.191951
425.145000	1.055674
425.326000	1.070989
425.507000	1.089230
425.688000	1.019073
425.870000	0.963138
426.051000	0.948604
426.232000	0.992218
426.413000	0.982073
426.595000	0.992829
426.776000	1.087716
426.957000	1.168214
427.139000	1.234786
427.320000	1.308084
427.501000	1.445382
427.682000	1.514062
427.864000	1.616795
428.045000	1.709420
428.226000	1.711526
428.408000	1.469518
428.589000	1.634811
428.770000	1.782350
428.951000	1.715751
429.133000	1.556132
429.314000	1.917907
429.495000	1.891824
429.677000	1.926224
429.858000	1.999610
430.039000	2.172491
430.220000	2.363265
430.402000	2.427048
430.583000	2.175107
430.764000	2.209870
430.945000	2.502912
431.127000	2.622497
431.308000	2.465831
431.489000	2.813599
431.671000	3.042202
431.852000	2.876801
432.033000	2.798700
432.214000	2.934090
432.396000	3.109778
432.577000	3.014942
432.758000	2.901364
432.940000	3.062807
433.121000	3.247409
433.302000	3.404378
433.483000	3.592272
433.665000	3.835689
433.846000	3.916701
434.027000	3.853479
434.208000	3.825242
434.390000	3.808322
434.571000	4.275601
434.752000	4.779465
434.934000	4.561755
435.115000	4.603875
435.296000	4.947920
435.477000	4.795595
435.659000	4.620150
435.840000	5.040793
436.026000	5.075118
436.211000	4.997661
436.397000	4.820414
436.582000	5.065655
436.768000	5.479571
436.953000	5.509752
437.139000	5.685416
437.325000	6.142486
437.510000	6.223806
437.696000	6.363820
437.881000	6.510034
438.067000	6.309986
438.252000	6.610859
438.438000	6.750457
438.624000	6.869150
438.809000	7.047441
438.995000	7.271056
439.180000	7.366024
439.366000	7.460965
439.551000	7.637655
439.737000	7.844985
439.923000	8.056390
440.108000	8.202851
440.294000	8.436292
440.479000	8.714789
440.665000	8.831212
440.850000	8.979340
441.036000	9.269294
441.222000	9.351830
441.407000	9.359474
441.593000	9.605607
441.778000	9.972834
441.964000	10.402877
442.149000	10.184588
442.335000	10.339635
442.521000	10.654999
442.706000	10.965568
442.892000	11.224317
443.077000	11.467334
443.263000	11.627762
443.448000	11.750984
443.634000	12.131736
443.820000	12.529320
444.005000	12.545597
444.191000	12.641609
444.376000	12.843129
444.562000	13.362862
444.747000	13.655147
444.933000	13.754819
445.119000	13.867098
445.304000	14.114022
445.490000	14.520245
445.675000	14.703340
445.861000	14.953607
446.046000	15.217935
446.232000	15.541833
446.418000	15.800118
446.603000	16.053245
446.789000	16.469440
446.974000	16.864278
447.160000	16.848315
447.345000	17.064337
447.531000	17.319398
447.717000	17.810513
447.902000	18.316416
448.088000	18.449394
448.273000	18.532144
448.459000	18.878435
448.644000	19.212277
448.830000	19.684202
449.016000	19.708808
449.201000	20.206397
449.387000	20.675883
449.572000	20.958352
449.758000	21.275176
449.943000	21.561492
450.129000	21.822189
450.315000	22.167873
450.500000	22.438394
450.686000	22.867317
450.871000	23.233148
451.057000	23.557055
451.243000	23.696219
451.428000	24.119060
451.614000	24.526586
451.799000	24.688221
451.985000	25.063629
452.170000	25.479775
452.356000	25.579887
452.542000	25.938991
452.727000	26.194974
452.913000	26.535747
453.098000	27.199124
453.284000	27.668660
453.469000	27.741987
453.655000	28.011436
453.841000	28.088832
454.026000	28.237867
454.212000	28.525253
454.397000	28.630772
454.583000	28.920936
454.768000	29.092939
454.954000	29.442518
455.140000	29.419212
455.325000	29.358676
455.511000	29.628413
455.696000	29.882197
455.882000	29.932132
456.067000	30.404089
456.253000	30.292516
456.439000	30.298040
456.624000	30.211675
456.810000	30.221539
456.995000	30.305560
457.181000	30.152615
457.366000	30.385148
457.552000	30.467413
457.738000	30.495768
457.923000	30.549454
458.109000	30.787275
458.294000	30.496167
458.480000	30.302907
458.665000	30.133867
458.851000	29.936351
459.037000	29.515487
459.222000	29.426328
459.408000	29.521617
459.593000	29.249306
459.779000	29.100665
459.964000	29.103293
460.150000	29.177643
460.336000	28.875553
460.521000	28.176721
460.707000	27.786659
460.892000	27.328649
461.078000	27.389419
461.263000	26.991693
461.449000	26.840777
461.635000	26.468742
461.820000	26.082810
462.006000	25.898412
462.191000	25.326800
462.377000	24.729781
462.562000	24.904057
462.748000	24.806006
462.934000	24.146870
463.119000	23.334426
463.305000	23.234954
463.490000	22.781205
463.676000	22.384278
463.861000	22.110356
464.047000	21.742014
464.233000	21.321437
464.418000	20.880680
464.604000	20.508387
464.789000	20.411425
464.975000	19.896707
465.160000	19.495097
465.346000	19.213821
465.532000	18.793864
465.717000	18.595678
465.903000	18.516419
466.088000	18.053797
466.274000	17.407211
466.459000	17.174418
466.645000	17.383520
466.831000	17.010452
467.016000	16.651593
467.202000	16.335325
467.387000	15.963941
467.573000	15.489896
467.758000	15.485386
467.944000	14.991474
468.130000	14.735525
468.315000	14.728177
468.501000	14.471395
468.686000	14.147236
468.872000	13.902545
469.057000	13.737610
469.243000	13.519259
469.429000	13.201729
469.614000	12.902872
469.800000	12.605644
469.985000	12.593646
470.171000	12.510430
470.356000	12.275346
470.542000	12.127932
470.728000	11.825677
470.913000	11.558898
471.099000	11.541992
471.284000	11.408806
471.470000	11.197591
471.655000	11.029183
471.841000	10.845842
472.027000	10.586058
472.212000	10.607125
472.398000	10.569368
472.583000	10.356613
472.769000	10.102967
472.954000	9.993358
473.140000	9.670155
473.326000	9.462166
473.511000	9.632805
473.697000	9.562685
473.882000	9.208301
474.068000	8.970906
474.253000	8.736022
474.439000	8.719639
474.625000	8.694637
474.810000	8.576883
474.996000	8.380344
475.181000	8.060202
475.367000	8.201201
475.552000	8.205480
475.738000	7.731105
475.924000	7.675953
476.109000	7.690991
476.295000	7.480469
476.480000	7.367143
476.666000	7.259281
476.851000	7.110481
477.037000	7.001984
477.223000	6.747715
477.408000	6.477390
477.594000	6.323231
477.779000	6.420972
477.965000	6.405050
478.151000	6.076700
478.336000	6.100489
478.522000	5.952887
478.707000	5.743664
478.893000	5.725248
479.078000	5.453924
479.264000	5.367228
479.450000	5.390656
479.635000	5.392453
479.821000	5.204298
480.006000	5.163892
480.192000	5.070983
480.377000	4.978602
480.563000	4.876484
480.749000	4.542133
480.934000	4.434000
481.120000	4.502477
481.305000	4.478130
481.491000	4.469057
481.676000	4.345309
481.862000	4.352297
482.048000	4.113551
482.233000	4.054168
482.419000	3.978355
482.604000	3.775836
482.790000	3.721233
482.975000	3.736843
483.161000	3.734759
483.347000	3.665203
483.532000	3.559969
483.718000	3.188983
483.903000	3.163046
484.089000	3.234316
484.274000	3.101967
484.460000	3.129446
484.646000	3.062910
484.831000	2.931428
485.017000	2.964638
485.202000	2.913664
485.388000	3.086964
485.573000	3.005504
485.759000	2.707811
485.945000	2.853497
486.130000	2.700278
486.316000	2.655986
486.501000	2.600732
486.687000	2.395392
486.872000	2.304166
487.058000	2.420261
487.244000	2.421759
487.429000	2.183127
487.615000	2.282804
487.800000	2.294455
487.986000	2.150880
488.171000	2.185890
488.357000	2.115640
488.543000	2.078111
488.728000	2.126520
488.914000	2.035357
489.099000	1.905841
489.285000	1.901499
489.470000	2.024625
489.656000	2.035063
489.842000	2.012432
490.027000	2.050673
490.213000	1.837969
490.398000	1.527933
490.584000	1.750346
490.769000	1.717808
490.955000	1.697130
491.141000	1.646248
491.326000	1.605260
491.512000	1.713087
491.697000	1.677371
491.883000	1.516929
492.068000	1.402849
492.254000	1.396543
492.440000	1.416247
492.625000	1.271652
492.811000	1.298269
492.996000	1.413077
493.182000	1.411480
493.367000	1.191141
493.553000	1.139007
493.739000	1.186769
493.924000	1.211435
494.110000	1.262781
494.295000	1.102589
494.481000	1.153231
494.666000	1.127939
494.852000	1.230409
495.038000	1.089141
495.223000	0.992344
495.409000	1.016006
495.594000	1.006117
495.780000	1.038121
495.965000	0.903425
496.151000	1.078304
496.337000	1.149348
496.522000	0.866426
496.708000	0.860928
496.893000	1.002055
497.079000	0.884572
497.264000	0.825515
497.450000	0.866008
497.636000	0.895516
497.821000	0.761415
498.007000	0.941913
498.192000	0.951166
498.378000	0.826075
498.563000	0.734460
498.749000	0.686348
498.935000	0.714010
499.120000	0.852557
499.306000	0.696095
499.491000	0.574127
499.677000	0.685424
499.862000	0.774098
500.048000	0.830069
500.234000	0.633020
500.419000	0.588220
500.605000	0.738229
500.790000	0.608191
500.976000	0.465362
501.161000	0.390477
501.347000	0.611856
501.533000	0.692806
501.718000	0.540001
501.904000	0.512439
502.089000	0.591136
502.275000	0.655815
502.460000	0.487398
502.646000	0.502329
502.832000	0.551479
503.017000	0.532425
503.203000	0.371604
503.388000	0.285735
503.574000	0.501322
503.759000	0.550210
503.945000	0.545372
504.131000	0.487597
504.316000	0.418016
504.502000	0.412399
504.687000	0.381648
504.873000	0.280457
505.058000	0.228277
505.244000	0.193467
505.430000	0.193832
505.615000	0.289955
505.801000	0.392350
505.986000	0.219560
506.172000	0.237083
506.358000	0.284102
506.543000	0.260722
506.729000	0.420659
506.914000	0.401203
507.100000	0.539882
507.285000	0.341800
507.471000	0.209879
507.657000	0.429061
507.842000	0.317558
508.028000	0.110402
508.213000	0.216086
508.399000	0.245874
508.584000	0.310732
508.770000	0.266207
508.956000	0.175459
509.141000	0.181166
509.327000	0.281416
509.512000	0.227636
509.698000	0.207469
509.883000	0.240371
510.069000	0.193876
510.255000	0.255865
510.440000	0.318160
510.626000	0.200001
510.811000	0.132344
510.997000	0.161920
511.182000	0.427338
511.368000	0.371669
511.554000	0.037839
511.739000	0.123488
511.925000	0.300933
512.110000	0.200236
512.296000	0.351735
512.481000	0.395664
512.667000	0.221432
512.853000	0.008290
513.038000	0.180271
513.224000	0.221835
513.409000	0.034992
513.595000	0.094452
513.780000	-0.051061
513.966000	0.067522
514.152000	0.070493
514.337000	-0.033186
514.523000	0.049784
514.708000	0.159591
514.894000	0.186802
515.079000	0.020148
515.265000	0.044002
515.451000	0.094585
515.636000	-0.015455
515.822000	0.064874
516.007000	-0.039288
516.193000	0.044007
516.378000	0.127481
516.564000	0.100527
516.750000	0.157091
516.935000	0.243496
517.121000	0.157141
517.306000	0.234735
517.492000	0.270888
517.677000	0.041124
517.863000	-0.051265
518.049000	0.070959
518.234000	-0.009533
518.420000	0.139600
518.605000	0.378103
518.791000	0.267640
518.976000	0.089168
519.162000	0.026283
519.348000	0.166695
519.533000	0.088894
519.719000	0.315923
519.904000	0.250513
520.090000	0.097854
520.275000	0.244202
520.461000	0.238703
520.647000	0.080151
520.832000	-0.099560
521.018000	0.029312
521.203000	0.050085
521.389000	-0.134654
521.574000	-0.090060
521.760000	0.077040
521.946000	0.080270
522.131000	-0.003597
522.317000	-0.006585
522.502000	-0.060435
522.688000	0.071237
522.873000	0.068308
523.059000	0.035378
523.245000	0.008387
523.430000	-0.135559
523.616000	-0.078554
523.801000	-0.108680
523.987000	-0.075792
524.172000	0.029471
524.358000	0.077621
524.544000	0.035443
524.729000	0.131211
524.915000	0.224614
525.100000	0.047427
525.286000	0.092588
525.471000	0.132040
525.657000	0.147265
525.843000	-0.058008
526.028000	0.038700
526.214000	-0.058027
526.399000	-0.112753
526.585000	-0.133997
526.770000	-0.176419
526.956000	-0.067462
527.142000	-0.100871
527.327000	0.063269
527.513000	-0.073702
527.698000	-0.122568
527.884000	-0.037333
528.069000	-0.083066
528.255000	0.017736
528.441000	-0.092459
528.626000	-0.037466
528.812000	0.247935
528.997000	0.119299
529.183000	0.011679
529.368000	0.024084
529.554000	0.005572
529.740000	0.021111
529.925000	-0.062725
530.111000	-0.053469
530.296000	-0.031755
530.482000	0.096124
530.667000	0.043086
530.853000	0.124660
531.039000	0.040179
531.224000	0.021460
531.410000	0.084551
531.595000	0.034105
531.781000	0.046743
531.967000	-0.080034
532.152000	0.082196
532.338000	0.018515
532.523000	-0.080597
532.709000	-0.138676
532.894000	-0.090970
533.080000	0.012272
533.266000	-0.129918
533.451000	-0.117426
533.637000	-0.072246
533.822000	0.061425
534.008000	-0.131231
534.193000	-0.138271
534.379000	-0.056559
534.565000	-0.126121
534.750000	-0.096763
534.936000	0.172308
535.121000	0.026013
535.307000	0.026058
535.492000	0.022754
535.678000	-0.155516
535.864000	-0.058184
536.049000	0.281713
536.235000	0.064035
536.420000	-0.038323
536.606000	-0.103631
536.791000	-0.145669
536.977000	-0.163336
537.163000	0.027097
537.348000	0.030750
537.534000	0.147039
537.719000	-0.043023
537.905000	-0.206040
538.090000	0.009952
538.276000	0.109856
538.462000	0.088743
538.647000	0.078324
538.833000	-0.047685
539.018000	0.053715
539.204000	0.042857
539.389000	-0.033642
539.575000	0.229838
539.761000	0.039724
539.946000	-0.237249
540.132000	-0.097198
540.317000	-0.212814
540.503000	-0.038031
540.688000	-0.000750
540.874000	0.206237
541.060000	0.296461
541.245000	0.173117
541.431000	-0.050083
541.616000	0.010653
541.802000	-0.046456
541.987000	0.041242
542.173000	0.091233
542.359000	0.033773
542.544000	0.164020
542.730000	0.018468
542.915000	-0.039339
543.101000	0.111140
543.286000	-0.039444
543.472000	-0.144753
543.658000	-0.043613
543.843000	-0.078853
544.029000	0.108869
544.214000	0.007058
544.400000	-0.299130
544.585000	-0.055866
544.771000	-0.016578
544.957000	0.121833
545.142000	0.252577
545.328000	0.261180
545.513000	0.273597
545.699000	0.318710
545.884000	0.167057
546.070000	0.103159
546.261000	0.035314
546.451000	-0.125593
546.642000	-0.275009
546.833000	-0.142185
547.023000	-0.243113
547.214000	-0.191385
547.405000	0.027567
547.595000	0.254920
547.786000	0.174405
547.977000	-0.008989
548.167000	-0.143948
548.358000	-0.128153
548.549000	0.168201
548.740000	0.044524
548.930000	-0.252390
549.121000	-0.224164
549.312000	-0.295601
549.502000	-0.325447
549.693000	-0.175483
549.884000	-0.129780
550.074000	-0.000835
550.265000	-0.155652
550.456000	-0.080532
550.646000	0.049611
550.837000	0.020188
551.028000	-0.152453
551.218000	-0.072417
551.409000	-0.199594
551.600000	-0.148977
551.790000	0.011897
551.981000	-0.166553
552.172000	-0.226457
552.362000	0.109776
552.553000	0.234352
552.744000	-0.047865
552.934000	-0.133453
553.125000	-0.129406
553.316000	-0.180941
553.506000	0.162409
553.697000	-0.013800
553.888000	-0.013776
554.079000	0.162855
554.269000	0.115579
554.460000	-0.178130
554.651000	-0.230250
554.841000	-0.351828
555.032000	-0.291614
555.223000	-0.235530
555.413000	-0.026823
555.604000	0.038233
555.795000	-0.096705
555.985000	-0.005238
556.176000	-0.127227
556.367000	-0.436487
556.557000	-0.193184
556.748000	-0.044668
556.939000	-0.149538
557.129000	-0.206206
557.320000	-0.123276
557.511000	-0.192859
557.701000	-0.183841
557.892000	-0.101475
558.083000	0.169523
558.273000	0.108375
558.464000	-0.153832
558.655000	-0.232296
558.845000	-0.105358
559.036000	0.016556
559.227000	-0.022672
559.418000	0.047174
559.608000	0.029690
559.799000	-0.275603
559.990000	-0.291488
560.180000	-0.152884
560.371000	-0.335813
560.562000	-0.252778
560.752000	-0.096509
560.943000	-0.279221
561.134000	-0.412937
561.324000	-0.165495
561.515000	0.020757
561.706000	-0.113423
561.896000	-0.342121
562.087000	-0.238180
562.278000	-0.255339
562.468000	-0.354895
562.659000	-0.280729
562.850000	0.046531
563.040000	0.020680
563.231000	-0.384611
563.422000	-0.177062
563.612000	-0.259002
563.803000	-0.146873
563.994000	-0.244468
564.185000	-0.308060
564.375000	-0.060658
564.566000	-0.103250
564.757000	-0.231889
564.947000	-0.372632
565.138000	-0.196758
565.329000	-0.192111
565.519000	-0.213252
565.710000	-0.192206
565.901000	-0.077446
566.091000	0.058680
566.282000	-0.149332
566.473000	-0.127723
566.663000	-0.186716
566.854000	-0.383732
567.045000	-0.114149
567.235000	-0.013427
567.426000	-0.076337
567.617000	-0.096959
567.807000	-0.076095
567.998000	-0.059250
568.189000	-0.267811
568.379000	-0.238006
568.570000	-0.038227
568.761000	-0.083757
568.951000	-0.149861
569.142000	-0.199807
569.333000	-0.291000
569.524000	-0.459230
569.714000	-0.541777
569.905000	-0.483135
570.096000	-0.033796
570.286000	0.011525
570.477000	0.081275
570.668000	-0.082839
570.858000	-0.021324
571.049000	-0.213308
571.240000	-0.397394
571.430000	-0.139641
571.621000	-0.106597
571.812000	-0.033226
572.002000	-0.081996
572.193000	-0.207492
572.384000	-0.061573
572.574000	-0.130542
572.765000	-0.154585
572.956000	-0.133930
573.146000	0.011312
573.337000	-0.162089
573.528000	-0.153757
573.718000	-0.000803
573.909000	0.055322
574.100000	-0.016777
574.290000	-0.156085
574.481000	-0.183546
574.672000	-0.215576
574.863000	-0.052292
575.053000	-0.119412
575.244000	-0.067848
575.435000	-0.178127
575.625000	-0.251887
575.816000	-0.188877
576.007000	-0.106587
576.197000	-0.146003
576.388000	-0.102430
576.579000	0.081292
576.769000	0.026545
576.960000	-0.289436
577.155000	-0.417005
577.350000	-0.144529
577.545000	-0.024043
577.740000	-0.139966
577.935000	0.180577
578.130000	0.095765
578.326000	-0.251001
578.521000	-0.020009
578.716000	0.029875
578.911000	-0.226498
579.106000	-0.088429
579.301000	0.098039
579.496000	-0.121974
579.691000	-0.443576
579.886000	-0.272548
580.081000	-0.083674
580.276000	-0.008272
580.471000	-0.181194
580.666000	-0.312225
580.861000	-0.312114
581.057000	-0.304809
581.252000	-0.180976
581.447000	-0.199302
581.642000	-0.169617
581.837000	-0.266824
582.032000	-0.284749
582.227000	-0.019319
582.422000	0.025216
582.617000	-0.148395
582.812000	-0.302654
583.007000	-0.317209
583.202000	-0.357030
583.397000	-0.143484
583.592000	0.160040
583.788000	-0.109995
583.983000	-0.153556
584.178000	-0.091552
584.373000	-0.228917
584.568000	-0.253739
584.763000	-0.297402
584.958000	-0.304617
585.153000	-0.214188
585.348000	-0.271928
585.543000	-0.069500
585.738000	-0.102031
585.933000	-0.308342
586.128000	-0.033283
586.324000	-0.015234
586.519000	-0.109463
586.714000	-0.087785
586.909000	0.031978
587.104000	0.086775
587.299000	-0.044354
587.494000	-0.073339
587.689000	-0.055295
587.884000	-0.051812
588.079000	-0.143041
588.274000	-0.139649
588.469000	-0.150314
588.664000	-0.084754
588.859000	-0.004390
589.055000	0.002930
589.250000	-0.077686
589.445000	-0.165833
589.640000	-0.191670
589.835000	0.002944
590.030000	0.113329
590.225000	0.083909
590.420000	-0.063387
590.615000	-0.137216
590.810000	-0.162854
591.005000	-0.178319
591.200000	-0.200599
591.395000	-0.211670
591.591000	-0.074622
591.786000	-0.019194
591.981000	-0.134012
592.176000	0.002968
592.371000	0.017813
592.566000	-0.071199
592.761000	0.103075
592.956000	0.010399
593.151000	0.103301
593.346000	0.043969
593.541000	0.062535
593.736000	0.021656
593.931000	-0.109074
594.126000	-0.083049
594.322000	-0.064342
594.517000	-0.075549
594.712000	-0.225248
594.907000	-0.297407
595.102000	-0.113554
595.297000	0.123250
595.492000	0.195060
595.687000	0.010565
595.882000	-0.110232
596.077000	0.040850
596.272000	0.286648
596.467000	0.241347
596.662000	0.056041
596.857000	0.060067
597.053000	0.056360
597.248000	0.140077
597.443000	0.125017
597.638000	0.033622
597.833000	-0.176683
598.028000	0.083264
598.223000	0.194408
598.418000	0.175586
598.613000	0.068232
598.808000	0.129664
599.003000	0.106762
599.198000	-0.058447
599.393000	-0.000769
599.589000	0.168827
599.784000	0.010800
599.979000	0.095799
600.174000	0.339395
600.369000	0.154010
600.564000	0.220078
600.759000	0.515150
600.954000	0.599480
601.149000	0.477013
601.344000	0.108098
601.539000	0.221121
601.734000	0.154738
601.929000	0.007016
602.124000	0.085040
602.320000	0.311834
602.515000	0.569833
602.710000	0.484849
602.905000	0.202841
603.100000	0.151690
603.295000	0.218553
603.490000	0.289882
603.685000	0.321361
603.880000	0.443687
604.075000	0.302850
604.270000	0.299540
604.465000	0.394081
604.660000	0.236323
604.856000	0.409904
605.051000	0.628304
605.246000	0.568488
605.441000	0.323619
605.636000	0.339541
605.831000	0.526502
606.026000	0.379653
606.221000	0.400015
606.416000	0.619067
606.611000	0.683327
606.806000	0.770127
607.001000	0.993938
607.196000	0.787764
607.391000	0.617372
607.587000	0.734516
607.782000	0.715479
607.977000	0.566081
608.172000	0.904233
608.367000	0.960281
608.562000	0.829787
608.757000	0.825509
608.952000	0.730939
609.147000	1.115525
609.342000	1.056925
609.537000	0.805028
609.732000	0.870872
609.927000	0.788596
610.122000	0.894841
610.318000	1.093598
610.513000	1.211340
610.708000	1.147940
610.903000	1.295004
611.098000	1.326176
611.293000	1.269710
611.488000	1.208987
611.683000	1.296510
611.878000	1.410815
612.073000	1.439699
612.268000	1.510519
612.463000	1.624138
612.658000	1.513926
612.854000	1.525287
613.049000	1.501412
613.244000	1.682482
613.439000	1.801951
613.634000	1.633928
613.829000	1.811069
614.024000	1.588854
614.219000	1.555681
614.414000	1.960512
614.609000	1.781858
614.804000	1.670881
614.999000	1.619869
615.194000	1.777062
615.389000	1.895058
615.585000	1.769975
615.780000	1.991435
615.975000	2.007885
616.170000	2.134188
616.365000	2.357165
616.560000	2.363602
616.755000	2.379151
616.950000	2.367629
617.145000	2.583415
617.340000	2.367877
617.535000	2.200142
617.730000	2.593561
617.925000	2.337071
618.120000	2.342012
618.316000	2.789737
618.511000	2.657307
618.706000	2.573535
618.901000	2.749952
619.096000	2.981331
619.291000	2.902324
619.486000	3.026484
619.681000	2.777445
619.876000	2.818844
620.071000	2.949213
620.266000	3.234157
620.461000	3.436887
620.656000	3.456160
620.852000	3.344713
621.047000	3.245532
621.242000	3.193914
621.437000	3.602363
621.632000	3.765574
621.827000	3.695475
622.022000	3.568512
622.217000	3.816754
622.412000	4.068432
622.607000	4.176713
622.802000	3.970111
622.997000	3.949034
623.192000	4.118899
623.387000	4.224537
623.583000	4.062318
623.778000	4.450735
623.973000	4.554613
624.168000	4.701776
624.363000	4.742849
624.558000	4.966543
624.753000	4.757384
624.948000	5.049336
625.143000	5.088398
625.338000	5.074802
625.533000	5.009852
625.728000	5.197265
625.923000	5.507108
626.119000	5.528783
626.314000	5.329108
626.509000	5.515353
626.704000	5.610590
626.899000	5.561601
627.094000	5.488476
627.289000	5.739716
627.484000	5.861544
627.679000	5.826136
627.874000	6.014576
628.069000	6.530669
628.264000	6.438778
628.459000	6.313276
628.654000	6.287226
628.850000	6.318376
629.045000	6.676620
629.240000	6.578275
629.435000	6.522828
629.630000	6.773320
629.825000	6.814339
630.020000	7.080304
630.215000	6.846654
630.410000	6.804568
630.605000	6.911724
630.800000	7.039945
630.995000	7.226949
631.190000	7.516074
631.385000	7.330369
631.581000	7.119783
631.776000	7.198752
631.971000	7.082050
632.166000	7.092173
632.361000	6.855795
632.556000	6.907503
632.751000	7.028450
632.946000	6.748902
633.141000	6.566845
633.336000	6.539385
633.531000	6.573747
633.726000	6.400180
633.921000	6.114177
634.117000	5.823668
634.312000	5.701122
634.507000	5.702526
634.702000	5.574432
634.897000	5.529841
635.092000	5.640208
635.287000	5.469273
635.482000	5.194948
635.677000	5.134059
635.872000	5.105745
636.067000	5.136829
636.262000	4.793630
636.457000	4.291860
636.652000	4.134030
636.848000	4.128551
637.043000	4.082469
637.238000	3.825088
637.433000	3.393874
637.628000	3.408375
637.823000	3.589233
638.018000	3.488480
638.213000	3.148017
638.408000	2.871100
638.603000	2.698226
638.798000	2.697222
638.993000	2.672805
639.188000	2.422048
639.383000	2.320380
639.579000	2.594236
639.774000	2.403574
639.969000	2.162040
640.164000	1.933814
640.359000	1.901137
640.554000	2.047806
640.749000	1.913826
640.944000	1.932973
641.139000	1.849237
641.334000	1.572777
641.529000	1.180430
641.724000	1.372347
641.919000	1.480720
642.115000	1.610150
642.310000	1.451994
642.505000	1.275576
642.700000	1.277887
642.895000	1.074714
643.090000	1.119814
643.285000	1.382530
643.480000	1.304706
643.675000	1.285561
643.870000	1.521488
644.065000	1.193932
644.260000	0.746266
644.455000	0.717101
644.650000	0.637188
644.846000	0.826117
645.041000	0.514446
645.236000	0.259895
645.431000	0.342243
645.626000	0.249871
645.821000	0.382850
646.016000	0.450703
646.211000	0.857847
646.406000	0.689426
646.601000	0.549763
646.796000	0.426129
646.991000	0.101917
647.186000	0.236268
647.381000	0.535818
647.577000	0.458827
647.772000	0.448518
647.967000	0.470105
648.162000	0.651833
648.357000	0.497057
648.552000	0.476114
648.747000	0.543853
648.942000	0.466310
649.137000	0.259389
649.332000	0.134558
649.527000	0.238766
649.722000	0.483622
649.917000	0.558217
650.113000	0.160790
650.308000	0.072144
650.503000	0.113906
650.698000	0.276680
650.893000	0.166755
651.088000	0.229832
651.283000	0.282921
651.478000	0.030501
651.673000	0.172314
651.868000	-0.027373
652.063000	0.178277
652.258000	0.415946
652.453000	0.541190
652.648000	0.194000
652.844000	0.178314
653.039000	0.289588
653.234000	-0.191358
653.429000	-0.424704
653.624000	-0.138641
653.819000	0.078488
654.014000	-0.038191
654.209000	-0.123383
654.404000	0.137068
654.599000	-0.054328
654.794000	-0.001063
654.989000	0.324234
655.184000	0.175121
655.380000	-0.214457
655.575000	-0.193140
655.770000	-0.166739
655.965000	-0.091943
656.160000	-0.156172
656.355000	0.014972
656.550000	-0.022528
656.745000	0.057967
656.940000	-0.027933
657.135000	-0.049408
657.330000	0.149358
657.525000	-0.113981
657.720000	-0.162653
657.915000	-0.108694
658.111000	-0.044140
658.306000	0.252122
658.501000	0.004320
658.696000	-0.157605
658.891000	0.036720
659.086000	-0.076648
659.281000	-0.011894
659.476000	-0.271795
659.671000	-0.618249
659.866000	-0.326050
660.061000	-0.076961
660.256000	-0.093263
660.451000	-0.093346
660.646000	-0.191284
660.842000	-0.175184
661.037000	-0.333084
661.232000	-0.306309
661.427000	-0.066441
661.622000	-0.235701
661.817000	-0.377457
662.012000	-0.110459
662.207000	-0.351304
662.402000	-0.439960
662.597000	-0.154805
662.792000	-0.390497
662.987000	-0.461417
663.182000	-0.204287
663.378000	-0.160483
663.573000	-0.463899
663.768000	-0.490427
663.963000	-0.298321
664.158000	-0.248557
664.353000	0.147977
664.548000	0.335592
664.743000	-0.045312
664.938000	-0.454178
665.133000	-0.399551
665.328000	0.082024
665.523000	0.059973
665.718000	-0.112184
665.913000	-0.295898
666.109000	-0.296560
666.304000	-0.056841
666.499000	-0.162618
666.694000	0.032393
666.889000	0.266931
667.084000	-0.085167
667.279000	-0.135514
667.474000	-0.141193
667.669000	-0.073940
667.864000	-0.169366
668.059000	-0.225792
668.254000	-0.226078
668.449000	-0.198183
668.644000	-0.130740
668.840000	-0.018010
669.035000	-0.198387
669.230000	-0.351750
669.425000	-0.136947
669.620000	-0.340644
669.815000	-0.347557
670.010000	-0.296171
670.205000	-0.154455
670.400000	-0.193859
670.595000	-0.103478
670.790000	-0.228869
670.985000	-0.251906
671.180000	-0.098135
671.376000	-0.423731
671.571000	-0.527689
671.766000	-0.505965
671.961000	-0.529113
672.156000	-0.386124
672.351000	-0.288511
672.546000	-0.375509
672.741000	-0.202286
672.936000	-0.070202
673.131000	0.420048
673.326000	0.102990
673.521000	-0.441272
673.716000	-0.522334
673.911000	-0.592246
674.107000	-0.146308
674.302000	0.173135
674.497000	-0.053512
674.692000	-0.379508
674.887000	-0.497612
675.082000	-0.357980
675.277000	0.016401
675.472000	-0.100882
675.667000	-0.447616
675.862000	-0.471353
676.057000	-0.218779
676.252000	-0.195667
676.447000	-0.308399
676.643000	-0.131051
676.838000	0.099362
677.033000	-0.244017
677.228000	0.040375
677.423000	-0.001188
677.618000	-0.358626
677.813000	-0.489399
678.008000	-0.269975
678.203000	-0.060988
678.398000	-0.330655
678.593000	-0.216916
678.788000	-0.091376
678.983000	-0.469533
679.178000	-0.283543
679.374000	-0.289971
679.569000	-0.236336
679.764000	-0.291458
679.959000	-0.564917
680.154000	-0.510469
680.349000	-0.731246
680.544000	-0.699889
680.739000	-0.432799
680.934000	-0.481913
681.129000	-0.550382
681.324000	-0.740449
681.519000	-0.289269
681.714000	-0.295502
681.909000	-0.503334
682.105000	-0.688966
682.300000	-0.186164
682.495000	0.072702
682.690000	-0.019761
682.885000	-0.266983
683.080000	-0.503222
683.275000	-0.342263
683.470000	0.004966
683.665000	0.123188
683.860000	0.391390
684.055000	0.110999
684.250000	-0.325832
684.445000	-0.481115
684.641000	-0.088762
684.836000	-0.308051
685.031000	-0.353150
685.226000	-0.441720
685.421000	-0.026502
685.616000	-0.108532
685.811000	-0.279571
686.006000	-0.045537
686.201000	-0.115261
686.396000	-0.490782
686.591000	-0.421697
686.786000	-0.033177
686.981000	-0.141653
687.176000	-0.110016
687.372000	-0.199788
687.567000	-0.020500
687.762000	0.011563
687.957000	-0.033404
688.152000	-0.226598
688.347000	-0.201211
688.542000	-0.486174
688.737000	-0.834919
688.932000	-0.939909
689.127000	-0.532838
689.322000	-0.033804
689.517000	-0.215777
689.712000	-0.510044
689.908000	-0.504032
690.103000	-0.452677
690.298000	-0.256472
690.493000	-0.263704
690.688000	-0.441363
690.883000	-0.297890
691.078000	-0.047467
691.273000	-0.054066
691.468000	-0.351453
691.663000	-0.293108
691.858000	0.045101
692.053000	0.005306
692.248000	-0.154026
692.443000	-0.147381
692.639000	-0.160992
692.834000	-0.034679
693.029000	0.492362
693.224000	0.374041
693.419000	-0.175788
693.614000	-0.411396
693.809000	-0.532785
694.004000	-0.668586
694.199000	-0.560603
694.394000	-0.292070
694.589000	-0.603710
694.784000	-0.590773
694.979000	-0.353663
695.174000	-0.395312
695.370000	0.052890
695.565000	-0.042144
695.760000	-0.451013
695.955000	-0.035513
696.150000	0.066949
696.345000	-0.488290
696.540000	-0.200605
696.740000	-0.337769
696.940000	-0.228098
697.140000	-0.091157
697.340000	-0.298850
697.539000	-0.264401
697.739000	-0.340673
697.939000	-0.195399
698.139000	-0.438371
698.339000	-0.802055
698.539000	-0.634597
698.739000	-0.573509
698.939000	-0.316738
699.138000	-0.450624
699.338000	-0.057360
699.538000	0.153075
699.738000	-0.367612
699.938000	-0.487742
700.138000	-0.566231
700.338000	-0.624511
700.538000	-0.193072
700.737000	-0.263967
700.937000	-0.793799
701.137000	-0.773762
701.337000	-0.129630
701.537000	-0.029980
701.737000	-0.215302
701.937000	-0.280098
702.137000	-0.401590
702.337000	-0.502471
702.536000	-0.639771
702.736000	-0.511284
702.936000	-0.727785
703.136000	-0.354870
703.336000	-0.325945
703.536000	-0.420855
703.736000	-0.886049
703.936000	-0.862506
704.135000	-0.760824
704.335000	-0.393081
704.535000	-0.634137
704.735000	-0.671185
704.935000	-0.241172
705.135000	-0.227747
705.335000	-0.506820
705.535000	-0.243316
705.735000	-0.184654
705.934000	-0.309064
706.134000	-0.624196
706.334000	-0.743175
706.534000	-0.678056
706.734000	-0.487234
706.934000	-0.663837
707.134000	-0.796517
707.334000	-0.576896
707.533000	-0.311893
707.733000	-0.355979
707.933000	-0.615085
708.133000	-0.363288
708.333000	-0.097974
708.533000	-0.469958
708.733000	-0.075836
708.933000	-0.299148
709.132000	-0.538320
709.332000	-0.427202
709.532000	-0.510481
709.732000	-0.487314
709.932000	-0.990446
710.132000	-0.847566
710.332000	-0.951952
710.532000	-0.368549
710.732000	0.006009
710.931000	-0.475070
711.131000	-0.484473
711.331000	-0.394220
711.531000	-0.561318
711.731000	-0.486892
711.931000	-0.457313
712.131000	-0.479527
712.331000	-0.251984
712.530000	-0.418452
712.730000	-0.601969
712.930000	-0.389021
713.130000	-0.329387
713.330000	-0.551184
713.530000	-0.507239
713.730000	0.213107
713.930000	-0.154799
714.129000	-0.590988
714.329000	-0.669684
714.529000	-0.392910
714.729000	-0.101506
714.929000	-0.339901
715.129000	-0.533034
715.329000	-0.410169
715.529000	-0.450558
715.729000	0.253445
715.928000	0.006197
716.128000	-0.412364
716.328000	-0.250329
716.528000	-0.452975
716.728000	-0.258460
716.928000	-0.383057
717.128000	-0.368307
717.328000	-0.399454
717.527000	-0.462429
717.727000	-0.509794
717.927000	-0.464369
718.127000	-0.362604
718.327000	-0.701360
718.527000	-0.873903
718.727000	-0.394879
718.927000	-0.482278
719.127000	-0.697843
719.326000	-0.458614
719.526000	-0.001579
719.726000	-0.191447
719.926000	-0.859169
720.126000	-0.827541
720.326000	-0.390681
720.526000	-0.549596
720.726000	-0.487527
720.925000	-0.272615
721.125000	-0.473644
721.325000	-0.185392
721.525000	-0.370081
721.725000	-0.554381
721.925000	-0.451503
722.125000	-0.435470
722.325000	0.006427
722.524000	-0.283643
722.724000	-0.913305
722.924000	-0.945519
723.124000	-0.728599
723.324000	-0.276538
723.524000	0.014568
723.724000	-0.609161
723.924000	-0.408106
724.124000	-0.310658
724.323000	-0.123773
724.523000	-0.164344
724.723000	0.316350
724.923000	0.112550
725.123000	-0.107770
725.323000	-0.116141
725.523000	-0.304837
725.723000	-0.468237
725.922000	-0.395008
726.122000	-0.214955
726.322000	-0.421198
726.522000	-0.569833
726.722000	0.047706
726.922000	-0.231790
727.122000	-0.273837
727.322000	-0.034686
727.521000	-0.274859
727.721000	-0.565452
727.921000	-0.300152
728.121000	-0.217182
728.321000	-0.732472
728.521000	-0.484569
728.721000	-0.368632
728.921000	-0.076702
729.121000	0.632997
729.320000	0.015048
729.520000	-0.394634
729.720000	-0.680024
729.920000	-0.649605
730.120000	-0.337407
730.320000	-0.422372
730.520000	-0.540386
730.720000	-0.364770
730.919000	-0.288722
731.119000	-0.035522
731.319000	-0.662467
731.519000	-0.704727
731.719000	-0.391624
731.919000	-0.629308
732.119000	-1.097593
732.319000	-1.032863
732.519000	-0.376872
732.718000	-0.778639
732.918000	-0.591317
733.118000	-0.352934
733.318000	-0.388313
733.518000	-0.500037
733.718000	-0.870689
733.918000	-0.914241
734.118000	-0.569695
734.317000	-0.338716
734.517000	-0.674768
734.717000	-0.539294
734.917000	-0.062567
735.117000	-0.184423
735.317000	-0.306134
735.517000	0.129066
735.717000	0.426826
735.916000	-0.482876
736.116000	-0.805842
736.316000	-0.573374
736.516000	-0.406160
736.716000	-0.529506
736.916000	-1.026239
737.116000	-0.676250
737.316000	-0.055014
737.516000	-0.321846
737.715000	-0.233087
737.915000	-0.838425
738.115000	-0.939303
738.315000	-0.600455
738.515000	-0.859413
738.715000	-0.684739
738.915000	0.025195
739.115000	-0.497518
739.314000	-0.650152
739.514000	-0.092180
739.714000	0.043488
739.914000	-0.219894
740.114000	-0.447894
740.314000	-0.211359
740.514000	0.381395
740.714000	-0.368038
740.913000	-0.992034
741.113000	-0.846660
741.313000	-0.470164
741.513000	-0.609618
741.713000	-0.574322
741.913000	-0.391494
742.113000	-0.492792
742.313000	-0.753761
742.513000	-0.717298
742.712000	-0.728943
742.912000	-0.822375
743.112000	-0.609978
743.312000	-0.789042
743.512000	-0.518449
743.712000	-0.491846
743.912000	-1.068330
744.112000	-1.286216
744.311000	-1.327569
744.511000	-0.884118
744.711000	-0.382298
744.911000	-0.754261
745.111000	-0.745662
745.311000	-0.231199
745.511000	-0.748129
745.711000	-0.882897
745.911000	-0.481333
746.110000	-1.028358
746.310000	-0.976530
746.510000	-0.801105
746.710000	-0.330811
746.910000	-0.205247
747.110000	-0.942552
747.310000	-1.089910
747.510000	-0.801531
747.709000	-0.577726
747.909000	-0.647696
748.109000	-0.394643
748.309000	-0.582353
748.509000	-0.602971
748.709000	-0.644762
748.909000	-0.733536
749.109000	-0.766526
749.308000	-0.111318
749.508000	-0.261362
749.708000	-0.381197
749.908000	-0.091827
750.108000	-0.252274
750.308000	-0.865949
750.508000	-0.233659
750.708000	-0.979278
750.908000	-1.304488
751.107000	-0.336242
751.307000	0.149714
751.507000	-0.530281
751.707000	-0.407858
751.907000	-0.490226
752.107000	-0.389834
752.307000	-0.749525
752.507000	-0.576962
752.706000	-0.750977
752.906000	0.357781
753.106000	-0.270298
753.306000	-0.985165
753.506000	-0.261490
753.706000	-0.729890
753.906000	-0.563621
754.106000	-0.210336
754.305000	-0.377428
754.505000	-0.357510
754.705000	-0.464569
754.905000	-0.423152
755.105000	-0.075901
755.305000	-0.836073
755.505000	-0.849067
755.705000	-0.426124
755.905000	-0.438037
756.104000	-1.034321
756.304000	-1.442550
756.504000	-1.541750
756.704000	-0.582503
756.904000	-0.399571
757.104000	-0.677884
757.304000	-0.549697
757.504000	-0.056170
757.703000	-0.639355
757.903000	-0.272813
758.103000	-0.002170
758.303000	-0.361170
758.503000	-0.427567
758.703000	-0.494162
758.903000	-0.614697
759.103000	-0.331231
759.303000	-0.641397
759.502000	-0.566035
759.702000	-0.212182
759.902000	-0.724213
760.102000	-0.837289
760.302000	-0.549646
760.502000	-0.035643
760.702000	-0.292243
760.902000	-0.795871
761.101000	-1.145672
761.301000	-1.248749
761.501000	-0.844749
761.701000	-1.082822
761.901000	-0.771652
762.101000	0.043087
762.301000	-0.433146
762.501000	-1.023610
762.700000	-0.994123
762.900000	-1.005882
763.100000	-0.824347
763.300000	-0.369147
763.500000	-0.507220
763.703000	-0.711394
763.905000	-0.828906
764.108000	-0.059912
764.311000	-0.290382
764.513000	-0.625305
764.716000	-0.512000
764.919000	-0.663476
765.121000	-1.116278
765.324000	-1.282574
765.527000	-1.020301
765.729000	-0.704360
765.932000	0.114851
766.135000	0.021089
766.337000	-0.541559
766.540000	-0.602141
766.743000	-0.191937
766.945000	-0.889205
767.148000	-1.471932
767.351000	-1.341379
767.553000	-0.359198
767.756000	-0.716780
767.958000	-1.133396
768.161000	-0.693497
768.364000	-0.947204
768.566000	-1.416724
768.769000	-1.084728
768.972000	-0.531467
769.174000	-0.786362
769.377000	-1.465949
769.580000	-1.323621
769.782000	-0.377848
769.985000	-0.913621
770.188000	-1.926575
770.390000	-1.018230
770.593000	0.498702
770.796000	0.205501
770.998000	-0.492021
771.201000	-1.031636
771.404000	-0.542312
771.606000	-0.593737
771.809000	-0.285689
772.012000	-0.532998
772.214000	-1.508879
772.417000	-1.583135
772.620000	-0.334853
772.822000	-0.560759
773.025000	-1.106832
773.228000	-1.059172
773.430000	-0.824344
773.633000	-0.638768
773.836000	-0.652133
774.038000	-0.479035
774.241000	-0.516516
774.444000	-0.794760
774.646000	-0.002513
774.849000	-0.418105
775.052000	-0.468399
775.254000	-0.305316
775.457000	-0.872258
775.659000	-0.747997
775.862000	-1.013575
776.065000	-0.787384
776.267000	-0.065939
776.470000	0.226724
776.673000	-0.474156
776.875000	-0.271010
777.078000	-0.321633
777.281000	-0.963438
777.483000	-0.259620
777.686000	-0.247229
777.889000	-0.363509
778.091000	-0.248347
778.294000	-1.371716
778.497000	-1.166552
778.699000	-0.714469
778.902000	-0.859772
779.105000	-0.755924
779.307000	0.335579
779.510000	-0.602263
779.713000	-0.369045
779.915000	-0.567213
780.118000	0.194514
780.321000	0.313183
780.523000	-0.714872
780.726000	-1.045045
780.929000	-0.925956
781.131000	-0.768861
781.334000	-1.368403
781.537000	-1.558387
781.739000	-0.827818
781.942000	-1.214759
782.145000	-1.408481
782.347000	-1.476356
782.550000	-1.182379
782.753000	-1.132466
782.955000	-1.000682
783.158000	-1.202266
783.361000	-0.772863
783.563000	-0.489200
783.766000	-0.544664
783.968000	1.245695
784.171000	0.747029
784.374000	-0.520786
784.576000	-0.166275
784.779000	-0.084367
784.982000	0.216240
785.184000	-0.677007
785.387000	-0.140569
785.590000	0.355368
785.792000	-0.071896
785.995000	-0.113548
786.198000	-0.307912
786.400000	-0.671351
786.603000	-0.351888
786.806000	-0.406484
787.008000	-0.197654
787.211000	-0.142489
787.414000	-0.955982
787.616000	-1.015877
787.819000	-0.863133
788.022000	-1.245606
788.224000	-0.668241
788.427000	-1.376902
788.630000	-0.926842
788.832000	-0.755438
789.035000	-1.165378
789.238000	-1.711808
789.440000	-1.234764
789.643000	-0.117217
789.846000	-1.006349
790.048000	-0.678273
790.251000	-0.189732
790.454000	-0.720113
790.656000	-0.017277
790.859000	-0.637856
791.062000	-1.130503
791.264000	-0.277337
791.467000	-1.148855
791.669000	-1.746138
791.872000	-0.835092
792.075000	-1.432017
792.277000	-1.169718
792.480000	-0.824133
792.683000	-1.260609
792.885000	-1.510682
793.088000	-1.428069
793.291000	-1.461099
793.493000	-1.330961
793.696000	-0.416273
793.899000	-0.269399
794.101000	-0.640936
794.304000	-1.043875
794.507000	-0.658230
794.709000	-0.495789
794.912000	-1.292439
795.115000	-1.339992
795.317000	-0.708859
795.520000	-0.606372
795.723000	-0.941999
795.925000	-1.504548
796.128000	-1.744975
796.331000	-0.930065
796.533000	-1.343577
796.736000	-0.814483
796.939000	-0.647621
797.141000	-0.803199
797.344000	-0.249507
797.547000	0.027735
797.749000	-0.111099
797.952000	-0.918120
798.155000	-1.287512
798.357000	-1.170721
798.560000	-1.114706
798.763000	-0.519243
798.965000	-0.784377
799.168000	-1.131420
799.371000	-0.740517
799.573000	-1.183743
799.776000	-2.021053
799.978000	-1.616761
800.181000	-0.462816
800.384000	1.076282
800.586000	0.299139
800.789000	-1.593662
800.992000	-1.846887
801.194000	-1.850966
801.397000	-1.759929
801.600000	-1.557626
801.802000	-0.340236
802.005000	-0.534518
802.208000	-1.763137
802.410000	-0.696907
802.613000	-0.586560
802.816000	-0.846799
803.018000	-1.337016
803.221000	-1.290624
803.424000	0.094712
803.626000	-0.330371
803.829000	-0.856452
804.032000	-0.118444
804.234000	0.588746
804.437000	-0.696989
804.640000	-0.844926
804.842000	-1.045342
805.045000	-1.399614
805.248000	-1.119122
805.450000	-1.184579
805.653000	-0.807004
805.856000	-1.056991
806.058000	-0.204666
806.261000	-1.180445
806.464000	-1.248955
806.666000	-0.559717
806.869000	-0.817808
807.072000	-1.886524
807.274000	-2.125431
807.477000	-1.126898
807.679000	-1.127836
807.882000	-1.796390
808.085000	-1.309960
808.287000	-0.519684
808.490000	-1.262048
808.693000	-1.073152
808.895000	-0.746178
809.098000	-1.057598
809.301000	-1.113152
809.503000	-1.257292
809.706000	-0.406210
809.909000	-0.073526
810.111000	0.049086
810.314000	-0.267075
810.517000	-1.211942
810.719000	-1.430119
810.922000	-1.135498
811.125000	-0.480049
811.327000	-0.358545
811.530000	-0.787650
811.735000	-1.160120
811.940000	-1.376713
812.146000	-1.042251
812.351000	-0.308043
812.556000	-0.650405
812.761000	-1.373430
812.967000	-0.275147
813.172000	-0.347188
813.377000	-0.946842
813.582000	-0.568330
813.788000	-0.865717
813.993000	-1.686840
814.198000	-0.699571
814.403000	-1.504523
814.609000	-0.593072
814.814000	-0.706754
815.019000	0.199450
815.224000	-0.114440
815.429000	-1.527336
815.635000	-0.972960
815.840000	-0.600830
816.045000	-0.697289
816.250000	-0.416796
816.456000	-1.564715
816.661000	-2.044216
816.866000	-1.726824
817.071000	-1.687891
817.277000	-2.593871
817.482000	-1.873409
817.687000	-1.300257
817.892000	-1.154232
818.097000	-0.407734
818.303000	0.400036
818.508000	0.533620
818.713000	7.045686
818.918000	3.947490
819.124000	0.054108
819.329000	-1.013019
819.534000	-1.054966
819.739000	-1.249713
819.945000	-1.294724
820.150000	-0.751352
820.355000	-0.476913
820.560000	-0.043239
820.766000	-0.043350
820.971000	-0.677779
821.176000	-2.348191
821.381000	-3.133774
821.586000	-2.136246
821.792000	-0.283963
821.997000	-0.664532
822.202000	-0.965721
822.407000	-1.631834
822.613000	-1.695676
822.818000	-1.195322
823.023000	-0.812678
823.228000	-0.838273
823.434000	-0.349681
823.639000	0.362656
823.844000	-0.800762
824.049000	0.139010
824.255000	0.385567
824.460000	-0.910723
824.665000	-1.365922
824.870000	-0.128360
825.075000	-0.439462
825.281000	-0.627913
825.486000	0.309544
825.691000	-2.056970
825.896000	-2.753592
826.102000	-0.550221
826.307000	-0.762080
826.512000	-1.103020
826.717000	-1.530338
826.923000	-1.343401
827.128000	-0.984196
827.333000	-2.148352
827.538000	-1.123393
827.744000	-0.112181
827.949000	-1.274715
828.154000	-0.977205
828.359000	-0.242018
828.564000	-0.721010
828.770000	-1.072903
828.975000	-0.201079
829.180000	-0.861114
829.385000	-2.551618
829.591000	-1.834660
829.796000	-0.846565
830.001000	-0.981404
830.206000	-1.140419
830.412000	-1.072502
830.617000	-1.365056
830.822000	-0.520054
831.027000	-0.899122
831.232000	-1.377116
831.438000	-1.545469
831.643000	-1.024182
831.848000	-1.435553
832.053000	-1.099016
832.259000	-0.689447
832.464000	-2.820477
832.669000	-2.623884
832.874000	-2.183781
833.080000	-2.492959
833.285000	-0.858491
833.490000	-0.789818
833.695000	-2.306020
833.901000	-1.335937
834.106000	-1.431540
834.311000	-1.203923
834.516000	-0.970268
834.721000	-1.733599
834.927000	-0.551718
835.132000	-0.886384
835.337000	0.687255
835.542000	-0.772959
835.748000	-2.208962
835.953000	-0.125014
836.158000	-0.173521
836.363000	-0.512975
836.569000	-0.321875
836.774000	-1.299535
836.979000	-1.716885
837.184000	-2.186865
837.390000	-2.264540
837.595000	-1.408662
837.800000	-1.140378
838.005000	-0.675504
838.210000	-1.371470
838.416000	-1.800793
838.621000	-1.530541
838.826000	-1.779540
839.031000	-1.261118
839.237000	-1.726116
839.442000	-2.818930
839.647000	-2.435037
839.852000	-2.394695
840.058000	-1.867570
840.263000	-1.492165
840.468000	-1.673317
840.673000	-1.006144
840.878000	-1.469535
841.084000	-2.331154
841.289000	-1.715196
841.494000	1.221009
841.699000	1.225049
841.905000	0.624634
842.110000	0.812718
842.315000	-1.433217
842.520000	-1.405361
842.726000	-2.203111
842.931000	-2.280699
843.136000	-1.311160
843.341000	-2.636508
843.547000	-1.827309
843.752000	-1.105151
843.957000	-1.763252
844.162000	-2.342234
844.367000	-1.639326
844.573000	-0.689184
844.778000	-0.469152
844.983000	-0.825766
845.188000	-0.445232
845.394000	-1.808107
845.599000	-2.163295
845.804000	-1.865337
846.009000	-0.788186
846.215000	-1.858855
846.420000	-1.976491
846.625000	-0.768314
846.830000	0.191388
847.036000	-1.363175
847.241000	-1.567767
847.446000	0.193107
847.651000	-0.633092
847.856000	-2.279056
848.062000	-2.747597
848.267000	-0.987348
848.472000	-1.946783
848.677000	-2.939950
848.883000	-1.426297
849.088000	0.345544
849.293000	-0.799648
849.498000	-1.297771
849.704000	-0.594761
849.909000	-1.924699
850.114000	-1.836197
850.319000	-0.686416
850.524000	-1.225683
850.730000	-0.783861
850.935000	-1.267626
851.140000	-0.819202
851.345000	-0.427611
851.551000	-0.338286
851.756000	-0.218639
851.961000	-1.772037
852.166000	-1.559715
852.372000	-1.288879
852.577000	-0.990644
852.782000	-1.463137
852.987000	0.179281
853.193000	-0.471532
853.398000	-1.154357
853.603000	-2.183250
853.808000	-2.775614
854.013000	-1.759885
854.219000	-0.163132
854.424000	1.001487
854.629000	0.624944
854.834000	-1.150202
855.040000	-1.221524
855.245000	-1.217442
855.450000	-3.787237
855.655000	-4.475711
855.861000	-3.668851
856.066000	-2.467923
856.271000	-3.218006
856.476000	-1.601524
856.682000	-1.999808
856.887000	-4.609876
857.092000	-2.329395
857.297000	0.321909
857.502000	-0.368620
857.708000	-1.358639
857.913000	-0.601217
858.118000	-0.940143
858.323000	-1.377578
858.529000	-1.074986
858.734000	-1.613518
858.939000	-1.618275
859.144000	-2.263819
859.350000	-3.039066
859.555000	-3.318952
859.760000	-1.026262
859.965000	0.332929
860.171000	-0.757446
860.376000	-0.417992
860.581000	-2.377249
860.786000	-4.319098
860.991000	-4.130045
861.197000	-3.400361
861.402000	-1.083457
861.607000	-1.362136
861.812000	-3.077995
862.018000	-2.984707
862.223000	-1.621516
862.428000	-0.501326
862.633000	-0.113026
862.839000	-1.499879
863.044000	-2.300883
863.249000	-2.151672
863.454000	-0.042933
863.659000	-1.370851
863.865000	-2.567797
864.070000	-3.297717
864.275000	-3.303234
864.480000	-2.335942
864.686000	-4.207082
864.891000	-3.735434
865.096000	-0.925294
865.301000	-0.632731
865.507000	-1.413518
865.712000	-1.191420
865.917000	-1.981088
866.122000	-1.165000
866.328000	-3.124284
866.533000	-3.309730
866.738000	-0.120234
866.943000	-0.722925
867.148000	0.030291
867.354000	-2.793399
867.559000	-3.519479
867.764000	-1.963970
867.969000	-1.202864
868.175000	-2.389923
868.380000	-2.976676
868.585000	-3.984366
868.790000	-1.324958
868.996000	-1.450707
869.201000	-3.370392
869.406000	-4.013222
869.611000	-3.153776
869.817000	-2.718189
870.022000	1.648128
870.227000	-0.561265
870.432000	-3.185569
870.637000	-2.314366
870.843000	-2.447803
871.048000	-2.288921
871.253000	-0.528518
871.458000	-1.255565
871.664000	-2.964476
871.869000	-3.348630
872.074000	-3.072695
872.279000	-1.764315
872.485000	-1.898996
872.690000	-2.732870
872.895000	-2.744165
873.100000	-3.867954
873.306000	-4.051111
873.511000	-2.358629
873.716000	-0.723440
873.921000	-2.609333
874.126000	-3.411818
874.332000	-2.384648
874.537000	-1.117204
874.742000	-1.326117
874.947000	-1.374426
875.153000	0.982326
875.358000	-0.958717
875.563000	-2.209046
875.768000	-4.644600
875.974000	-5.403264
876.179000	-1.708703
876.384000	-1.016188
876.589000	-2.616527
876.794000	-2.398263
877.000000	-3.507363
877.205000	-4.741323
877.410000	-1.831197
877.615000	-3.469841
877.821000	-4.754031
878.026000	-3.412762
878.231000	-4.800067
878.436000	-5.211793
878.642000	-3.080048
878.847000	-1.321666
879.052000	-0.370624
879.257000	-2.744575
879.463000	-3.935365
879.668000	-3.251544
879.873000	-1.797301
880.078000	-4.145757
880.283000	-5.269279
880.489000	-5.822842
880.694000	-3.577469
880.899000	-1.643483
881.104000	-0.946964
881.310000	0.084381
881.515000	-1.133150
881.720000	-0.056324
881.925000	1.312207
882.131000	3.294885
882.336000	0.751572
882.541000	-3.988768
882.746000	-3.478481
882.952000	-4.244395
883.157000	-4.303093
883.362000	-4.116443
883.567000	-4.812917
883.772000	-5.396250
883.978000	-4.029558
884.183000	-1.041615
884.388000	-1.382306
884.593000	-4.619354
884.799000	0.137920
885.004000	-0.009991
885.209000	-1.409275
885.414000	-1.304839
885.620000	-4.574889
885.825000	-1.576340
886.030000	-1.069009
886.235000	-2.293206
886.440000	-1.954202
886.646000	-3.911123
886.851000	-4.085549
887.056000	-1.873368
887.261000	-1.356949
887.467000	-3.910606
887.672000	-1.109970
887.877000	-3.115349
888.082000	-5.245233
888.288000	-4.857317
888.493000	-7.477065
888.698000	-5.498460
888.903000	-3.536171
889.109000	-4.435047
889.314000	-1.290735
889.519000	-3.411163
889.724000	-0.542740
889.929000	-2.248076
890.135000	-3.803164
890.340000	-2.916711
890.545000	-4.582852
890.750000	-6.156306
890.956000	-4.175561
891.161000	-1.739103
891.366000	-3.368882
891.571000	-2.562451
891.777000	-2.727861
891.982000	-0.010921
892.187000	-1.381951
892.392000	-1.050410
892.598000	-0.726280
892.803000	-0.954731
893.008000	-4.059130
893.213000	-4.933306
893.418000	-4.076943
893.624000	-4.433250
893.829000	-6.563153
894.034000	-2.704935
894.239000	-0.857205
894.445000	-3.780969
894.650000	-5.157180
894.855000	-4.597426
895.060000	-4.533229
895.266000	-5.244818
895.471000	-5.817102
895.676000	-2.695947
895.881000	-1.566970
896.087000	-3.583984
896.292000	-4.361235
896.497000	0.338024
896.702000	-1.230582
896.907000	-4.546228
897.113000	0.221733
897.318000	0.046657
897.523000	-0.654919
897.728000	-1.479240
897.934000	-2.527668
898.139000	-3.180031
898.344000	-1.433208
898.549000	-2.632589
898.755000	-4.306381
898.960000	-5.233176
899.165000	-6.256216
899.370000	-2.725290
899.575000	1.620004
899.781000	-2.618764
899.986000	-3.528240
900.191000	-1.842500
900.396000	-3.371658
900.602000	-3.944925
900.807000	-5.457967
901.012000	-2.503847
901.217000	-0.137367
901.423000	-3.372612
901.628000	-4.632576
901.833000	-0.326272
902.038000	-1.846384
902.244000	-5.246489
902.449000	-5.087092
902.654000	-3.730539
902.859000	-1.995195
903.064000	-0.205616
903.270000	-0.206356
903.475000	-5.175756
903.680000	-6.911158
903.885000	-5.536609
904.091000	-5.499781
904.296000	-6.767620
904.501000	-5.938581
904.706000	-4.900894
904.912000	0.654276
905.117000	-0.616792
905.322000	-4.677009
905.527000	-5.529873
905.733000	-3.379343
905.938000	-4.552053
906.143000	-5.703601
906.348000	-6.874511
906.553000	-1.534021
906.759000	0.124302
906.964000	-1.818270
907.169000	-3.503485
907.374000	-6.350677
907.580000	-4.844377
907.785000	-4.215739
907.990000	25.727521
908.195000	17.564485
908.401000	-1.166063
908.606000	-9.133695
908.811000	-10.642977
909.016000	-2.974933
909.221000	-1.390766
909.427000	-2.491407
909.632000	-6.481621
909.837000	-5.194793
910.042000	-5.729340
910.248000	-8.442764
910.453000	-4.361615
910.658000	-5.301022
910.863000	-5.370930
911.069000	-6.071886
911.274000	-1.998150
911.479000	-1.626774
911.684000	-7.452000
911.890000	-4.339916
912.095000	-5.350400
912.300000	-8.347586
912.506000	-7.572878
912.711000	-6.168503
912.917000	-3.884416
913.123000	-3.176687
913.328000	-4.229950
913.534000	-3.787313
913.740000	5.316806
913.946000	0.958240
914.151000	-6.025984
914.357000	-6.537029
914.563000	-0.341368
914.768000	-3.948369
914.974000	-8.377673
915.180000	-7.539689
915.385000	-6.562817
915.591000	-8.737808
915.797000	-4.773966
916.002000	-0.615659
916.208000	-1.464123
916.414000	-4.922534
916.620000	-7.865300
916.825000	-3.218264
917.031000	-4.346234
917.237000	-10.621552
917.442000	-6.606919
917.648000	-6.924414
917.854000	-8.778112
918.059000	-1.977966
918.265000	-1.708531
918.471000	-5.115774
918.676000	-9.328445
918.882000	-8.480125
919.088000	-7.492945
919.294000	-14.072563
919.499000	-10.007689
919.705000	-3.180466
919.911000	-3.552296
920.116000	-1.239781
920.322000	-7.093012
920.528000	-6.656829
920.733000	-7.326654
920.939000	-10.253273
921.145000	-8.399819
921.350000	-7.922147
921.556000	-6.708550
921.762000	-5.612401
921.968000	-6.907602
922.173000	-8.043527
922.379000	-10.814667
922.585000	-6.160001
922.790000	-4.557606
922.996000	-8.352944
923.202000	-9.276658
923.407000	-7.678899
923.613000	-5.720286
923.819000	-3.870195
924.024000	-3.949706
924.230000	-4.286770
924.436000	-6.826835
924.642000	5.173210
924.847000	-0.342747
925.053000	-6.548171
925.259000	-12.021330
925.464000	-6.276364
925.670000	-5.732510
925.876000	-9.393218
926.081000	-10.977346
926.287000	-7.268151
926.493000	-4.826622
926.698000	-5.953810
926.904000	-4.916251
927.110000	-7.295516
927.316000	-5.865527
927.521000	1.679972
927.727000	-3.479598
927.933000	-5.693338
928.138000	-6.996724
928.344000	-13.309357
928.550000	-7.677146
928.755000	-3.001315
928.961000	-9.176264
929.167000	-7.438382
929.372000	0.456238
929.578000	-1.357082
929.784000	-8.202093
929.990000	-12.163560
930.195000	-9.491047
930.401000	-7.579991
930.607000	-6.108407
930.812000	-5.792005
931.018000	-7.200791
931.224000	-14.058703
931.429000	-10.277578
931.635000	-13.068531
931.841000	-14.358498
932.046000	-9.480820
932.252000	-4.193277
932.458000	4.704229
932.664000	-0.558105
932.869000	-6.411616
933.075000	-10.607017
933.281000	-9.671314
933.486000	-3.330537
933.692000	-3.898533
933.898000	-8.810985
934.103000	-3.792176
934.309000	-7.857576
934.515000	-4.803627
934.720000	-2.061623
934.926000	-0.614890
935.132000	-0.761905
935.338000	-2.695560
935.543000	-9.945391
935.749000	-12.616581
935.955000	-15.873758
936.160000	-11.742744
936.366000	-4.839043
936.572000	-6.990410
936.777000	-5.680966
936.983000	-5.208996
937.189000	-8.999730
937.394000	-13.748141
937.600000	-4.017424
937.806000	0.969867
938.012000	-8.187196
938.217000	5.783991
938.423000	1.861322
938.629000	-9.170063
938.834000	-15.311867
939.040000	-14.401761
939.246000	-8.880281
939.451000	-12.395666
939.657000	-7.995740
939.863000	-10.677185
940.068000	-3.741780
940.274000	-11.787004
940.480000	-6.841234
940.686000	-3.117470
940.891000	-8.815788
941.097000	19.361066
941.303000	8.333331
941.508000	-9.635475
941.714000	-9.687881
941.920000	-17.395402
942.125000	-7.458709
942.331000	-6.284817
942.537000	-1.046677
942.742000	-0.040666
942.948000	-11.632102
943.154000	-15.680130
943.360000	-25.525932
943.565000	-10.412070
943.771000	3.098898
943.977000	4.117493
944.182000	-15.611372
944.388000	-21.517117
944.594000	-5.958304
944.799000	6.360235
945.005000	-3.189828
945.211000	-1.936414
945.416000	-7.309468
945.622000	-20.184198
945.828000	-17.586413
946.034000	-8.848926
946.239000	-4.471298
946.445000	-11.594195
946.651000	-25.422075
946.856000	-19.397902
947.062000	-3.098983
947.268000	-2.681174
947.473000	-18.800342
947.679000	-23.354905
947.885000	-6.948054
948.090000	-2.957616
948.296000	11.574871
948.502000	-2.515192
948.708000	-11.598411
948.913000	-12.423839
949.119000	-2.566346
949.325000	-10.363611
949.530000	-25.513027
949.736000	-26.339761
949.942000	-17.809933
950.147000	-18.857180
950.353000	-14.147919
950.559000	-8.694570
950.764000	11.210847
950.970000	1.804115
951.176000	-15.255546
951.382000	-21.532328
951.587000	-7.745821
951.793000	-2.954152
951.999000	1.145764
952.204000	-11.858894
952.410000	-25.847532
952.616000	-13.557938
952.821000	-6.250408
953.027000	-18.688221
953.233000	-23.159775
953.438000	-21.856467
953.644000	-2.253305
953.850000	-5.440953
954.056000	-13.424326
954.261000	-11.264769
954.467000	1.199062
954.673000	4.437217
954.878000	-11.556397
955.084000	-7.563515
955.290000	-17.652302
955.495000	-20.478012
955.701000	-15.141452
955.907000	1.997785
956.112000	-2.868908
956.318000	4.772845
956.524000	3.287033
956.730000	-12.572424
956.935000	-17.581385
957.141000	-17.981630
957.347000	-9.545075
957.552000	-12.695901
957.758000	-27.465177
957.964000	-37.862058
958.169000	2.086890
958.375000	2.093354
958.581000	-13.268730
958.786000	-23.428023
958.992000	-32.801246
959.198000	-13.013546
959.404000	-9.395833
959.609000	-16.915402
959.815000	-23.073494
960.021000	1.622607
960.226000	1.919208
960.432000	-29.491564
960.638000	-19.133277
960.843000	-6.637142
961.049000	-8.235281
961.255000	-1.505097
961.460000	-23.088824
961.666000	-40.901157
961.872000	-22.033192
962.078000	-22.869808
962.283000	-38.001002
962.489000	-37.938581
962.695000	-27.242708
962.900000	-21.634605
963.106000	-16.416660
963.312000	-17.550448
963.517000	-25.704393
963.723000	-31.323380
963.929000	-5.662547
964.134000	3.043096
964.340000	-22.670330
964.546000	-20.647613
964.752000	-24.904454
964.957000	-33.149528
965.163000	-5.568848
965.369000	-4.329865
965.574000	-3.711780
965.780000	-13.333759
966.000000	-19.983738
966.220000	-11.086856
966.440000	-13.831190
966.661000	-2.093980
966.881000	-24.459687
967.101000	-47.140097
967.321000	-44.182925
967.541000	-22.378646
967.761000	-21.596104
967.981000	-12.213227
968.202000	-10.015318
968.422000	-8.272640
968.642000	-13.579426
968.862000	-10.959938
969.082000	-20.179778
969.302000	-11.399828
969.522000	-16.769809
969.743000	-1.517406
969.963000	-20.382783
970.183000	-29.830246
970.403000	-30.789987
970.623000	-28.258463
970.843000	0.305179
971.063000	4.183501
971.284000	-22.681385
971.504000	-32.855042
971.724000	-16.706305
971.944000	-34.283864
972.164000	-48.112950
972.384000	-31.552484
972.604000	-50.188064
972.825000	-55.749455
973.045000	-39.580007
973.265000	22.528940
973.485000	12.896659
973.705000	-18.611310
973.925000	-18.037978
974.145000	-52.300335
974.365000	-19.787682
974.586000	-17.261571
974.806000	-40.415563
975.026000	-19.098988
975.246000	-30.240768
975.466000	-31.821354
975.686000	-11.528469
975.906000	-26.515309
976.127000	-58.483902
976.347000	-51.521765
976.567000	-26.293117
976.787000	-29.140802
977.007000	-24.782514
977.227000	-29.080792
977.447000	-34.811299
977.668000	-52.061904
977.888000	-38.517735
978.108000	-44.172559
978.328000	-30.879437
978.548000	-6.943550
978.768000	3.387061
978.988000	-4.787307
979.209000	-22.895453
979.429000	-16.775473
979.649000	-4.685526
979.869000	-36.076887
980.089000	-57.085552
980.309000	-60.109237
980.529000	-74.202585
980.750000	-40.371089
980.970000	-46.087912
981.190000	-43.969052
981.410000	-44.856541
981.630000	-51.953458
981.850000	-42.542894
982.070000	-28.254051
982.291000	-53.124270
982.511000	-46.256428
982.731000	-14.427363
982.951000	-40.872660
983.171000	-41.307960
983.391000	-31.756093
983.611000	1.693594
983.832000	-34.732129
984.052000	-79.066945
984.272000	-32.570746
984.492000	-25.846740
984.712000	-46.805931
984.932000	-69.101861
985.152000	-79.845337
985.373000	-69.239192
985.593000	-24.306690
985.813000	-19.112801
986.033000	-41.480449
986.253000	-4.271899
986.473000	-3.406961
986.693000	-44.659463
986.914000	-47.447268
987.134000	2.682866
987.354000	-38.929796
987.574000	177.102051
987.794000	106.239888
988.014000	-51.224296
988.234000	-39.417581
988.455000	-26.084143
988.675000	-22.382164
988.895000	-36.648107
989.115000	-45.129250
989.335000	-14.211470
989.555000	-8.729783
989.775000	-57.477834
989.995000	-54.662315
990.216000	-38.604648
990.436000	-29.699746
990.656000	4.053122
990.876000	-33.158879
991.096000	-34.718275
991.316000	7.346523
991.536000	-19.501052
991.757000	-44.436956
991.977000	-86.539582
992.197000	-33.181228
992.417000	-45.657249
992.637000	-92.165825
992.857000	-97.183150
993.077000	-89.284033
993.298000	-50.507828
993.518000	-38.352982
993.738000	-95.996235
993.958000	-44.620598
994.178000	-48.788832
994.398000	-51.226637
994.618000	-99.631505
994.839000	-160.273646
995.059000	-57.669634
995.279000	16.736444
995.499000	-33.278264
995.719000	-18.703364
995.939000	-15.653736
996.159000	-14.517777
996.380000	-41.784697
996.600000	-109.178370
996.820000	-60.828950
997.040000	-11.433501
997.260000	-56.691774
997.480000	-60.909338
997.700000	-127.070351
997.921000	-79.620965
998.141000	19.003336
998.361000	-8.225078
998.581000	-59.171434
998.801000	-105.658425
999.021000	-82.779070
999.241000	-58.186984
999.462000	-55.787391
999.682000	-99.987568
999.902000	-67.472042
1000.122000	-73.897992
1000.342000	-123.569642
1000.562000	-58.935052
1000.782000	-66.244167
1001.003000	-1007.646670
