Wavelength	Irradiance
(nm)	(mW/cm2/nm)

294.396000	0.000000
294.577000	0.000000
294.757000	0.000000
294.938000	-0.000000
295.118000	-0.000000
295.299000	0.000000
295.479000	-0.000000
295.660000	-0.000000
295.840000	-0.000000
296.021000	-0.000000
296.202000	-0.000000
296.382000	-0.000000
296.563000	-0.000000
296.743000	-0.000000
296.924000	0.000000
297.104000	-0.000000
297.285000	-0.000000
297.465000	-0.000000
297.646000	-0.000000
297.826000	-0.000000
298.007000	0.000000
298.187000	0.000000
298.368000	-0.000000
298.548000	0.000000
298.729000	0.000000
298.909000	-0.000000
299.090000	-0.000000
299.270000	-0.000000
299.451000	-0.000000
299.631000	-0.000000
299.812000	-0.000000
299.992000	0.000000
300.173000	0.000000
300.353000	-0.000000
300.534000	0.000000
300.714000	0.000000
300.895000	0.000000
301.075000	-0.000000
301.256000	0.000000
301.436000	-0.000000
301.617000	-0.000000
301.797000	-0.000000
301.978000	-0.000000
302.159000	0.000000
302.339000	0.000000
302.520000	-0.000000
302.700000	-0.000000
302.881000	0.000000
303.061000	0.000000
303.242000	0.000000
303.422000	0.000000
303.603000	-0.000000
303.783000	-0.000000
303.964000	-0.000000
304.144000	-0.000000
304.325000	-0.000000
304.505000	-0.000000
304.686000	-0.000000
304.866000	0.000000
305.047000	-0.000000
305.227000	-0.000000
305.408000	-0.000000
305.588000	-0.000000
305.769000	-0.000000
305.949000	-0.000000
306.130000	-0.000000
306.310000	-0.000000
306.491000	-0.000000
306.671000	0.000000
306.852000	-0.000000
307.032000	-0.000000
307.213000	-0.000000
307.393000	-0.000000
307.574000	0.000000
307.755000	0.000000
307.935000	0.000000
308.116000	-0.000000
308.296000	-0.000000
308.477000	0.000000
308.657000	0.000000
308.838000	0.000000
309.018000	0.000000
309.199000	-0.000000
309.379000	-0.000000
309.560000	0.000000
309.740000	-0.000000
309.921000	0.000000
310.101000	0.000000
310.282000	-0.000000
310.462000	-0.000000
310.643000	-0.000000
310.823000	-0.000000
311.004000	-0.000000
311.184000	-0.000000
311.365000	0.000000
311.545000	0.000000
311.726000	0.000000
311.906000	-0.000000
312.087000	0.000000
312.267000	-0.000000
312.448000	-0.000000
312.628000	-0.000000
312.809000	-0.000000
312.989000	-0.000000
313.170000	-0.000000
313.344000	-0.000000
313.518000	-0.000000
313.691000	-0.000000
313.865000	-0.000000
314.039000	-0.000000
314.213000	-0.000000
314.387000	-0.000000
314.560000	-0.000000
314.734000	-0.000000
314.908000	-0.000000
315.082000	-0.000000
315.255000	0.000000
315.429000	0.000000
315.603000	0.000000
315.777000	-0.000000
315.951000	0.000000
316.124000	-0.000000
316.298000	-0.000000
316.472000	-0.000000
316.646000	-0.000000
316.820000	-0.000000
316.993000	-0.000000
317.167000	-0.000000
317.341000	-0.000000
317.515000	-0.000000
317.688000	-0.000000
317.862000	-0.000000
318.036000	-0.000000
318.210000	-0.000000
318.384000	-0.000000
318.557000	-0.000000
318.731000	-0.000000
318.905000	-0.000000
319.079000	0.000000
319.253000	-0.000000
319.426000	0.000000
319.600000	0.000000
319.774000	-0.000000
319.948000	-0.000000
320.122000	0.000000
320.295000	0.000000
320.469000	-0.000000
320.643000	-0.000000
320.817000	-0.000000
320.990000	-0.000000
321.164000	-0.000000
321.338000	-0.000000
321.512000	-0.000000
321.686000	-0.000000
321.859000	-0.000000
322.033000	0.000000
322.207000	-0.000000
322.381000	-0.000000
322.555000	0.000000
322.728000	-0.000000
322.902000	-0.000000
323.076000	-0.000000
323.250000	-0.000000
323.423000	-0.000000
323.597000	-0.000000
323.771000	-0.000000
323.945000	-0.000000
324.119000	-0.000000
324.292000	0.000000
324.466000	-0.000000
324.640000	0.000000
324.814000	0.000000
324.988000	-0.000000
325.161000	-0.000000
325.335000	-0.000000
325.509000	-0.000000
325.683000	-0.000000
325.856000	-0.000000
326.030000	-0.000000
326.204000	-0.000000
326.378000	-0.000000
326.552000	-0.000000
326.725000	-0.000000
326.899000	-0.000000
327.073000	-0.000000
327.247000	-0.000000
327.421000	0.000000
327.594000	-0.000000
327.768000	-0.000000
327.942000	-0.000000
328.116000	0.000000
328.289000	0.000000
328.463000	-0.000000
328.637000	0.000000
328.811000	-0.000000
328.985000	-0.000000
329.158000	-0.000000
329.332000	-0.000000
329.506000	0.000000
329.680000	-0.000000
329.854000	-0.000000
330.027000	0.000000
330.201000	0.000000
330.375000	0.000000
330.549000	0.000000
330.723000	-0.000000
330.896000	-0.000000
331.070000	-0.000000
331.244000	-0.000000
331.418000	-0.000000
331.591000	-0.000000
331.765000	-0.000000
331.939000	-0.000000
332.113000	-0.000000
332.287000	-0.000000
332.460000	0.000000
332.634000	0.000000
332.808000	-0.000000
332.982000	-0.000000
333.156000	-0.000000
333.329000	-0.000000
333.503000	-0.000000
333.677000	-0.000000
333.851000	-0.000000
334.024000	0.000000
334.198000	-0.000000
334.372000	-0.000000
334.546000	-0.000000
334.720000	-0.000000
334.893000	-0.000000
335.067000	-0.000000
335.241000	-0.000000
335.415000	-0.000000
335.589000	-0.000000
335.762000	-0.000000
335.936000	-0.000000
336.110000	-0.000000
336.284000	-0.000000
336.458000	-0.000000
336.631000	-0.000000
336.805000	-0.000000
336.979000	-0.000000
337.153000	-0.000000
337.326000	-0.000000
337.500000	-0.000000
337.674000	-0.000000
337.848000	-0.000000
338.022000	-0.000000
338.195000	-0.000000
338.369000	-0.000000
338.543000	-0.000000
338.717000	-0.000000
338.891000	0.000000
339.064000	0.000000
339.238000	-0.000000
339.412000	-0.000000
339.586000	-0.000000
339.759000	-0.000000
339.933000	-0.000000
340.107000	0.000000
340.281000	-0.000000
340.455000	-0.000000
340.628000	-0.000000
340.802000	-0.000000
340.976000	-0.000000
341.150000	-0.000000
341.324000	-0.000000
341.497000	-0.000000
341.671000	-0.000000
341.845000	-0.000000
342.019000	-0.000000
342.192000	-0.000000
342.366000	-0.000000
342.540000	-0.000000
342.714000	-0.000000
342.888000	-0.000000
343.061000	-0.000000
343.235000	-0.000000
343.409000	-0.000000
343.583000	-0.000000
343.757000	-0.000000
343.930000	-0.000000
344.104000	-0.000000
344.278000	0.000000
344.452000	0.000000
344.626000	-0.000000
344.799000	-0.000000
344.973000	-0.000000
345.147000	-0.000000
345.321000	-0.000000
345.494000	-0.000000
345.668000	0.000000
345.842000	0.000000
346.016000	-0.000000
346.190000	0.000000
346.363000	0.000000
346.537000	-0.000000
346.711000	-0.000000
346.885000	-0.000000
347.059000	-0.000000
347.232000	0.000000
347.406000	0.000000
347.580000	-0.000000
347.754000	-0.000000
347.927000	-0.000000
348.101000	0.000000
348.275000	-0.000000
348.449000	-0.000000
348.623000	-0.000000
348.796000	0.000000
348.970000	0.000000
349.144000	-0.000000
349.318000	-0.000000
349.492000	-0.000000
349.665000	-0.000000
349.839000	-0.000000
350.013000	-0.000000
350.187000	-0.000000
350.361000	-0.000000
350.534000	-0.000000
350.708000	-0.000000
350.882000	-0.000000
351.056000	0.000000
351.229000	-0.000000
351.403000	-0.000000
351.577000	-0.000000
351.751000	-0.000000
351.925000	-0.000000
352.098000	-0.000000
352.272000	-0.000000
352.446000	-0.000000
352.620000	-0.000000
352.794000	-0.000000
352.967000	-0.000000
353.141000	0.000000
353.315000	0.000000
353.489000	-0.000000
353.662000	-0.000000
353.836000	-0.000000
354.010000	-0.000000
354.184000	0.000000
354.358000	-0.000000
354.531000	-0.000000
354.705000	-0.000000
354.879000	-0.000000
355.053000	-0.000000
355.227000	0.000000
355.400000	-0.000000
355.574000	0.000000
355.748000	0.000000
355.922000	-0.000000
356.095000	-0.000000
356.269000	-0.000000
356.443000	-0.000000
356.617000	-0.000000
356.791000	-0.000000
356.964000	-0.000000
357.138000	-0.000000
357.312000	-0.000000
357.486000	-0.000000
357.660000	-0.000000
357.833000	-0.000000
358.007000	-0.000000
358.181000	-0.000000
358.355000	-0.000000
358.529000	-0.000000
358.702000	-0.000000
358.876000	-0.000000
359.050000	-0.000000
359.224000	-0.000000
359.397000	0.000000
359.571000	-0.000000
359.745000	-0.000000
359.919000	-0.000000
360.093000	-0.070214
360.266000	0.012663
360.440000	0.107764
360.614000	0.116721
360.788000	-0.002011
360.962000	-0.228677
361.135000	-0.109167
361.309000	-0.221637
361.483000	-0.324787
361.657000	-0.254308
361.830000	-0.216499
362.004000	-0.010788
362.178000	-0.349800
362.352000	-0.263861
362.526000	-0.097571
362.699000	-0.053355
362.873000	-0.414991
363.047000	-0.407198
363.221000	-0.349590
363.395000	-0.200451
363.568000	-0.230258
363.742000	-0.265790
363.916000	-0.220262
364.090000	-0.313325
364.263000	-0.291351
364.437000	-0.342931
364.611000	-0.084854
364.785000	-0.086271
364.959000	-0.261412
365.132000	-0.255500
365.306000	-0.279157
365.480000	-0.139512
365.656000	-0.216212
365.831000	-0.195211
366.007000	-0.194562
366.183000	-0.198815
366.358000	-0.306647
366.534000	-0.190585
366.710000	-0.385133
366.886000	-0.259025
367.061000	-0.103738
367.237000	0.017035
367.413000	-0.134174
367.588000	-0.313462
367.764000	-0.314837
367.940000	-0.334639
368.115000	-0.257709
368.291000	-0.299399
368.467000	-0.214563
368.643000	0.129274
368.818000	-0.220797
368.994000	-0.374156
369.170000	-0.274770
369.345000	-0.212587
369.521000	-0.297467
369.697000	-0.186253
369.872000	-0.272630
370.048000	-0.367045
370.224000	-0.278068
370.399000	-0.490045
370.575000	-0.381401
370.751000	-0.444987
370.927000	-0.458912
371.102000	-0.413516
371.278000	-0.348056
371.454000	-0.221719
371.629000	0.034127
371.805000	-0.043023
371.981000	0.104317
372.156000	0.264676
372.332000	0.061476
372.508000	-0.069457
372.683000	-0.111440
372.859000	-0.169163
373.035000	-0.205915
373.211000	0.240850
373.386000	-0.010697
373.562000	-0.412380
373.738000	-0.488481
373.913000	-0.657018
374.089000	-0.517723
374.265000	-0.082533
374.440000	-0.023198
374.616000	0.018188
374.792000	-0.235649
374.968000	0.148601
375.143000	-0.069322
375.319000	-0.310564
375.495000	-0.344841
375.670000	-0.222579
375.846000	-0.132813
376.022000	-0.253584
376.197000	-0.153511
376.373000	-0.361734
376.549000	-0.382499
376.724000	-0.441083
376.900000	-0.315894
377.076000	-0.182722
377.252000	0.068349
377.427000	0.181439
377.603000	-0.238491
377.779000	-0.278609
377.954000	-0.402493
378.130000	-0.242260
378.306000	-0.191003
378.481000	-0.208015
378.657000	-0.283678
378.833000	-0.308733
379.009000	-0.155740
379.184000	-0.000397
379.360000	-0.069174
379.536000	-0.081637
379.711000	-0.197815
379.887000	-0.268344
380.063000	-0.287097
380.238000	-0.362286
380.414000	-0.110505
380.590000	-0.345845
380.765000	-0.354671
380.941000	-0.156958
381.117000	-0.064561
381.293000	-0.130372
381.468000	-0.330357
381.644000	-0.280767
381.820000	-0.150445
381.995000	-0.027944
382.171000	0.193366
382.347000	0.127965
382.522000	-0.340109
382.698000	-0.008206
382.874000	0.040578
383.050000	-0.355843
383.225000	0.044703
383.401000	0.243526
383.577000	-0.141052
383.752000	-0.297644
383.928000	-0.209744
384.104000	-0.131543
384.279000	-0.207217
384.455000	-0.125997
384.631000	-0.213269
384.806000	-0.406939
384.982000	-0.172830
385.158000	-0.215362
385.334000	-0.088907
385.509000	-0.166574
385.685000	-0.459696
385.861000	-0.251661
386.036000	-0.387584
386.212000	-0.548262
386.388000	-0.359361
386.563000	-0.287786
386.739000	-0.316001
386.915000	-0.561614
387.090000	-0.277105
387.266000	-0.050878
387.442000	-0.008148
387.618000	-0.152441
387.793000	-0.369238
387.969000	-0.524274
388.145000	-0.429903
388.320000	-0.381141
388.496000	-0.374296
388.672000	-0.594161
388.847000	-0.161285
389.023000	-0.116055
389.199000	-0.449979
389.375000	-0.256358
389.550000	-0.360577
389.726000	-0.205643
389.902000	-0.376372
390.077000	-0.218363
390.253000	-0.160962
390.429000	-0.283049
390.604000	-0.195159
390.780000	-0.120085
390.956000	-0.286958
391.131000	-0.342863
391.307000	0.007156
391.483000	-0.192381
391.659000	-0.334654
391.834000	-0.096279
392.010000	-0.293329
392.186000	-0.346273
392.361000	-0.262243
392.537000	-0.420180
392.713000	0.034820
392.888000	0.227778
393.064000	-0.110201
393.240000	-0.291891
393.416000	-0.338076
393.591000	-0.424161
393.767000	-0.444154
393.943000	-0.324423
394.118000	-0.062620
394.294000	0.118570
394.470000	-0.022266
394.645000	0.034203
394.821000	0.272280
394.997000	-0.067646
395.172000	-0.143260
395.348000	-0.214226
395.524000	-0.493772
395.700000	-0.389014
395.875000	-0.149391
396.051000	-0.186854
396.227000	-0.244251
396.402000	-0.281872
396.578000	-0.190574
396.754000	-0.326471
396.929000	-0.303488
397.105000	-0.043342
397.281000	-0.131059
397.457000	-0.253856
397.632000	-0.224685
397.808000	-0.466098
397.984000	-0.611865
398.159000	-0.534358
398.335000	-0.330029
398.511000	0.159730
398.686000	-0.087422
398.862000	-0.310969
399.038000	-0.459795
399.213000	-0.194826
399.389000	-0.473328
399.565000	-0.199218
399.741000	0.018985
399.916000	-0.032303
400.092000	0.176268
400.268000	-0.152746
400.443000	-0.282192
400.619000	0.102263
400.795000	-0.012786
400.970000	-0.208870
401.146000	-0.276534
401.322000	0.003188
401.497000	0.411988
401.673000	0.072576
401.849000	-0.287570
402.025000	-0.102748
402.200000	-0.204585
402.376000	-0.297767
402.552000	0.123346
402.727000	-0.061912
402.903000	-0.365424
403.079000	-0.267315
403.254000	-0.031993
403.430000	-0.012572
403.606000	-0.101792
403.782000	-0.171537
403.957000	-0.368223
404.133000	-0.511434
404.309000	-0.353260
404.484000	-0.154306
404.660000	-0.145964
404.841000	-0.242604
405.023000	-0.043996
405.204000	-0.119420
405.385000	-0.426039
405.566000	-0.385598
405.748000	-0.278148
405.929000	-0.073263
406.110000	-0.098781
406.292000	-0.247445
406.473000	-0.159091
406.654000	-0.350250
406.835000	-0.172073
407.017000	-0.242996
407.198000	-0.219571
407.379000	-0.189701
407.560000	-0.223104
407.742000	-0.216134
407.923000	-0.161337
408.104000	-0.332985
408.286000	-0.208911
408.467000	-0.149447
408.648000	-0.370772
408.829000	-0.443985
409.011000	-0.312670
409.192000	-0.463692
409.373000	-0.195177
409.555000	-0.097780
409.736000	-0.116134
409.917000	-0.234519
410.098000	-0.241582
410.280000	-0.125220
410.461000	-0.130120
410.642000	-0.113253
410.823000	0.109107
411.005000	0.013356
411.186000	-0.195678
411.367000	-0.297028
411.549000	-0.319092
411.730000	-0.058592
411.911000	0.037285
412.092000	-0.155517
412.274000	-0.171269
412.455000	-0.102093
412.636000	-0.090304
412.818000	-0.302972
412.999000	-0.381527
413.180000	-0.306119
413.361000	-0.280128
413.543000	-0.307304
413.724000	-0.383903
413.905000	-0.373822
414.087000	-0.391462
414.268000	-0.353823
414.449000	-0.356155
414.630000	-0.469900
414.812000	-0.571037
414.993000	-0.187826
415.174000	-0.026893
415.355000	-0.234174
415.537000	-0.479246
415.718000	-0.171787
415.899000	-0.275833
416.081000	-0.411882
416.262000	-0.183416
416.443000	-0.284964
416.624000	-0.261324
416.806000	-0.158214
416.987000	-0.041644
417.168000	-0.108742
417.350000	-0.340273
417.531000	-0.432905
417.712000	-0.315349
417.893000	-0.039486
418.075000	-0.016580
418.256000	-0.270946
418.437000	-0.182013
418.618000	-0.065563
418.800000	0.002931
418.981000	-0.220680
419.162000	-0.175794
419.344000	0.022361
419.525000	-0.086671
419.706000	-0.169946
419.887000	-0.024741
420.069000	0.106989
420.250000	0.015930
420.431000	-0.019783
420.613000	-0.088307
420.794000	-0.318637
420.975000	0.023909
421.156000	-0.202650
421.338000	-0.241300
421.519000	-0.200827
421.700000	-0.279266
421.882000	-0.293810
422.063000	-0.076346
422.244000	0.432584
422.425000	0.159608
422.607000	-0.197843
422.788000	-0.213173
422.969000	-0.298831
423.150000	-0.329871
423.332000	-0.367579
423.513000	-0.168378
423.694000	-0.118906
423.876000	-0.082917
424.057000	-0.021380
424.238000	0.035443
424.419000	0.058373
424.601000	-0.067170
424.782000	-0.052444
424.963000	0.120815
425.145000	-0.016520
425.326000	-0.018062
425.507000	0.057647
425.688000	-0.058588
425.870000	-0.239185
426.051000	-0.302099
426.232000	-0.235915
426.413000	-0.185362
426.595000	-0.200538
426.776000	-0.242407
426.957000	-0.185102
427.139000	-0.105233
427.320000	-0.047337
427.501000	0.066400
427.682000	0.066076
427.864000	0.046615
428.045000	0.236679
428.226000	0.125116
428.408000	-0.208654
428.589000	-0.092701
428.770000	-0.045599
428.951000	-0.131075
429.133000	-0.259438
429.314000	-0.119251
429.495000	-0.120457
429.677000	-0.082304
429.858000	-0.100094
430.039000	-0.067989
430.220000	0.104419
430.402000	0.205294
430.583000	-0.079218
430.764000	-0.085318
430.945000	0.060739
431.127000	0.157623
431.308000	-0.032079
431.489000	0.146591
431.671000	0.219344
431.852000	0.090464
432.033000	0.018796
432.214000	0.117322
432.396000	0.177262
432.577000	-0.019386
432.758000	-0.156456
432.940000	-0.063980
433.121000	0.037838
433.302000	0.085251
433.483000	0.219505
433.665000	0.341460
433.846000	0.298679
434.027000	0.139601
434.208000	0.064057
434.390000	0.045383
434.571000	0.420604
434.752000	0.893213
434.934000	0.706238
435.115000	0.614392
435.296000	0.687499
435.477000	0.520642
435.659000	0.275124
435.840000	0.323811
436.026000	0.281304
436.211000	0.158022
436.397000	-0.075343
436.582000	0.047168
436.768000	0.255231
436.953000	0.186121
437.139000	0.254329
437.325000	0.544680
437.510000	0.452013
437.696000	0.605225
437.881000	0.598224
438.067000	0.234132
438.252000	0.294463
438.438000	0.271713
438.624000	0.262708
438.809000	0.381377
438.995000	0.473623
439.180000	0.409565
439.366000	0.374894
439.551000	0.372907
439.737000	0.470085
439.923000	0.546475
440.108000	0.422598
440.294000	0.481956
440.479000	0.649763
440.665000	0.718766
440.850000	0.599723
441.036000	0.580656
441.222000	0.580182
441.407000	0.511003
441.593000	0.648440
441.778000	0.793517
441.964000	0.878521
442.149000	0.544154
442.335000	0.512528
442.521000	0.683675
442.706000	0.886411
442.892000	0.768345
443.077000	0.700416
443.263000	0.847953
443.448000	0.781376
443.634000	0.730542
443.820000	1.083306
444.005000	0.953620
444.191000	0.708464
444.376000	0.761678
444.562000	1.160254
444.747000	1.173375
444.933000	1.072851
445.119000	0.956480
445.304000	0.895804
445.490000	1.091164
445.675000	1.141137
445.861000	0.959994
446.046000	0.973330
446.232000	1.099477
446.418000	1.218603
446.603000	1.215670
446.789000	1.211562
446.974000	1.233447
447.160000	1.020869
447.345000	1.141965
447.531000	1.140966
447.717000	1.343512
447.902000	1.457125
448.088000	1.519707
448.273000	1.434207
448.459000	1.410804
448.644000	1.340972
448.830000	1.359876
449.016000	1.312934
449.201000	1.341572
449.387000	1.490467
449.572000	1.646684
449.758000	1.584700
449.943000	1.509335
450.129000	1.488130
450.315000	1.517028
450.500000	1.558347
450.686000	1.686953
450.871000	1.627713
451.057000	1.767149
451.243000	1.751317
451.428000	1.782677
451.614000	1.803256
451.799000	1.798050
451.985000	2.065654
452.170000	2.120064
452.356000	1.928922
452.542000	1.946364
452.727000	2.080124
452.913000	1.994268
453.098000	2.217950
453.284000	2.454631
453.469000	2.284333
453.655000	2.386037
453.841000	2.313784
454.026000	2.146788
454.212000	2.188243
454.397000	2.286534
454.583000	2.163583
454.768000	2.082106
454.954000	2.280075
455.140000	2.338572
455.325000	2.211482
455.511000	2.161053
455.696000	2.151742
455.882000	2.283920
456.067000	2.555067
456.253000	2.336735
456.439000	2.181697
456.624000	2.188043
456.810000	2.176630
456.995000	2.226839
457.181000	2.203450
457.366000	2.367799
457.552000	2.344734
457.738000	2.451438
457.923000	2.446405
458.109000	2.614580
458.294000	2.524973
458.480000	2.487890
458.665000	2.421712
458.851000	2.221415
459.037000	2.007938
459.222000	2.185603
459.408000	2.189631
459.593000	2.183017
459.779000	2.311388
459.964000	2.429994
460.150000	2.549043
460.336000	2.442368
460.521000	2.208291
460.707000	2.020407
460.892000	1.909655
461.078000	2.126981
461.263000	2.177267
461.449000	1.965858
461.635000	1.961144
461.820000	1.979330
462.006000	1.996804
462.191000	1.949465
462.377000	1.687707
462.562000	1.988658
462.748000	2.189595
462.934000	1.717864
463.119000	1.484140
463.305000	1.668161
463.490000	1.620663
463.676000	1.654103
463.861000	1.579410
464.047000	1.491469
464.233000	1.570407
464.418000	1.530719
464.604000	1.413649
464.789000	1.562632
464.975000	1.513553
465.160000	1.374692
465.346000	1.367604
465.532000	1.240698
465.717000	1.173080
465.903000	1.406762
466.088000	1.298087
466.274000	1.061165
466.459000	1.028559
466.645000	1.378831
466.831000	1.342745
467.016000	1.355482
467.202000	1.203995
467.387000	1.109573
467.573000	0.942400
467.758000	1.180819
467.944000	1.067790
468.130000	0.935384
468.315000	1.044048
468.501000	1.141908
468.686000	1.043978
468.872000	1.012193
469.057000	1.057650
469.243000	0.977452
469.429000	0.911181
469.614000	0.806600
469.800000	0.711626
469.985000	0.861919
470.171000	0.949374
470.356000	0.821304
470.542000	0.913344
470.728000	0.885589
470.913000	0.810178
471.099000	0.887922
471.284000	0.790747
471.470000	0.742541
471.655000	0.734016
471.841000	0.719387
472.027000	0.667822
472.212000	0.860653
472.398000	0.851193
472.583000	0.718038
472.769000	0.716915
472.954000	0.694883
473.140000	0.531428
473.326000	0.480593
473.511000	0.808911
473.697000	0.834374
473.882000	0.656911
474.068000	0.557059
474.253000	0.433129
474.439000	0.475626
474.625000	0.602405
474.810000	0.613890
474.996000	0.588095
475.181000	0.423166
475.367000	0.618377
475.552000	0.819017
475.738000	0.440770
475.924000	0.428255
476.109000	0.556950
476.295000	0.422171
476.480000	0.444731
476.666000	0.441601
476.851000	0.431553
477.037000	0.453541
477.223000	0.338758
477.408000	0.249162
477.594000	0.185100
477.779000	0.355215
477.965000	0.373796
478.151000	0.210109
478.336000	0.350669
478.522000	0.289643
478.707000	0.209779
478.893000	0.301289
479.078000	0.141640
479.264000	0.137974
479.450000	0.189883
479.635000	0.319084
479.821000	0.229482
480.006000	0.288547
480.192000	0.272245
480.377000	0.250595
480.563000	0.279977
480.749000	0.118339
480.934000	0.112042
481.120000	0.206297
481.305000	0.277220
481.491000	0.266022
481.676000	0.311099
481.862000	0.314294
482.048000	0.150017
482.233000	0.201508
482.419000	0.205663
482.604000	0.112070
482.790000	0.107136
482.975000	0.152946
483.161000	0.307686
483.347000	0.264152
483.532000	0.226075
483.718000	0.013328
483.903000	0.045478
484.089000	0.113173
484.274000	-0.012555
484.460000	0.116922
484.646000	0.157635
484.831000	0.052830
485.017000	0.110496
485.202000	0.129937
485.388000	0.347087
485.573000	0.326805
485.759000	0.147115
485.945000	0.279798
486.130000	0.138443
486.316000	0.122535
486.501000	0.188337
486.687000	0.051114
486.872000	-0.010036
487.058000	0.143051
487.244000	0.179905
487.429000	0.000978
487.615000	0.148861
487.800000	0.222155
487.986000	0.106881
488.171000	0.181557
488.357000	0.133518
488.543000	0.131820
488.728000	0.202158
488.914000	0.135587
489.099000	0.026422
489.285000	0.034882
489.470000	0.214808
489.656000	0.217386
489.842000	0.155127
490.027000	0.259124
490.213000	0.105603
490.398000	-0.144932
490.584000	0.081465
490.769000	0.088674
490.955000	0.161689
491.141000	0.157742
491.326000	0.117833
491.512000	0.262021
491.697000	0.153227
491.883000	-0.003808
492.068000	-0.012141
492.254000	-0.000238
492.440000	0.054580
492.625000	-0.020436
492.811000	-0.040553
492.996000	0.089756
493.182000	0.074126
493.367000	-0.107954
493.553000	-0.160082
493.739000	-0.080630
493.924000	0.028170
494.110000	0.023361
494.295000	-0.071988
494.481000	0.037452
494.666000	0.048085
494.852000	0.202154
495.038000	0.065524
495.223000	-0.088437
495.409000	-0.038952
495.594000	-0.062521
495.780000	-0.015472
495.965000	-0.068288
496.151000	0.119301
496.337000	0.185926
496.522000	-0.060880
496.708000	0.022006
496.893000	0.156607
497.079000	-0.035259
497.264000	-0.074811
497.450000	-0.025879
497.636000	0.048772
497.821000	-0.085187
498.007000	0.135930
498.192000	0.187832
498.378000	0.005597
498.563000	-0.071386
498.749000	-0.020083
498.935000	0.006762
499.120000	0.056756
499.306000	-0.114373
499.491000	-0.144264
499.677000	-0.051325
499.862000	0.018416
500.048000	0.099016
500.234000	-0.013045
500.419000	-0.062075
500.605000	0.086188
500.790000	-0.003733
500.976000	-0.125256
501.161000	-0.208160
501.347000	-0.017755
501.533000	0.083921
501.718000	-0.021260
501.904000	-0.084536
502.089000	0.004456
502.275000	0.089822
502.460000	-0.023555
502.646000	0.007939
502.832000	0.038313
503.017000	0.002107
503.203000	-0.165498
503.388000	-0.204667
503.574000	0.002109
503.759000	0.032568
503.945000	0.026756
504.131000	-0.057736
504.316000	-0.056528
504.502000	-0.031912
504.687000	-0.073170
504.873000	-0.185027
505.058000	-0.213249
505.244000	-0.242612
505.430000	-0.193560
505.615000	-0.104103
505.801000	-0.030980
505.986000	-0.172038
506.172000	-0.101496
506.358000	-0.055702
506.543000	-0.082800
506.729000	0.082378
506.914000	0.042344
507.100000	0.150491
507.285000	-0.060868
507.471000	-0.159364
507.657000	0.061506
507.842000	-0.052409
508.028000	-0.211440
508.213000	-0.176284
508.399000	-0.093211
508.584000	0.043908
508.770000	-0.082420
508.956000	-0.149235
509.141000	-0.127666
509.327000	-0.059907
509.512000	-0.102462
509.698000	-0.060951
509.883000	-0.006208
510.069000	-0.087620
510.255000	-0.076881
510.440000	-0.039807
510.626000	-0.115285
510.811000	-0.170656
510.997000	-0.061459
511.182000	0.186794
511.368000	0.082577
511.554000	-0.246434
511.739000	-0.170664
511.925000	0.012970
512.110000	-0.008639
512.296000	0.126053
512.481000	0.136712
512.667000	-0.002646
512.853000	-0.190289
513.038000	-0.084558
513.224000	-0.118313
513.409000	-0.229133
513.595000	-0.112458
513.780000	-0.267978
513.966000	-0.177098
514.152000	-0.171104
514.337000	-0.236175
514.523000	-0.174800
514.708000	-0.087007
514.894000	-0.058245
515.079000	-0.177184
515.265000	-0.151221
515.451000	-0.125908
515.636000	-0.209130
515.822000	-0.117510
516.007000	-0.213051
516.193000	-0.070303
516.378000	0.016698
516.564000	-0.070321
516.750000	-0.070345
516.935000	0.023944
517.121000	0.019103
517.306000	0.088100
517.492000	0.049449
517.677000	-0.202415
517.863000	-0.224247
518.049000	-0.088661
518.234000	-0.137006
518.420000	-0.036597
518.605000	0.129376
518.791000	0.124469
518.976000	-0.025771
519.162000	-0.156766
519.348000	-0.042719
519.533000	-0.031751
519.719000	0.162310
519.904000	0.067766
520.090000	-0.000242
520.275000	0.165911
520.461000	0.105480
520.647000	-0.107161
520.832000	-0.275571
521.018000	-0.160636
521.203000	-0.138310
521.389000	-0.276178
521.574000	-0.178331
521.760000	-0.048766
521.946000	-0.065949
522.131000	-0.154908
522.317000	-0.125486
522.502000	-0.155818
522.688000	-0.058610
522.873000	-0.107350
523.059000	-0.157362
523.245000	-0.141396
523.430000	-0.236610
523.616000	-0.192694
523.801000	-0.264909
523.987000	-0.209179
524.172000	-0.063773
524.358000	-0.047912
524.544000	-0.096643
524.729000	0.035050
524.915000	0.098569
525.100000	-0.050241
525.286000	-0.042988
525.471000	-0.033311
525.657000	-0.037024
525.843000	-0.239587
526.028000	-0.091137
526.214000	-0.116886
526.399000	-0.229276
526.585000	-0.305681
526.770000	-0.297025
526.956000	-0.148390
527.142000	-0.239701
527.327000	-0.115170
527.513000	-0.187073
527.698000	-0.212055
527.884000	-0.192937
528.069000	-0.201233
528.255000	-0.087208
528.441000	-0.170644
528.626000	-0.132493
528.812000	0.101970
528.997000	-0.071448
529.183000	-0.191280
529.368000	-0.111889
529.554000	-0.115958
529.740000	-0.117546
529.925000	-0.156678
530.111000	-0.145485
530.296000	-0.076138
530.482000	0.044122
530.667000	-0.043379
530.853000	-0.002799
531.039000	-0.094621
531.224000	-0.043847
531.410000	0.062546
531.595000	-0.033611
531.781000	-0.015653
531.967000	-0.147345
532.152000	0.019155
532.338000	-0.093632
532.523000	-0.232835
532.709000	-0.227175
532.894000	-0.091999
533.080000	-0.075042
533.266000	-0.248403
533.451000	-0.248009
533.637000	-0.169490
533.822000	0.003717
534.008000	-0.142167
534.193000	-0.116072
534.379000	-0.018970
534.565000	-0.084768
534.750000	-0.149702
534.936000	0.059189
535.121000	-0.104594
535.307000	-0.050487
535.492000	-0.070959
535.678000	-0.284714
535.864000	-0.134953
536.049000	0.135179
536.235000	-0.063928
536.420000	-0.075341
536.606000	-0.148048
536.791000	-0.217640
536.977000	-0.202720
537.163000	0.036411
537.348000	0.022429
537.534000	0.072596
537.719000	-0.073350
537.905000	-0.231839
538.090000	-0.046493
538.276000	0.034486
538.462000	0.009885
538.647000	0.042036
538.833000	-0.045789
539.018000	0.026245
539.204000	-0.007672
539.389000	-0.163710
539.575000	0.170686
539.761000	0.114757
539.946000	-0.201472
540.132000	-0.054558
540.317000	-0.106105
540.503000	0.005756
540.688000	0.019510
540.874000	0.264194
541.060000	0.398604
541.245000	0.251525
541.431000	0.093717
541.616000	0.137250
541.802000	0.098694
541.987000	0.216880
542.173000	0.255083
542.359000	0.157159
542.544000	0.239444
542.730000	0.080966
542.915000	0.065493
543.101000	0.270905
543.286000	0.093946
543.472000	-0.033513
543.658000	0.075617
543.843000	0.075803
544.029000	0.287642
544.214000	0.168537
544.400000	-0.162986
544.585000	-0.022696
544.771000	0.115132
544.957000	0.349999
545.142000	0.486992
545.328000	0.501173
545.513000	0.521495
545.699000	0.453977
545.884000	0.303290
546.070000	0.230333
546.261000	0.161071
546.451000	-0.046116
546.642000	-0.234584
546.833000	-0.139812
547.023000	-0.208686
547.214000	-0.193057
547.405000	0.011199
547.595000	0.280012
547.786000	0.221495
547.977000	-0.066729
548.167000	-0.206337
548.358000	-0.165531
548.549000	0.205665
548.740000	0.049909
548.930000	-0.280124
549.121000	-0.159955
549.312000	-0.214539
549.502000	-0.321571
549.693000	-0.191233
549.884000	-0.101729
550.074000	-0.024080
550.265000	-0.204319
550.456000	-0.066795
550.646000	0.013322
550.837000	-0.044765
551.028000	-0.212491
551.218000	-0.034551
551.409000	-0.146366
551.600000	-0.141332
551.790000	0.025547
551.981000	-0.228187
552.172000	-0.233800
552.362000	0.122381
552.553000	0.183809
552.744000	-0.055905
552.934000	-0.127197
553.125000	-0.197055
553.316000	-0.211115
553.506000	0.181180
553.697000	-0.012614
553.888000	-0.021336
554.079000	0.188678
554.269000	0.153827
554.460000	-0.249766
554.651000	-0.318595
554.841000	-0.428086
555.032000	-0.289471
555.223000	-0.176892
555.413000	-0.061867
555.604000	-0.100960
555.795000	-0.152545
555.985000	-0.053554
556.176000	-0.170281
556.367000	-0.426849
556.557000	-0.295103
556.748000	-0.231633
556.939000	-0.238381
557.129000	-0.318046
557.320000	-0.181499
557.511000	-0.175842
557.701000	-0.172025
557.892000	-0.121185
558.083000	0.045794
558.273000	-0.030535
558.464000	-0.224056
558.655000	-0.225637
558.845000	-0.117085
559.036000	-0.056991
559.227000	-0.129654
559.418000	0.026262
559.608000	0.084787
559.799000	-0.296207
559.990000	-0.338687
560.180000	-0.259729
560.371000	-0.419168
560.562000	-0.328541
560.752000	-0.176960
560.943000	-0.348429
561.134000	-0.525470
561.324000	-0.276673
561.515000	-0.000351
561.706000	-0.172705
561.896000	-0.381160
562.087000	-0.282568
562.278000	-0.301733
562.468000	-0.417794
562.659000	-0.360679
562.850000	-0.023104
563.040000	0.052159
563.231000	-0.366448
563.422000	-0.276202
563.612000	-0.362151
563.803000	-0.232387
563.994000	-0.298988
564.185000	-0.381688
564.375000	-0.179091
564.566000	-0.133809
564.757000	-0.146348
564.947000	-0.297208
565.138000	-0.166440
565.329000	-0.207545
565.519000	-0.374838
565.710000	-0.278475
565.901000	-0.114440
566.091000	-0.024530
566.282000	-0.169244
566.473000	-0.137794
566.663000	-0.115324
566.854000	-0.316568
567.045000	-0.206633
567.235000	-0.121366
567.426000	-0.100874
567.617000	-0.110698
567.807000	-0.168496
567.998000	-0.127471
568.189000	-0.244373
568.379000	-0.182899
568.570000	-0.106683
568.761000	-0.136779
568.951000	-0.180289
569.142000	-0.271470
569.333000	-0.273149
569.524000	-0.367756
569.714000	-0.439858
569.905000	-0.524513
570.096000	-0.094100
570.286000	0.003010
570.477000	0.091383
570.668000	-0.090298
570.858000	-0.113617
571.049000	-0.237724
571.240000	-0.365734
571.430000	-0.174500
571.621000	-0.225120
571.812000	-0.094158
572.002000	-0.071239
572.193000	-0.255515
572.384000	-0.140210
572.574000	-0.064562
572.765000	-0.144999
572.956000	-0.219931
573.146000	-0.020024
573.337000	-0.164131
573.528000	-0.168751
573.718000	-0.037837
573.909000	0.024103
574.100000	-0.039271
574.290000	-0.196052
574.481000	-0.179474
574.672000	-0.169985
574.863000	-0.035728
575.053000	-0.159348
575.244000	-0.118907
575.435000	-0.221255
575.625000	-0.225060
575.816000	-0.245476
576.007000	-0.181800
576.197000	-0.148603
576.388000	-0.116260
576.579000	0.006033
576.769000	-0.001903
576.960000	-0.287144
577.155000	-0.438060
577.350000	-0.166043
577.545000	-0.041276
577.740000	-0.212366
577.935000	0.170545
578.130000	0.059298
578.326000	-0.241160
578.521000	0.013756
578.716000	0.043257
578.911000	-0.216359
579.106000	-0.068442
579.301000	0.019760
579.496000	-0.186512
579.691000	-0.463115
579.886000	-0.215004
580.081000	-0.095241
580.276000	-0.101117
580.471000	-0.180513
580.666000	-0.283868
580.861000	-0.311200
581.057000	-0.323602
581.252000	-0.181821
581.447000	-0.231637
581.642000	-0.215257
581.837000	-0.239327
582.032000	-0.217392
582.227000	0.035921
582.422000	0.028322
582.617000	-0.187754
582.812000	-0.299455
583.007000	-0.260423
583.202000	-0.312172
583.397000	-0.001784
583.592000	0.192674
583.788000	-0.112750
583.983000	-0.117078
584.178000	-0.007675
584.373000	-0.163628
584.568000	-0.230832
584.763000	-0.276621
584.958000	-0.326572
585.153000	-0.214889
585.348000	-0.201550
585.543000	-0.081173
585.738000	-0.064968
585.933000	-0.254645
586.128000	-0.067901
586.324000	-0.076920
586.519000	-0.028272
586.714000	0.057178
586.909000	0.094187
587.104000	0.115237
587.299000	-0.006203
587.494000	-0.048968
587.689000	-0.060888
587.884000	-0.053659
588.079000	-0.135196
588.274000	-0.087920
588.469000	-0.112941
588.664000	-0.012170
588.859000	0.019024
589.055000	-0.044937
589.250000	-0.089619
589.445000	-0.177665
589.640000	-0.122616
589.835000	0.131283
590.030000	0.191036
590.225000	0.158180
590.420000	-0.040723
590.615000	-0.126173
590.810000	-0.109567
591.005000	-0.100998
591.200000	-0.162686
591.395000	-0.215278
591.591000	-0.087344
591.786000	0.071676
591.981000	-0.048427
592.176000	-0.024413
592.371000	0.028343
592.566000	-0.040976
592.761000	0.156351
592.956000	0.150580
593.151000	0.227644
593.346000	0.126853
593.541000	0.138819
593.736000	0.105876
593.931000	-0.050381
594.126000	0.052888
594.322000	0.112154
594.517000	0.016409
594.712000	-0.077827
594.907000	-0.047596
595.102000	0.088291
595.297000	0.182879
595.492000	0.301062
595.687000	0.136117
595.882000	0.067173
596.077000	0.182548
596.272000	0.365330
596.467000	0.419236
596.662000	0.261202
596.857000	0.297766
597.053000	0.349320
597.248000	0.372364
597.443000	0.403826
597.638000	0.362892
597.833000	0.186124
598.028000	0.403121
598.223000	0.543831
598.418000	0.456026
598.613000	0.382775
598.808000	0.499954
599.003000	0.498933
599.198000	0.373032
599.393000	0.438509
599.589000	0.580633
599.784000	0.424338
599.979000	0.542662
600.174000	0.759749
600.369000	0.568757
600.564000	0.671808
600.759000	0.978319
600.954000	1.099386
601.149000	0.938634
601.344000	0.614176
601.539000	0.841052
601.734000	0.806785
601.929000	0.607720
602.124000	0.676373
602.320000	0.918847
602.515000	1.206376
602.710000	1.204094
602.905000	0.898490
603.100000	0.863691
603.295000	0.990981
603.490000	1.143818
603.685000	1.180720
603.880000	1.210921
604.075000	1.090633
604.270000	1.139500
604.465000	1.249322
604.660000	1.083363
604.856000	1.292723
605.051000	1.523454
605.246000	1.496506
605.441000	1.287057
605.636000	1.264918
605.831000	1.452464
606.026000	1.435761
606.221000	1.426441
606.416000	1.659098
606.611000	1.914449
606.806000	1.882029
607.001000	2.086503
607.196000	1.937972
607.391000	1.777037
607.587000	2.059881
607.782000	2.012210
607.977000	1.816085
608.172000	2.303306
608.367000	2.404132
608.562000	2.224737
608.757000	2.225652
608.952000	2.258604
609.147000	2.720723
609.342000	2.635074
609.537000	2.484412
609.732000	2.603106
609.927000	2.625766
610.122000	2.735154
610.318000	3.133215
610.513000	3.348230
610.708000	3.248351
610.903000	3.446105
611.098000	3.587002
611.293000	3.569842
611.488000	3.649492
611.683000	3.685628
611.878000	3.655360
612.073000	3.725825
612.268000	3.824215
612.463000	3.943908
612.658000	3.948946
612.854000	3.958898
613.049000	3.980630
613.244000	4.147638
613.439000	4.227471
613.634000	4.001054
613.829000	4.329357
614.024000	4.327907
614.219000	4.377463
614.414000	4.748617
614.609000	4.557860
614.804000	4.505403
614.999000	4.635318
615.194000	4.801901
615.389000	4.935358
615.585000	4.861858
615.780000	5.176179
615.975000	5.230436
616.170000	5.361014
616.365000	5.693124
616.560000	5.910359
616.755000	5.933420
616.950000	5.954695
617.145000	6.222206
617.340000	6.173648
617.535000	5.958944
617.730000	6.347388
617.925000	6.309865
618.120000	6.378492
618.316000	6.887320
618.511000	6.898852
618.706000	6.840636
618.901000	7.084682
619.096000	7.424043
619.291000	7.458931
619.486000	7.679761
619.681000	7.483240
619.876000	7.476561
620.071000	7.806990
620.266000	8.270406
620.461000	8.523504
620.656000	8.551588
620.852000	8.650451
621.047000	8.622743
621.242000	8.698744
621.437000	9.243016
621.632000	9.526021
621.827000	9.534610
622.022000	9.343304
622.217000	9.721027
622.412000	10.052654
622.607000	10.170141
622.802000	10.042902
622.997000	10.272950
623.192000	10.600067
623.387000	10.825758
623.583000	10.737009
623.778000	11.276285
623.973000	11.396051
624.168000	11.580318
624.363000	11.737349
624.558000	12.100587
624.753000	12.042624
624.948000	12.388600
625.143000	12.509044
625.338000	12.657970
625.533000	12.735729
625.728000	13.054254
625.923000	13.513803
626.119000	13.559610
626.314000	13.480335
626.509000	13.637987
626.704000	13.985353
626.899000	14.248910
627.094000	14.489539
627.289000	14.711230
627.484000	14.965880
627.679000	15.206822
627.874000	15.386317
628.069000	15.892743
628.264000	15.920650
628.459000	16.028052
628.654000	16.275001
628.850000	16.354259
629.045000	16.811623
629.240000	16.910019
629.435000	16.867011
629.630000	17.125871
629.825000	17.320733
630.020000	17.613164
630.215000	17.442986
630.410000	17.716394
630.605000	17.871583
630.800000	18.125820
630.995000	18.455982
631.190000	18.657646
631.385000	18.463441
631.581000	18.359016
631.776000	18.470898
631.971000	18.238710
632.166000	18.201537
632.361000	18.023075
632.556000	18.080592
632.751000	18.125710
632.946000	17.839639
633.141000	17.717831
633.336000	17.682335
633.531000	17.575325
633.726000	17.242531
633.921000	16.802135
634.117000	16.414759
634.312000	16.153059
634.507000	15.955844
634.702000	15.771302
634.897000	15.436767
635.092000	15.177903
635.287000	15.001962
635.482000	14.470580
635.677000	14.299286
635.872000	14.019290
636.067000	13.673407
636.262000	13.063678
636.457000	12.279830
636.652000	12.013620
636.848000	11.556089
637.043000	11.309735
637.238000	10.963131
637.433000	10.418586
637.628000	10.186348
637.823000	10.086232
638.018000	9.761705
638.213000	9.297301
638.408000	8.851198
638.603000	8.432478
638.798000	8.076678
638.993000	7.895795
639.188000	7.585772
639.383000	7.299252
639.579000	7.383774
639.774000	6.877774
639.969000	6.454350
640.164000	6.166793
640.359000	5.957566
640.554000	5.900620
640.749000	5.718352
640.944000	5.608956
641.139000	5.297667
641.334000	4.976348
641.529000	4.372078
641.724000	4.389674
641.919000	4.421377
642.115000	4.589501
642.310000	4.493082
642.505000	4.199524
642.700000	4.025085
642.895000	3.750103
643.090000	3.714054
643.285000	3.706334
643.480000	3.574973
643.675000	3.456622
643.870000	3.665331
644.065000	3.381197
644.260000	2.853685
644.455000	2.832114
644.650000	2.698092
644.846000	2.756233
645.041000	2.437846
645.236000	2.161116
645.431000	2.135081
645.626000	1.936184
645.821000	2.083061
646.016000	2.126689
646.211000	2.467081
646.406000	2.239380
646.601000	2.101248
646.796000	1.893812
646.991000	1.557444
647.186000	1.586041
647.381000	1.794674
647.577000	1.712430
647.772000	1.773403
647.967000	1.680120
648.162000	1.542534
648.357000	1.464515
648.552000	1.624064
648.747000	1.542788
648.942000	1.493145
649.137000	1.368627
649.332000	1.160662
649.527000	1.081811
649.722000	1.337615
649.917000	1.390381
650.113000	1.026046
650.308000	0.853349
650.503000	0.899591
650.698000	1.063979
650.893000	0.845312
651.088000	0.937531
651.283000	1.078441
651.478000	0.713126
651.673000	0.870339
651.868000	0.690308
652.063000	0.908098
652.258000	1.016013
652.453000	1.126667
652.648000	0.729872
652.844000	0.655388
653.039000	0.665082
653.234000	0.263712
653.429000	0.122195
653.624000	0.289783
653.819000	0.523100
654.014000	0.467176
654.209000	0.289080
654.404000	0.476550
654.599000	0.360920
654.794000	0.314937
654.989000	0.673332
655.184000	0.535307
655.380000	0.101427
655.575000	0.099271
655.770000	0.162397
655.965000	0.318794
656.160000	0.232052
656.355000	0.375379
656.550000	0.346026
656.745000	0.346260
656.940000	0.215608
657.135000	0.276644
657.330000	0.274574
657.525000	0.021405
657.720000	0.229303
657.915000	0.347134
658.111000	0.242299
658.306000	0.551079
658.501000	0.278147
658.696000	0.008332
658.891000	0.229902
659.086000	0.126746
659.281000	0.188453
659.476000	-0.002639
659.671000	-0.385323
659.866000	-0.128057
660.061000	0.193316
660.256000	0.270503
660.451000	0.160505
660.646000	-0.066671
660.842000	0.076915
661.037000	-0.042452
661.232000	-0.075726
661.427000	0.070356
661.622000	-0.093537
661.817000	-0.142262
662.012000	0.112851
662.207000	-0.124933
662.402000	-0.247821
662.597000	-0.038358
662.792000	-0.301236
662.987000	-0.332157
663.182000	-0.051758
663.378000	-0.004912
663.573000	-0.331705
663.768000	-0.362288
663.963000	-0.174857
664.158000	-0.161294
664.353000	0.300130
664.548000	0.459232
664.743000	0.127509
664.938000	-0.206956
665.133000	-0.196040
665.328000	0.247215
665.523000	0.180022
665.718000	-0.032038
665.913000	-0.045643
666.109000	-0.048010
666.304000	0.158019
666.499000	0.001810
666.694000	0.140217
666.889000	0.426050
667.084000	0.099700
667.279000	-0.070977
667.474000	-0.075569
667.669000	0.031404
667.864000	-0.041465
668.059000	-0.071192
668.254000	-0.023304
668.449000	-0.176577
668.644000	-0.069139
668.840000	0.125293
669.035000	-0.199655
669.230000	-0.455345
669.425000	-0.055635
669.620000	-0.198155
669.815000	-0.251936
670.010000	-0.283973
670.205000	-0.150409
670.400000	-0.094875
670.595000	-0.055897
670.790000	-0.143862
670.985000	-0.111598
671.180000	0.103841
671.376000	-0.260299
671.571000	-0.374805
671.766000	-0.345377
671.961000	-0.364159
672.156000	-0.345939
672.351000	-0.231613
672.546000	-0.253159
672.741000	-0.145213
672.936000	-0.115014
673.131000	0.437863
673.326000	0.138212
673.521000	-0.329832
673.716000	-0.398048
673.911000	-0.527813
674.107000	-0.000472
674.302000	0.261518
674.497000	0.027883
674.692000	-0.288960
674.887000	-0.380108
675.082000	-0.276126
675.277000	0.037598
675.472000	-0.076725
675.667000	-0.239118
675.862000	-0.310868
676.057000	-0.213118
676.252000	-0.158501
676.447000	-0.278896
676.643000	-0.077221
676.838000	0.191737
677.033000	-0.099132
677.228000	0.173191
677.423000	0.122611
677.618000	-0.303000
677.813000	-0.462458
678.008000	-0.201884
678.203000	-0.097648
678.398000	-0.360643
678.593000	-0.141677
678.788000	-0.024911
678.983000	-0.322466
679.178000	-0.161558
679.374000	-0.237557
679.569000	-0.181736
679.764000	-0.334580
679.959000	-0.473277
680.154000	-0.443818
680.349000	-0.623301
680.544000	-0.501527
680.739000	-0.403013
680.934000	-0.465218
681.129000	-0.416943
681.324000	-0.499360
681.519000	-0.234533
681.714000	-0.281937
681.909000	-0.378610
682.105000	-0.551803
682.300000	-0.168287
682.495000	0.077092
682.690000	0.079776
682.885000	-0.080844
683.080000	-0.320246
683.275000	-0.249877
683.470000	0.115507
683.665000	0.317963
683.860000	0.551444
684.055000	0.247760
684.250000	-0.251552
684.445000	-0.342296
684.641000	0.118844
684.836000	-0.178562
685.031000	-0.179206
685.226000	-0.217792
685.421000	0.122533
685.616000	-0.118431
685.811000	-0.331991
686.006000	-0.062179
686.201000	-0.085416
686.396000	-0.470558
686.591000	-0.435273
686.786000	0.015033
686.981000	-0.169010
687.176000	-0.140838
687.372000	-0.200829
687.567000	0.080160
687.762000	-0.024010
687.957000	-0.104908
688.152000	-0.238508
688.347000	-0.165580
688.542000	-0.483790
688.737000	-0.824862
688.932000	-0.857821
689.127000	-0.416604
689.322000	-0.050705
689.517000	-0.269843
689.712000	-0.519869
689.908000	-0.406343
690.103000	-0.391186
690.298000	-0.250380
690.493000	-0.317658
690.688000	-0.616890
690.883000	-0.423563
691.078000	0.055708
691.273000	0.136072
691.468000	-0.193770
691.663000	-0.205283
691.858000	-0.035567
692.053000	-0.081370
692.248000	-0.014025
692.443000	-0.046388
692.639000	-0.081619
692.834000	0.078028
693.029000	0.519841
693.224000	0.386149
693.419000	-0.243134
693.614000	-0.330983
693.809000	-0.473335
694.004000	-0.485180
694.199000	-0.443994
694.394000	-0.212038
694.589000	-0.511961
694.784000	-0.471196
694.979000	-0.168447
695.174000	-0.265452
695.370000	0.208807
695.565000	-0.053019
695.760000	-0.371430
695.955000	0.043836
696.150000	0.093805
696.345000	-0.365532
696.540000	-0.075914
696.740000	-0.223677
696.940000	-0.075918
697.140000	0.066771
697.340000	-0.149511
697.539000	0.005061
697.739000	-0.144024
697.939000	-0.135679
698.139000	-0.485235
698.339000	-0.908491
698.539000	-0.636597
698.739000	-0.587289
698.939000	-0.447515
699.138000	-0.559464
699.338000	0.084685
699.538000	0.316068
699.738000	-0.195118
699.938000	-0.312680
700.138000	-0.456621
700.338000	-0.509716
700.538000	-0.268757
700.737000	-0.251372
700.937000	-0.690374
701.137000	-0.720220
701.337000	-0.035301
701.537000	-0.015079
701.737000	-0.267034
701.937000	-0.331500
702.137000	-0.244428
702.337000	-0.419308
702.536000	-0.580420
702.736000	-0.540277
702.936000	-0.701760
703.136000	-0.191049
703.336000	-0.188076
703.536000	-0.341357
703.736000	-0.748782
703.936000	-0.676682
704.135000	-0.585263
704.335000	-0.253971
704.535000	-0.455559
704.735000	-0.648254
704.935000	-0.142242
705.135000	-0.163693
705.335000	-0.384418
705.535000	-0.176258
705.735000	-0.161343
705.934000	-0.158285
706.134000	-0.402394
706.334000	-0.385448
706.534000	-0.514471
706.734000	-0.544780
706.934000	-0.541760
707.134000	-0.559844
707.334000	-0.291307
707.533000	-0.231795
707.733000	-0.333638
707.933000	-0.508166
708.133000	-0.165584
708.333000	-0.015680
708.533000	-0.272484
708.733000	0.041682
708.933000	-0.260591
709.132000	-0.442837
709.332000	-0.416279
709.532000	-0.493218
709.732000	-0.276917
709.932000	-0.694558
710.132000	-0.672830
710.332000	-0.873184
710.532000	-0.314053
710.732000	-0.064692
710.931000	-0.412867
711.131000	-0.426744
711.331000	-0.282874
711.531000	-0.470823
711.731000	-0.425793
711.931000	-0.303055
712.131000	-0.345846
712.331000	-0.164036
712.530000	-0.268545
712.730000	-0.519360
712.930000	-0.330896
713.130000	-0.322763
713.330000	-0.490636
713.530000	-0.380381
713.730000	0.292112
713.930000	-0.041094
714.129000	-0.482666
714.329000	-0.690132
714.529000	-0.380967
714.729000	-0.006873
714.929000	-0.153705
715.129000	-0.448111
715.329000	-0.354561
715.529000	-0.340289
715.729000	0.313281
715.928000	0.033987
716.128000	-0.328118
716.328000	-0.205919
716.528000	-0.250421
716.728000	-0.218855
716.928000	-0.484564
717.128000	-0.298616
717.328000	-0.279550
717.527000	-0.467116
717.727000	-0.467572
717.927000	-0.328863
718.127000	-0.351370
718.327000	-0.796009
718.527000	-0.763683
718.727000	-0.269070
718.927000	-0.461642
719.127000	-0.720640
719.326000	-0.442410
719.526000	-0.003849
719.726000	-0.212757
719.926000	-0.749043
720.126000	-0.703995
720.326000	-0.436141
720.526000	-0.591094
720.726000	-0.524918
720.925000	-0.240282
721.125000	-0.670212
721.325000	-0.393459
721.525000	-0.404175
721.725000	-0.589731
721.925000	-0.519589
722.125000	-0.539216
722.325000	-0.039817
722.524000	-0.301824
722.724000	-0.784014
722.924000	-0.842960
723.124000	-0.571641
723.324000	-0.194466
723.524000	-0.092718
723.724000	-0.652246
723.924000	-0.525782
724.124000	-0.407027
724.323000	-0.066823
724.523000	-0.189057
724.723000	0.224574
724.923000	0.045723
725.123000	-0.143284
725.323000	-0.097022
725.523000	-0.296950
725.723000	-0.509473
725.922000	-0.466767
726.122000	-0.307306
726.322000	-0.518683
726.522000	-0.592787
726.722000	0.176428
726.922000	-0.164287
727.122000	-0.275435
727.322000	0.056365
727.521000	-0.162111
727.721000	-0.462125
727.921000	-0.408252
728.121000	-0.411517
728.321000	-0.830623
728.521000	-0.541862
728.721000	-0.346270
728.921000	-0.092125
729.121000	0.643906
729.320000	0.053662
729.520000	-0.408273
729.720000	-0.664113
729.920000	-0.516865
730.120000	-0.351885
730.320000	-0.304894
730.520000	-0.688004
730.720000	-0.580402
730.919000	-0.552857
731.119000	-0.193098
731.319000	-0.651136
731.519000	-0.781807
731.719000	-0.279626
731.919000	-0.465832
732.119000	-0.987738
732.319000	-0.983915
732.519000	-0.457928
732.718000	-0.645824
732.918000	-0.632494
733.118000	-0.435706
733.318000	-0.122851
733.518000	-0.478880
733.718000	-1.031792
733.918000	-0.829553
734.118000	-0.570556
734.317000	-0.390345
734.517000	-0.673744
734.717000	-0.518485
734.917000	0.038127
735.117000	-0.106728
735.317000	-0.269226
735.517000	0.222486
735.717000	0.471870
735.916000	-0.420056
736.116000	-0.629182
736.316000	-0.425853
736.516000	-0.350719
736.716000	-0.404496
736.916000	-0.886919
737.116000	-0.667708
737.316000	0.085793
737.516000	0.020949
737.715000	-0.127219
737.915000	-0.734734
738.115000	-0.737067
738.315000	-0.458104
738.515000	-0.791909
738.715000	-0.548319
738.915000	0.068723
739.115000	-0.454763
739.314000	-0.501909
739.514000	-0.044791
739.714000	0.010306
739.914000	-0.207457
740.114000	-0.344683
740.314000	-0.100669
740.514000	0.318038
740.714000	-0.532602
740.913000	-1.028765
741.113000	-0.840118
741.313000	-0.399915
741.513000	-0.393558
741.713000	-0.263327
741.913000	-0.275878
742.113000	-0.369536
742.313000	-0.902053
742.513000	-0.578275
742.712000	-0.489263
742.912000	-0.781058
743.112000	-0.616469
743.312000	-0.941087
743.512000	-0.580731
743.712000	-0.433309
743.912000	-1.051284
744.112000	-1.136358
744.311000	-1.139430
744.511000	-0.709867
744.711000	-0.232576
744.911000	-0.604325
745.111000	-0.655434
745.311000	-0.218122
745.511000	-0.521574
745.711000	-0.681564
745.911000	-0.343561
746.110000	-0.819173
746.310000	-1.012173
746.510000	-0.693144
746.710000	-0.177617
746.910000	-0.044051
747.110000	-0.690187
747.310000	-0.975528
747.510000	-0.745524
747.709000	-0.337780
747.909000	-0.338646
748.109000	-0.132407
748.309000	-0.440392
748.509000	-0.785304
748.709000	-0.896683
748.909000	-0.579130
749.109000	-0.609894
749.308000	-0.037148
749.508000	-0.268282
749.708000	-0.535934
749.908000	-0.240048
750.108000	-0.187892
750.308000	-0.988445
750.508000	-0.168572
750.708000	-0.774380
750.908000	-1.165722
751.107000	-0.354662
751.307000	0.179998
751.507000	-0.318600
751.707000	-0.194544
751.907000	-0.327241
752.107000	-0.291036
752.307000	-0.741270
752.507000	-0.543019
752.706000	-0.688524
752.906000	0.283179
753.106000	-0.520543
753.306000	-1.114908
753.506000	-0.165247
753.706000	-0.545728
753.906000	-0.300788
754.106000	-0.005076
754.305000	-0.187215
754.505000	-0.204693
754.705000	-0.372338
754.905000	-0.419928
755.105000	-0.172160
755.305000	-0.940054
755.505000	-0.770724
755.705000	-0.259239
755.905000	-0.337765
756.104000	-0.925981
756.304000	-1.426945
756.504000	-1.586254
756.704000	-0.502973
756.904000	-0.253961
757.104000	-0.610913
757.304000	-0.550435
757.504000	-0.062314
757.703000	-0.465949
757.903000	-0.040462
758.103000	0.113702
758.303000	-0.345600
758.503000	-0.616810
758.703000	-0.662664
758.903000	-0.734055
759.103000	-0.455375
759.303000	-0.475469
759.502000	-0.494935
759.702000	-0.063751
759.902000	-0.583008
760.102000	-0.616067
760.302000	-0.554603
760.502000	-0.127603
760.702000	-0.132318
760.902000	-0.514046
761.101000	-0.934502
761.301000	-1.114062
761.501000	-0.854297
761.701000	-1.011487
761.901000	-0.607662
762.101000	-0.162144
762.301000	-0.327978
762.501000	-0.826151
762.700000	-0.876270
762.900000	-0.820986
763.100000	-0.446212
763.300000	-0.285029
763.500000	-0.579013
763.703000	-0.693238
763.905000	-0.952395
764.108000	-0.160077
764.311000	-0.478424
764.513000	-0.647730
764.716000	-0.386824
764.919000	-0.472161
765.121000	-0.981457
765.324000	-1.017505
765.527000	-0.923112
765.729000	-0.818512
765.932000	-0.000952
766.135000	-0.091385
766.337000	-0.410492
766.540000	-0.622061
766.743000	-0.386022
766.945000	-0.841611
767.148000	-1.223869
767.351000	-1.122605
767.553000	-0.184580
767.756000	-0.615276
767.958000	-1.074688
768.161000	-0.668995
768.364000	-0.943541
768.566000	-1.218283
768.769000	-0.543266
768.972000	-0.269641
769.174000	-0.829027
769.377000	-1.337512
769.580000	-1.320666
769.782000	-0.463455
769.985000	-0.953561
770.188000	-1.915614
770.390000	-0.945641
770.593000	0.773645
770.796000	0.262380
770.998000	-0.398773
771.201000	-0.777479
771.404000	-0.434647
771.606000	-0.806688
771.809000	-0.706372
772.012000	-0.622525
772.214000	-1.581113
772.417000	-1.536132
772.620000	-0.361090
772.822000	-0.666289
773.025000	-1.004152
773.228000	-1.132286
773.430000	-0.977351
773.633000	-0.548395
773.836000	-0.452714
774.038000	-0.327064
774.241000	-0.525605
774.444000	-0.665155
774.646000	0.269523
774.849000	-0.231249
775.052000	-0.446050
775.254000	-0.262421
775.457000	-0.723048
775.659000	-0.611854
775.862000	-0.837905
776.065000	-0.643863
776.267000	-0.031939
776.470000	0.309437
776.673000	-0.441175
776.875000	0.056088
777.078000	-0.109923
777.281000	-0.880642
777.483000	-0.262110
777.686000	-0.152748
777.889000	-0.268120
778.091000	0.025223
778.294000	-1.034761
778.497000	-0.936265
778.699000	-0.789783
778.902000	-0.755548
779.105000	-0.634239
779.307000	0.115193
779.510000	-0.811328
779.713000	-0.490179
779.915000	-0.742498
780.118000	0.217842
780.321000	0.421250
780.523000	-0.424373
780.726000	-0.864108
780.929000	-1.131724
781.131000	-0.993937
781.334000	-1.493211
781.537000	-1.459575
781.739000	-0.368742
781.942000	-0.915565
782.145000	-1.431577
782.347000	-1.383497
782.550000	-0.959594
782.753000	-1.104810
782.955000	-1.069462
783.158000	-0.964795
783.361000	-0.720168
783.563000	-0.665386
783.766000	-0.694633
783.968000	0.991179
784.171000	0.801898
784.374000	-0.482954
784.576000	-0.543716
784.779000	-0.133780
784.982000	0.199047
785.184000	-0.576901
785.387000	-0.023514
785.590000	0.614404
785.792000	0.324656
785.995000	0.100134
786.198000	-0.158897
786.400000	-0.555658
786.603000	-0.528705
786.806000	-0.725007
787.008000	-0.498746
787.211000	-0.387044
787.414000	-1.020462
787.616000	-0.795677
787.819000	-0.717338
788.022000	-1.355143
788.224000	-0.886888
788.427000	-1.382303
788.630000	-0.705704
788.832000	-0.508802
789.035000	-1.135783
789.238000	-1.603752
789.440000	-1.316324
789.643000	-0.088270
789.846000	-0.618485
790.048000	-0.252197
790.251000	-0.164668
790.454000	-0.513995
790.656000	0.250342
790.859000	-0.528811
791.062000	-1.005453
791.264000	-0.376734
791.467000	-1.209235
791.669000	-1.712635
791.872000	-0.861189
792.075000	-1.203798
792.277000	-0.907735
792.480000	-0.722033
792.683000	-1.088409
792.885000	-1.327336
793.088000	-1.296392
793.291000	-1.485125
793.493000	-1.481838
793.696000	-0.570899
793.899000	-0.337952
794.101000	-0.682293
794.304000	-0.907350
794.507000	-0.569901
794.709000	-0.274215
794.912000	-0.835699
795.115000	-1.246196
795.317000	-0.971302
795.520000	-0.669158
795.723000	-0.905652
795.925000	-1.301313
796.128000	-1.422715
796.331000	-1.013744
796.533000	-1.535993
796.736000	-0.822234
796.939000	-0.500007
797.141000	-0.820125
797.344000	-0.220244
797.547000	-0.095146
797.749000	-0.389908
797.952000	-0.940026
798.155000	-1.283740
798.357000	-1.525479
798.560000	-1.222438
798.763000	-0.541335
798.965000	-0.820120
799.168000	-0.803414
799.371000	-0.530286
799.573000	-0.839009
799.776000	-1.570375
799.978000	-1.524414
800.181000	-0.773969
800.384000	0.791933
800.586000	0.043956
800.789000	-1.403401
800.992000	-1.273311
801.194000	-1.586741
801.397000	-1.649234
801.600000	-1.427022
801.802000	-0.059983
802.005000	-0.276013
802.208000	-1.575542
802.410000	-0.650124
802.613000	-0.527924
802.816000	-0.699887
803.018000	-1.481473
803.221000	-1.378316
803.424000	0.131352
803.626000	-0.267098
803.829000	-0.707865
804.032000	0.212520
804.234000	0.967402
804.437000	-0.491154
804.640000	-0.725386
804.842000	-0.747204
805.045000	-1.297905
805.248000	-0.968823
805.450000	-0.974637
805.653000	-0.926401
805.856000	-0.898212
806.058000	0.128126
806.261000	-0.964576
806.464000	-1.157008
806.666000	-0.549285
806.869000	-0.904340
807.072000	-2.227524
807.274000	-2.380712
807.477000	-1.204670
807.679000	-0.783480
807.882000	-1.284752
808.085000	-1.153736
808.287000	-0.483762
808.490000	-1.332198
808.693000	-1.171927
808.895000	-0.794326
809.098000	-0.766629
809.301000	-0.874851
809.503000	-1.154549
809.706000	0.019917
809.909000	0.226158
810.111000	0.005697
810.314000	-0.451129
810.517000	-1.068658
810.719000	-1.189161
810.922000	-0.921155
811.125000	-0.159171
811.327000	-0.051918
811.530000	-0.479251
811.735000	-0.868867
811.940000	-1.269268
812.146000	-1.070904
812.351000	-0.336139
812.556000	-0.724070
812.761000	-1.451271
812.967000	-0.464763
813.172000	-0.265929
813.377000	-0.406761
813.582000	0.146523
813.788000	-0.441112
813.993000	-1.443396
814.198000	-0.633871
814.403000	-1.481186
814.609000	-0.607576
814.814000	-0.565218
815.019000	0.343613
815.224000	0.178467
815.429000	-1.020547
815.635000	-0.493703
815.840000	-0.524560
816.045000	-0.443187
816.250000	-0.154069
816.456000	-1.308004
816.661000	-2.204334
816.866000	-1.678422
817.071000	-1.492871
817.277000	-2.291658
817.482000	-1.481844
817.687000	-0.861277
817.892000	-0.866153
818.097000	-0.157828
818.303000	0.365658
818.508000	0.466318
818.713000	7.424165
818.918000	3.976282
819.124000	0.312452
819.329000	-0.955527
819.534000	-1.227225
819.739000	-1.361764
819.945000	-1.241062
820.150000	-0.848591
820.355000	-0.738156
820.560000	-0.472681
820.766000	-0.609976
820.971000	-0.742312
821.176000	-2.212976
821.381000	-2.866477
821.586000	-1.758368
821.792000	-0.017873
821.997000	-0.668410
822.202000	-0.896974
822.407000	-1.487516
822.613000	-1.654266
822.818000	-0.920343
823.023000	-0.642233
823.228000	-0.902619
823.434000	-0.191613
823.639000	0.155606
823.844000	-0.972609
824.049000	-0.184368
824.255000	0.073319
824.460000	-0.746659
824.665000	-1.141664
824.870000	-0.203538
825.075000	-0.380643
825.281000	-0.288876
825.486000	0.975429
825.691000	-1.618529
825.896000	-2.798322
826.102000	-0.982837
826.307000	-0.814183
826.512000	-1.186354
826.717000	-1.060851
826.923000	-1.107057
827.128000	-0.936398
827.333000	-1.647981
827.538000	-0.814837
827.744000	-0.106922
827.949000	-1.112684
828.154000	-0.880052
828.359000	0.112365
828.564000	-0.495830
828.770000	-0.869962
828.975000	0.273478
829.180000	-0.465842
829.385000	-1.937594
829.591000	-1.506786
829.796000	-0.902107
830.001000	-1.012073
830.206000	-1.458656
830.412000	-1.348694
830.617000	-1.342890
830.822000	-0.056461
831.027000	-0.801409
831.232000	-1.400462
831.438000	-1.437972
831.643000	-1.005205
831.848000	-1.201452
832.053000	-1.048568
832.259000	-1.040592
832.464000	-2.754801
832.669000	-2.279384
832.874000	-1.865647
833.080000	-1.995577
833.285000	-0.180006
833.490000	-0.283336
833.695000	-1.720652
833.901000	-1.529496
834.106000	-1.693375
834.311000	-1.224645
834.516000	-0.614218
834.721000	-1.271927
834.927000	-0.224135
835.132000	-0.698891
835.337000	1.083829
835.542000	-0.304262
835.748000	-2.036162
835.953000	0.007813
836.158000	-0.178191
836.363000	-0.660576
836.569000	-0.566635
836.774000	-1.371443
836.979000	-1.800345
837.184000	-2.183187
837.390000	-1.817987
837.595000	-1.082509
837.800000	-0.964662
838.005000	-0.839413
838.210000	-1.203142
838.416000	-1.481383
838.621000	-0.987536
838.826000	-1.210312
839.031000	-1.073646
839.237000	-1.708874
839.442000	-2.586976
839.647000	-2.665378
839.852000	-1.613146
840.058000	-1.380586
840.263000	-1.501940
840.468000	-2.483509
840.673000	-1.315912
840.878000	-1.108413
841.084000	-1.996955
841.289000	-1.286235
841.494000	1.418151
841.699000	1.486648
841.905000	0.530972
842.110000	0.576719
842.315000	-1.506100
842.520000	-0.914343
842.726000	-1.432883
842.931000	-2.033646
843.136000	-0.738360
843.341000	-2.259960
843.547000	-1.580475
843.752000	-1.113702
843.957000	-1.913852
844.162000	-2.165786
844.367000	-1.407179
844.573000	-0.691064
844.778000	-0.545185
844.983000	-0.702037
845.188000	-0.649812
845.394000	-2.165326
845.599000	-1.654285
845.804000	-1.411841
846.009000	-0.808450
846.215000	-2.078400
846.420000	-1.683678
846.625000	-0.438356
846.830000	0.100619
847.036000	-1.174218
847.241000	-1.825334
847.446000	0.020766
847.651000	-0.697435
847.856000	-2.153341
848.062000	-2.136279
848.267000	-0.412839
848.472000	-1.426410
848.677000	-2.657793
848.883000	-0.850307
849.088000	0.794677
849.293000	-0.945907
849.498000	-1.469535
849.704000	-0.528697
849.909000	-1.273600
850.114000	-2.329011
850.319000	-1.300529
850.524000	-1.404367
850.730000	-1.108475
850.935000	-1.454616
851.140000	-0.761037
851.345000	-0.418389
851.551000	-0.235592
851.756000	0.034542
851.961000	-1.375460
852.166000	-1.747444
852.372000	-1.379742
852.577000	-1.214846
852.782000	-1.538890
852.987000	-0.015069
853.193000	-0.481420
853.398000	-0.784117
853.603000	-2.125131
853.808000	-2.669817
854.013000	-1.719959
854.219000	-0.168230
854.424000	1.699063
854.629000	1.279675
854.834000	-1.254657
855.040000	-0.652133
855.245000	-0.132062
855.450000	-2.868030
855.655000	-3.945178
855.861000	-3.330719
856.066000	-2.199917
856.271000	-2.559280
856.476000	-0.452260
856.682000	-1.144294
856.887000	-4.021399
857.092000	-2.421614
857.297000	0.130776
857.502000	-0.644469
857.708000	-1.114612
857.913000	-0.150304
858.118000	-1.099750
858.323000	-1.170900
858.529000	-1.033464
858.734000	-1.362661
858.939000	-1.134807
859.144000	-1.822930
859.350000	-2.945570
859.555000	-2.666442
859.760000	-0.292671
859.965000	0.383675
860.171000	-1.846274
860.376000	-0.893586
860.581000	-2.640481
860.786000	-5.048076
860.991000	-4.000331
861.197000	-2.858450
861.402000	-1.328928
861.607000	-1.809738
861.812000	-3.235254
862.018000	-2.963031
862.223000	-1.614058
862.428000	-1.150269
862.633000	-0.390293
862.839000	-0.652643
863.044000	-1.502562
863.249000	-2.456820
863.454000	-0.802311
863.659000	-1.694051
863.865000	-2.815967
864.070000	-2.691146
864.275000	-2.695649
864.480000	-2.279317
864.686000	-4.201604
864.891000	-3.269647
865.096000	-1.181402
865.301000	-1.108888
865.507000	-0.995152
865.712000	-0.724519
865.917000	-1.651993
866.122000	-0.867682
866.328000	-3.893151
866.533000	-3.143446
866.738000	0.027475
866.943000	-0.186614
867.148000	0.381480
867.354000	-1.894464
867.559000	-3.445759
867.764000	-2.075690
867.969000	-0.911545
868.175000	-2.563068
868.380000	-2.838349
868.585000	-3.343952
868.790000	-1.309461
868.996000	-1.745870
869.201000	-3.450058
869.406000	-4.390198
869.611000	-3.310088
869.817000	-2.779809
870.022000	1.774794
870.227000	-0.147727
870.432000	-2.375274
870.637000	-0.988675
870.843000	-1.969341
871.048000	-2.311680
871.253000	-0.279774
871.458000	-1.164014
871.664000	-3.672184
871.869000	-4.008324
872.074000	-2.775436
872.279000	-1.280864
872.485000	-2.257627
872.690000	-2.720228
872.895000	-2.899872
873.100000	-3.358521
873.306000	-3.084961
873.511000	-1.708380
873.716000	0.150366
873.921000	-2.048505
874.126000	-2.785758
874.332000	-1.934079
874.537000	-1.164109
874.742000	-0.901345
874.947000	-1.303997
875.153000	0.539094
875.358000	-0.810537
875.563000	-1.633594
875.768000	-4.403868
875.974000	-4.828460
876.179000	-1.296239
876.384000	-1.124596
876.589000	-2.768734
876.794000	-2.214632
877.000000	-3.115995
877.205000	-4.279962
877.410000	-1.574518
877.615000	-3.104054
877.821000	-4.968343
878.026000	-3.697159
878.231000	-4.132894
878.436000	-4.249159
878.642000	-3.049281
878.847000	-1.511485
879.052000	-0.334183
879.257000	-2.596689
879.463000	-4.009838
879.668000	-2.842247
879.873000	-0.655648
880.078000	-3.402037
880.283000	-5.046073
880.489000	-5.064708
880.694000	-4.427813
880.899000	-2.355795
881.104000	-0.746555
881.310000	1.386424
881.515000	-0.498387
881.720000	0.758913
881.925000	2.163018
882.131000	3.793190
882.336000	0.614517
882.541000	-3.704413
882.746000	-3.272518
882.952000	-3.874755
883.157000	-3.962692
883.362000	-3.693989
883.567000	-4.221916
883.772000	-4.639085
883.978000	-3.588672
884.183000	-2.019972
884.388000	-1.915683
884.593000	-4.446496
884.799000	-0.144077
885.004000	0.158288
885.209000	-1.080069
885.414000	-1.035903
885.620000	-4.405902
885.825000	-1.215096
886.030000	-1.581452
886.235000	-3.198820
886.440000	-2.269458
886.646000	-4.946005
886.851000	-4.908011
887.056000	-0.214441
887.261000	-0.656463
887.467000	-4.335078
887.672000	-1.705860
887.877000	-3.125545
888.082000	-5.395928
888.288000	-5.440446
888.493000	-7.727272
888.698000	-5.588703
888.903000	-2.456490
889.109000	-3.837355
889.314000	-0.632700
889.519000	-1.925421
889.724000	-0.025940
889.929000	-1.519249
890.135000	-1.827135
890.340000	-2.321732
890.545000	-3.806605
890.750000	-4.778617
890.956000	-3.432195
891.161000	-1.035631
891.366000	-3.260896
891.571000	-2.121691
891.777000	-1.902914
891.982000	0.106480
892.187000	-0.806481
892.392000	-0.071122
892.598000	0.062587
892.803000	-0.568259
893.008000	-3.158372
893.213000	-3.442115
893.418000	-3.217485
893.624000	-4.416107
893.829000	-6.488254
894.034000	-3.903075
894.239000	-2.089436
894.445000	-4.073193
894.650000	-3.886970
894.855000	-3.201779
895.060000	-4.183840
895.266000	-4.002587
895.471000	-4.976126
895.676000	-1.536105
895.881000	-1.268482
896.087000	-2.954122
896.292000	-3.750836
896.497000	0.232027
896.702000	-2.268523
896.907000	-3.759940
897.113000	0.943457
897.318000	0.919287
897.523000	0.161537
897.728000	-2.604079
897.934000	-2.714536
898.139000	-2.245310
898.344000	-0.052931
898.549000	-1.311455
898.755000	-3.348703
898.960000	-4.027655
899.165000	-5.785649
899.370000	-1.890971
899.575000	1.419392
899.781000	-3.354154
899.986000	-4.167052
900.191000	-2.012565
900.396000	-2.982649
900.602000	-2.601147
900.807000	-3.222877
901.012000	-2.004012
901.217000	-0.512393
901.423000	-3.114377
901.628000	-4.494442
901.833000	-0.158038
902.038000	0.251744
902.244000	-3.975855
902.449000	-3.097370
902.654000	-3.520616
902.859000	-1.849712
903.064000	0.125297
903.270000	-1.026942
903.475000	-5.143891
903.680000	-7.050574
903.885000	-5.707597
904.091000	-5.153187
904.296000	-6.665564
904.501000	-5.274441
904.706000	-4.566930
904.912000	-0.954709
905.117000	-2.592872
905.322000	-5.139979
905.527000	-4.815514
905.733000	-4.299070
905.938000	-3.775596
906.143000	-4.767854
906.348000	-6.778460
906.553000	-1.605712
906.759000	-0.201991
906.964000	-2.232933
907.169000	-3.464664
907.374000	-6.031228
907.580000	-4.413844
907.785000	-4.171677
907.990000	24.337194
908.195000	15.960689
908.401000	-0.853854
908.606000	-7.738671
908.811000	-9.346497
909.016000	-2.264595
909.221000	-1.889214
909.427000	-4.030779
909.632000	-5.409618
909.837000	-4.274881
910.042000	-6.367583
910.248000	-8.126253
910.453000	-4.055290
910.658000	-5.098552
910.863000	-5.307754
911.069000	-6.926455
911.274000	-2.051059
911.479000	-0.317969
911.684000	-7.294354
911.890000	-4.398316
912.095000	-4.497970
912.300000	-6.870990
912.506000	-5.735169
912.711000	-5.678455
912.917000	-3.598710
913.123000	-3.216692
913.328000	-3.204267
913.534000	-2.516517
913.740000	7.182335
913.946000	2.368699
914.151000	-5.190414
914.357000	-6.277033
914.563000	-1.558508
914.768000	-5.564170
914.974000	-8.616192
915.180000	-7.545435
915.385000	-5.768691
915.591000	-8.434059
915.797000	-3.319796
916.002000	-0.006948
916.208000	-3.222985
916.414000	-5.880470
916.620000	-7.960167
916.825000	-4.119075
917.031000	-4.051868
917.237000	-10.388500
917.442000	-6.181906
917.648000	-6.770009
917.854000	-7.808051
918.059000	-1.201703
918.265000	-0.549488
918.471000	-4.076632
918.676000	-7.682182
918.882000	-9.359301
919.088000	-7.080468
919.294000	-11.538445
919.499000	-7.785556
919.705000	-2.614353
919.911000	-3.558689
920.116000	-1.762814
920.322000	-8.476008
920.528000	-5.901772
920.733000	-7.976269
920.939000	-9.146605
921.145000	-8.382359
921.350000	-6.349547
921.556000	-4.283832
921.762000	-5.229737
921.968000	-5.644406
922.173000	-7.211438
922.379000	-10.321785
922.585000	-5.732852
922.790000	-6.357456
922.996000	-7.191331
923.202000	-8.239205
923.407000	-9.005501
923.613000	-6.449570
923.819000	-3.854590
924.024000	-4.586881
924.230000	-2.840505
924.436000	-5.283075
924.642000	5.202362
924.847000	0.861553
925.053000	-5.789835
925.259000	-10.933839
925.464000	-5.309836
925.670000	-6.093486
925.876000	-8.508518
926.081000	-8.687660
926.287000	-4.424569
926.493000	-2.550875
926.698000	-4.373728
926.904000	-2.313530
927.110000	-5.054830
927.316000	-5.167450
927.521000	1.650885
927.727000	-4.175230
927.933000	-6.214794
928.138000	-5.392098
928.344000	-11.807351
928.550000	-7.136978
928.755000	-1.751511
928.961000	-7.928940
929.167000	-6.665544
929.372000	1.063305
929.578000	-1.437356
929.784000	-7.150132
929.990000	-10.470686
930.195000	-7.102149
930.401000	-6.349945
930.607000	-5.255620
930.812000	-3.371617
931.018000	-7.221248
931.224000	-13.537243
931.429000	-10.891093
931.635000	-13.257143
931.841000	-12.547545
932.046000	-8.218815
932.252000	-3.713882
932.458000	3.405802
932.664000	-1.090464
932.869000	-7.198104
933.075000	-10.511594
933.281000	-11.047472
933.486000	-2.862610
933.692000	-5.178172
933.898000	-9.489479
934.103000	-1.653849
934.309000	-6.025743
934.515000	-4.302647
934.720000	-2.312066
934.926000	0.880244
935.132000	-0.904762
935.338000	-4.103509
935.543000	-11.547244
935.749000	-13.626894
935.955000	-14.184696
936.160000	-13.096935
936.366000	-3.604079
936.572000	-5.152857
936.777000	-3.160239
936.983000	2.089867
937.189000	-4.186016
937.394000	-9.881476
937.600000	-0.822783
937.806000	3.926497
938.012000	-5.189187
938.217000	4.087724
938.423000	1.316282
938.629000	-8.346998
938.834000	-15.529957
939.040000	-13.344242
939.246000	-9.356801
939.451000	-13.768235
939.657000	-7.731175
939.863000	-12.088656
940.068000	-3.401408
940.274000	-9.031419
940.480000	-5.236048
940.686000	-3.533614
940.891000	-7.612443
941.097000	19.135543
941.303000	5.046484
941.508000	-8.847207
941.714000	-4.735641
941.920000	-14.927978
942.125000	-5.962456
942.331000	-4.353545
942.537000	2.109708
942.742000	1.057311
942.948000	-6.956129
943.154000	-11.733439
943.360000	-25.030246
943.565000	-9.117042
943.771000	3.300431
943.977000	3.362360
944.182000	-15.956503
944.388000	-16.618689
944.594000	-1.648042
944.799000	5.705270
945.005000	-3.512484
945.211000	1.265510
945.416000	-0.798805
945.622000	-14.554264
945.828000	-14.095391
946.034000	-2.611204
946.239000	-1.007149
946.445000	-8.782820
946.651000	-19.668487
946.856000	-17.333341
947.062000	-3.830081
947.268000	-0.910665
947.473000	-16.333073
947.679000	-20.130285
947.885000	-5.174852
948.090000	0.345895
948.296000	14.421594
948.502000	-1.386724
948.708000	-11.337900
948.913000	-15.197427
949.119000	-2.531975
949.325000	-8.681244
949.530000	-22.668049
949.736000	-27.234329
949.942000	-15.562340
950.147000	-16.887155
950.353000	-15.265309
950.559000	-10.282125
950.764000	12.860599
950.970000	6.840604
951.176000	-10.665136
951.382000	-15.749351
951.587000	-4.221713
951.793000	1.652630
951.999000	2.113995
952.204000	-12.749215
952.410000	-26.416381
952.616000	-13.114994
952.821000	-6.997415
953.027000	-13.805565
953.233000	-19.489365
953.438000	-19.729320
953.644000	0.477603
953.850000	-4.998263
954.056000	-13.503275
954.261000	-12.777226
954.467000	-2.455890
954.673000	5.245826
954.878000	-4.796405
955.084000	-8.261637
955.290000	-23.311662
955.495000	-25.223955
955.701000	-19.843288
955.907000	0.707549
956.112000	-1.893928
956.318000	8.436575
956.524000	8.533768
956.730000	-10.087936
956.935000	-14.688763
957.141000	-17.439193
957.347000	-5.591582
957.552000	-8.153890
957.758000	-22.079880
957.964000	-32.255637
958.169000	1.173875
958.375000	0.305281
958.581000	-12.950159
958.786000	-24.151556
958.992000	-29.311642
959.198000	-9.543038
959.404000	-4.040277
959.609000	-12.727345
959.815000	-17.260055
960.021000	1.113794
960.226000	-7.934375
960.432000	-31.227908
960.638000	-21.563512
960.843000	-13.504938
961.049000	-14.022974
961.255000	-3.551088
961.460000	-17.196364
961.666000	-35.356949
961.872000	-22.461904
962.078000	-21.239734
962.283000	-27.359536
962.489000	-26.456968
962.695000	-17.324943
962.900000	-12.441021
963.106000	-12.575631
963.312000	-18.597492
963.517000	-22.742364
963.723000	-24.662863
963.929000	-1.162845
964.134000	9.688225
964.340000	-16.225613
964.546000	-20.931035
964.752000	-25.513531
964.957000	-30.953211
965.163000	-2.656939
965.369000	-6.423043
965.574000	-4.065973
965.780000	-9.324510
966.000000	-19.446385
966.220000	-16.578106
966.440000	-15.302013
966.661000	-2.634362
966.881000	-21.497507
967.101000	-39.243619
967.321000	-39.041825
967.541000	-14.529387
967.761000	-21.468072
967.981000	-14.123712
968.202000	-10.272804
968.422000	-0.898134
968.642000	-5.227812
968.862000	-5.779371
969.082000	-12.356458
969.302000	-3.864428
969.522000	-13.143152
969.743000	-0.616446
969.963000	-17.131046
970.183000	-31.245017
970.403000	-29.761442
970.623000	-26.545618
970.843000	-3.595390
971.063000	-3.178783
971.284000	-24.413178
971.504000	-38.028612
971.724000	-15.149986
971.944000	-28.941754
972.164000	-40.510945
972.384000	-32.887090
972.604000	-42.714912
972.825000	-44.772016
973.045000	-32.617231
973.265000	22.513523
973.485000	9.151708
973.705000	-12.008400
973.925000	-18.267727
974.145000	-49.646481
974.365000	-13.907742
974.586000	-15.778154
974.806000	-32.273908
975.026000	-2.909611
975.246000	-18.501095
975.466000	-35.078350
975.686000	-17.375206
975.906000	-23.476178
976.127000	-49.488970
976.347000	-37.906611
976.567000	-6.946761
976.787000	-14.086258
977.007000	-21.499572
977.227000	-25.008482
977.447000	-28.045831
977.668000	-49.102748
977.888000	-33.429454
978.108000	-35.442594
978.328000	-22.225624
978.548000	4.727848
978.768000	9.874776
978.988000	-3.636012
979.209000	-18.770904
979.429000	-25.228331
979.649000	-12.662379
979.869000	-33.863837
980.089000	-48.654814
980.309000	-52.059849
980.529000	-59.806229
980.750000	-35.630750
980.970000	-50.299181
981.190000	-33.701033
981.410000	-33.136909
981.630000	-45.240862
981.850000	-29.730677
982.070000	-20.527418
982.291000	-52.148140
982.511000	-51.953451
982.731000	-14.095742
982.951000	-35.351555
983.171000	-36.759166
983.391000	-28.420807
983.611000	1.670912
983.832000	-27.416443
984.052000	-57.827884
984.272000	-35.974134
984.492000	-23.243246
984.712000	-38.747362
984.932000	-61.114805
985.152000	-63.459292
985.373000	-46.310291
985.593000	-20.226988
985.813000	-27.864363
986.033000	-39.805211
986.253000	1.623494
986.473000	6.867156
986.693000	-28.009140
986.914000	-42.222420
987.134000	5.679028
987.354000	-31.280307
987.574000	187.274792
987.794000	105.969502
988.014000	-58.753793
988.234000	-34.726360
988.455000	-14.934507
988.675000	-17.811834
988.895000	-18.755382
989.115000	-39.864506
989.335000	-20.999985
989.555000	-3.229825
989.775000	-52.954116
989.995000	-49.113294
990.216000	-28.433657
990.436000	-22.444466
990.656000	13.995939
990.876000	-24.811005
991.096000	-14.446637
991.316000	11.124138
991.536000	-25.765326
991.757000	-34.594657
991.977000	-74.581406
992.197000	-24.350740
992.417000	-44.132060
992.637000	-88.564241
992.857000	-97.474836
993.077000	-86.418498
993.298000	-47.131541
993.518000	-46.579547
993.738000	-101.579186
993.958000	-51.598353
994.178000	-60.080779
994.398000	-48.975843
994.618000	-92.408982
994.839000	-142.273539
995.059000	-40.829735
995.279000	31.327869
995.499000	-7.452945
995.719000	-12.608071
995.939000	-37.737605
996.159000	-41.195566
996.380000	-20.872362
996.600000	-71.695043
996.820000	-40.380450
997.040000	12.204141
997.260000	-65.079393
997.480000	-37.543256
997.700000	-103.622845
997.921000	-77.040656
998.141000	12.774936
998.361000	-20.976805
998.581000	-64.562893
998.801000	-95.706982
999.021000	-73.964355
999.241000	-36.429838
999.462000	-72.609537
999.682000	-119.090307
999.902000	-82.039869
1000.122000	-100.336165
1000.342000	-154.608078
1000.562000	-79.911529
1000.782000	-78.514211
1001.003000	-1075.887871
