Wavelength	Irradiance
(nm)	(mW/cm2/nm)

294.396000	0.000000
294.577000	0.000000
294.757000	-0.000000
294.938000	-0.000000
295.118000	-0.000000
295.299000	0.000000
295.479000	-0.000000
295.660000	-0.000000
295.840000	-0.000000
296.021000	-0.000000
296.202000	-0.000000
296.382000	-0.000000
296.563000	-0.000000
296.743000	-0.000000
296.924000	0.000000
297.104000	-0.000000
297.285000	-0.000000
297.465000	-0.000000
297.646000	-0.000000
297.826000	-0.000000
298.007000	0.000000
298.187000	-0.000000
298.368000	-0.000000
298.548000	0.000000
298.729000	0.000000
298.909000	-0.000000
299.090000	-0.000000
299.270000	-0.000000
299.451000	-0.000000
299.631000	-0.000000
299.812000	-0.000000
299.992000	0.000000
300.173000	0.000000
300.353000	-0.000000
300.534000	0.000000
300.714000	0.000000
300.895000	0.000000
301.075000	-0.000000
301.256000	0.000000
301.436000	-0.000000
301.617000	-0.000000
301.797000	-0.000000
301.978000	-0.000000
302.159000	0.000000
302.339000	0.000000
302.520000	-0.000000
302.700000	-0.000000
302.881000	0.000000
303.061000	0.000000
303.242000	0.000000
303.422000	0.000000
303.603000	-0.000000
303.783000	-0.000000
303.964000	-0.000000
304.144000	-0.000000
304.325000	-0.000000
304.505000	-0.000000
304.686000	-0.000000
304.866000	0.000000
305.047000	-0.000000
305.227000	-0.000000
305.408000	-0.000000
305.588000	-0.000000
305.769000	-0.000000
305.949000	-0.000000
306.130000	-0.000000
306.310000	-0.000000
306.491000	-0.000000
306.671000	0.000000
306.852000	-0.000000
307.032000	-0.000000
307.213000	-0.000000
307.393000	-0.000000
307.574000	0.000000
307.755000	0.000000
307.935000	-0.000000
308.116000	-0.000000
308.296000	-0.000000
308.477000	0.000000
308.657000	0.000000
308.838000	0.000000
309.018000	0.000000
309.199000	-0.000000
309.379000	-0.000000
309.560000	0.000000
309.740000	-0.000000
309.921000	0.000000
310.101000	0.000000
310.282000	-0.000000
310.462000	-0.000000
310.643000	-0.000000
310.823000	-0.000000
311.004000	-0.000000
311.184000	-0.000000
311.365000	0.000000
311.545000	0.000000
311.726000	0.000000
311.906000	-0.000000
312.087000	0.000000
312.267000	-0.000000
312.448000	-0.000000
312.628000	-0.000000
312.809000	-0.000000
312.989000	-0.000000
313.170000	-0.000000
313.344000	-0.000000
313.518000	-0.000000
313.691000	-0.000000
313.865000	-0.000000
314.039000	-0.000000
314.213000	-0.000000
314.387000	-0.000000
314.560000	-0.000000
314.734000	-0.000000
314.908000	-0.000000
315.082000	-0.000000
315.255000	0.000000
315.429000	0.000000
315.603000	0.000000
315.777000	-0.000000
315.951000	0.000000
316.124000	-0.000000
316.298000	-0.000000
316.472000	-0.000000
316.646000	-0.000000
316.820000	-0.000000
316.993000	0.000000
317.167000	-0.000000
317.341000	-0.000000
317.515000	-0.000000
317.688000	-0.000000
317.862000	-0.000000
318.036000	-0.000000
318.210000	-0.000000
318.384000	-0.000000
318.557000	-0.000000
318.731000	-0.000000
318.905000	-0.000000
319.079000	-0.000000
319.253000	-0.000000
319.426000	0.000000
319.600000	0.000000
319.774000	-0.000000
319.948000	-0.000000
320.122000	0.000000
320.295000	0.000000
320.469000	-0.000000
320.643000	-0.000000
320.817000	-0.000000
320.990000	-0.000000
321.164000	-0.000000
321.338000	-0.000000
321.512000	-0.000000
321.686000	-0.000000
321.859000	-0.000000
322.033000	-0.000000
322.207000	-0.000000
322.381000	-0.000000
322.555000	0.000000
322.728000	0.000000
322.902000	-0.000000
323.076000	-0.000000
323.250000	-0.000000
323.423000	-0.000000
323.597000	-0.000000
323.771000	-0.000000
323.945000	-0.000000
324.119000	-0.000000
324.292000	-0.000000
324.466000	-0.000000
324.640000	0.000000
324.814000	0.000000
324.988000	-0.000000
325.161000	-0.000000
325.335000	-0.000000
325.509000	-0.000000
325.683000	-0.000000
325.856000	-0.000000
326.030000	-0.000000
326.204000	-0.000000
326.378000	-0.000000
326.552000	-0.000000
326.725000	-0.000000
326.899000	-0.000000
327.073000	-0.000000
327.247000	-0.000000
327.421000	0.000000
327.594000	-0.000000
327.768000	-0.000000
327.942000	-0.000000
328.116000	0.000000
328.289000	0.000000
328.463000	-0.000000
328.637000	0.000000
328.811000	-0.000000
328.985000	-0.000000
329.158000	-0.000000
329.332000	-0.000000
329.506000	0.000000
329.680000	-0.000000
329.854000	-0.000000
330.027000	-0.000000
330.201000	0.000000
330.375000	0.000000
330.549000	0.000000
330.723000	-0.000000
330.896000	-0.000000
331.070000	-0.000000
331.244000	-0.000000
331.418000	-0.000000
331.591000	-0.000000
331.765000	-0.000000
331.939000	-0.000000
332.113000	-0.000000
332.287000	-0.000000
332.460000	0.000000
332.634000	0.000000
332.808000	-0.000000
332.982000	-0.000000
333.156000	-0.000000
333.329000	-0.000000
333.503000	-0.000000
333.677000	-0.000000
333.851000	-0.000000
334.024000	-0.000000
334.198000	-0.000000
334.372000	-0.000000
334.546000	-0.000000
334.720000	-0.000000
334.893000	-0.000000
335.067000	-0.000000
335.241000	-0.000000
335.415000	-0.000000
335.589000	-0.000000
335.762000	-0.000000
335.936000	-0.000000
336.110000	-0.000000
336.284000	-0.000000
336.458000	-0.000000
336.631000	-0.000000
336.805000	-0.000000
336.979000	-0.000000
337.153000	-0.000000
337.326000	-0.000000
337.500000	-0.000000
337.674000	-0.000000
337.848000	-0.000000
338.022000	-0.000000
338.195000	-0.000000
338.369000	-0.000000
338.543000	-0.000000
338.717000	-0.000000
338.891000	0.000000
339.064000	0.000000
339.238000	-0.000000
339.412000	-0.000000
339.586000	-0.000000
339.759000	-0.000000
339.933000	-0.000000
340.107000	0.000000
340.281000	0.000000
340.455000	-0.000000
340.628000	-0.000000
340.802000	-0.000000
340.976000	-0.000000
341.150000	-0.000000
341.324000	-0.000000
341.497000	-0.000000
341.671000	-0.000000
341.845000	-0.000000
342.019000	-0.000000
342.192000	-0.000000
342.366000	-0.000000
342.540000	-0.000000
342.714000	-0.000000
342.888000	-0.000000
343.061000	-0.000000
343.235000	-0.000000
343.409000	-0.000000
343.583000	-0.000000
343.757000	-0.000000
343.930000	-0.000000
344.104000	-0.000000
344.278000	0.000000
344.452000	0.000000
344.626000	-0.000000
344.799000	-0.000000
344.973000	-0.000000
345.147000	-0.000000
345.321000	-0.000000
345.494000	-0.000000
345.668000	0.000000
345.842000	0.000000
346.016000	-0.000000
346.190000	0.000000
346.363000	0.000000
346.537000	-0.000000
346.711000	-0.000000
346.885000	-0.000000
347.059000	-0.000000
347.232000	0.000000
347.406000	0.000000
347.580000	-0.000000
347.754000	-0.000000
347.927000	-0.000000
348.101000	0.000000
348.275000	-0.000000
348.449000	-0.000000
348.623000	-0.000000
348.796000	0.000000
348.970000	0.000000
349.144000	-0.000000
349.318000	-0.000000
349.492000	-0.000000
349.665000	-0.000000
349.839000	-0.000000
350.013000	-0.000000
350.187000	-0.000000
350.361000	-0.000000
350.534000	-0.000000
350.708000	-0.000000
350.882000	-0.000000
351.056000	0.000000
351.229000	-0.000000
351.403000	-0.000000
351.577000	-0.000000
351.751000	-0.000000
351.925000	-0.000000
352.098000	-0.000000
352.272000	-0.000000
352.446000	-0.000000
352.620000	-0.000000
352.794000	-0.000000
352.967000	-0.000000
353.141000	0.000000
353.315000	0.000000
353.489000	-0.000000
353.662000	-0.000000
353.836000	-0.000000
354.010000	-0.000000
354.184000	0.000000
354.358000	-0.000000
354.531000	-0.000000
354.705000	-0.000000
354.879000	-0.000000
355.053000	-0.000000
355.227000	0.000000
355.400000	-0.000000
355.574000	0.000000
355.748000	0.000000
355.922000	-0.000000
356.095000	-0.000000
356.269000	-0.000000
356.443000	-0.000000
356.617000	-0.000000
356.791000	-0.000000
356.964000	-0.000000
357.138000	-0.000000
357.312000	-0.000000
357.486000	-0.000000
357.660000	-0.000000
357.833000	-0.000000
358.007000	-0.000000
358.181000	-0.000000
358.355000	-0.000000
358.529000	-0.000000
358.702000	-0.000000
358.876000	-0.000000
359.050000	-0.000000
359.224000	-0.000000
359.397000	-0.000000
359.571000	-0.000000
359.745000	-0.000000
359.919000	-0.000000
360.093000	-0.055573
360.266000	0.025326
360.440000	0.075657
360.614000	0.142406
360.788000	0.032839
360.962000	-0.224010
361.135000	-0.099456
361.309000	-0.200177
361.483000	-0.309760
361.657000	-0.268192
361.830000	-0.247476
362.004000	-0.052895
362.178000	-0.381130
362.352000	-0.278077
362.526000	-0.087319
362.699000	-0.043108
362.873000	-0.352092
363.047000	-0.373504
363.221000	-0.362618
363.395000	-0.184729
363.568000	-0.185715
363.742000	-0.213788
363.916000	-0.215088
364.090000	-0.356542
364.263000	-0.315508
364.437000	-0.347050
364.611000	-0.068334
364.785000	-0.065658
364.959000	-0.237545
365.132000	-0.229987
365.306000	-0.289018
365.480000	-0.141769
365.656000	-0.209080
365.831000	-0.201446
366.007000	-0.220715
366.183000	-0.199204
366.358000	-0.301115
366.534000	-0.202618
366.710000	-0.404853
366.886000	-0.280970
367.061000	-0.043679
367.237000	0.043749
367.413000	-0.194669
367.588000	-0.381227
367.764000	-0.336848
367.940000	-0.313529
368.115000	-0.303279
368.291000	-0.323398
368.467000	-0.205217
368.643000	0.136740
368.818000	-0.213252
368.994000	-0.396783
369.170000	-0.303209
369.345000	-0.205121
369.521000	-0.234799
369.697000	-0.190746
369.872000	-0.273033
370.048000	-0.373527
370.224000	-0.288531
370.399000	-0.459724
370.575000	-0.338565
370.751000	-0.447445
370.927000	-0.432236
371.102000	-0.407761
371.278000	-0.338240
371.454000	-0.248277
371.629000	0.023564
371.805000	-0.071840
371.981000	0.079264
372.156000	0.266307
372.332000	0.057085
372.508000	0.027620
372.683000	-0.014939
372.859000	-0.126873
373.035000	-0.115904
373.211000	0.277554
373.386000	0.003292
373.562000	-0.402542
373.738000	-0.482833
373.913000	-0.610525
374.089000	-0.467014
374.265000	-0.097315
374.440000	-0.038111
374.616000	-0.007027
374.792000	-0.238062
374.968000	0.188470
375.143000	-0.021080
375.319000	-0.276057
375.495000	-0.353351
375.670000	-0.202786
375.846000	-0.129146
376.022000	-0.305453
376.197000	-0.225367
376.373000	-0.384217
376.549000	-0.426910
376.724000	-0.476889
376.900000	-0.324280
377.076000	-0.207165
377.252000	0.042423
377.427000	0.133609
377.603000	-0.270903
377.779000	-0.264999
377.954000	-0.416685
378.130000	-0.258384
378.306000	-0.213240
378.481000	-0.212365
378.657000	-0.288006
378.833000	-0.332693
379.009000	-0.156138
379.184000	-0.010706
379.360000	-0.071533
379.536000	-0.099866
379.711000	-0.151886
379.887000	-0.262787
380.063000	-0.320873
380.238000	-0.388390
380.414000	-0.097134
380.590000	-0.276756
380.765000	-0.293712
380.941000	-0.092766
381.117000	-0.059116
381.293000	-0.136580
381.468000	-0.315393
381.644000	-0.248056
381.820000	-0.115757
381.995000	-0.026369
382.171000	0.179130
382.347000	0.161141
382.522000	-0.279628
382.698000	0.040248
382.874000	0.094812
383.050000	-0.313031
383.225000	0.024704
383.401000	0.205758
383.577000	-0.157297
383.752000	-0.282490
383.928000	-0.171362
384.104000	-0.072329
384.279000	-0.223524
384.455000	-0.130248
384.631000	-0.145921
384.806000	-0.397690
384.982000	-0.175155
385.158000	-0.194256
385.334000	-0.085443
385.509000	-0.165028
385.685000	-0.428683
385.861000	-0.224571
386.036000	-0.364739
386.212000	-0.562103
386.388000	-0.344387
386.563000	-0.307329
386.739000	-0.376413
386.915000	-0.558069
387.090000	-0.267751
387.266000	-0.066802
387.442000	0.022505
387.618000	-0.112406
387.793000	-0.414276
387.969000	-0.578991
388.145000	-0.403203
388.320000	-0.364387
388.496000	-0.363231
388.672000	-0.581136
388.847000	-0.138682
389.023000	-0.122225
389.199000	-0.432926
389.375000	-0.187970
389.550000	-0.321145
389.726000	-0.204122
389.902000	-0.401312
390.077000	-0.213101
390.253000	-0.125023
390.429000	-0.260359
390.604000	-0.161168
390.780000	-0.107165
390.956000	-0.270366
391.131000	-0.339476
391.307000	0.023727
391.483000	-0.145698
391.659000	-0.331254
391.834000	-0.130504
392.010000	-0.289949
392.186000	-0.344769
392.361000	-0.290879
392.537000	-0.420553
392.713000	0.104830
392.888000	0.281198
393.064000	-0.036113
393.240000	-0.275551
393.416000	-0.360590
393.591000	-0.418956
393.767000	-0.474361
393.943000	-0.383711
394.118000	-0.070310
394.294000	0.120034
394.470000	-0.028106
394.645000	0.039297
394.821000	0.251786
394.997000	-0.086194
395.172000	-0.141813
395.348000	-0.225463
395.524000	-0.525320
395.700000	-0.387554
395.875000	-0.131795
396.051000	-0.172867
396.227000	-0.230160
396.402000	-0.242279
396.578000	-0.163764
396.754000	-0.308814
396.929000	-0.312815
397.105000	-0.043700
397.281000	-0.086656
397.457000	-0.229220
397.632000	-0.244469
397.808000	-0.482452
397.984000	-0.612222
398.159000	-0.486495
398.335000	-0.309002
398.511000	0.123800
398.686000	-0.121538
398.862000	-0.360738
399.038000	-0.424941
399.213000	-0.160136
399.389000	-0.463092
399.565000	-0.225968
399.741000	0.027423
399.916000	-0.002485
400.092000	0.216538
400.268000	-0.170614
400.443000	-0.266594
400.619000	0.147910
400.795000	-0.022019
400.970000	-0.247770
401.146000	-0.290959
401.322000	0.038254
401.497000	0.448798
401.673000	0.095345
401.849000	-0.240056
402.025000	-0.036015
402.200000	-0.175006
402.376000	-0.287560
402.552000	0.179541
402.727000	-0.004221
402.903000	-0.367530
403.079000	-0.279961
403.254000	0.020391
403.430000	0.013270
403.606000	-0.082903
403.782000	-0.131709
403.957000	-0.361566
404.133000	-0.490710
404.309000	-0.329030
404.484000	-0.110918
404.660000	-0.116491
404.841000	-0.248221
405.023000	0.011523
405.204000	-0.061986
405.385000	-0.377138
405.566000	-0.380695
405.748000	-0.220112
405.929000	0.001067
406.110000	-0.063979
406.292000	-0.200810
406.473000	-0.094897
406.654000	-0.303128
406.835000	-0.140883
407.017000	-0.159553
407.198000	-0.188845
407.379000	-0.212424
407.560000	-0.206181
407.742000	-0.233884
407.923000	-0.154688
408.104000	-0.333333
408.286000	-0.204044
408.467000	-0.083912
408.648000	-0.315469
408.829000	-0.380212
409.011000	-0.210645
409.192000	-0.406558
409.373000	-0.195525
409.555000	-0.044192
409.736000	-0.047352
409.917000	-0.170685
410.098000	-0.159217
410.280000	-0.087928
410.461000	-0.130462
410.642000	-0.130703
410.823000	0.113895
411.005000	0.069520
411.186000	-0.151470
411.367000	-0.263072
411.549000	-0.261169
411.730000	0.016447
411.911000	0.142984
412.092000	-0.099586
412.274000	-0.186839
412.455000	-0.112607
412.636000	-0.039720
412.818000	-0.247517
412.999000	-0.368429
413.180000	-0.252396
413.361000	-0.209248
413.543000	-0.240176
413.724000	-0.321994
413.905000	-0.311911
414.087000	-0.320992
414.268000	-0.300800
414.449000	-0.326420
414.630000	-0.411540
414.812000	-0.486018
414.993000	-0.103537
415.174000	0.059097
415.355000	-0.166026
415.537000	-0.421378
415.718000	-0.107200
415.899000	-0.198161
416.081000	-0.311391
416.262000	-0.091378
416.443000	-0.227708
416.624000	-0.210766
416.806000	-0.087824
416.987000	0.063787
417.168000	-0.026939
417.350000	-0.224002
417.531000	-0.278156
417.712000	-0.256915
417.893000	-0.013706
418.075000	0.127767
418.256000	-0.113139
418.437000	-0.066127
418.618000	0.059691
418.800000	0.098678
418.981000	-0.138371
419.162000	-0.048939
419.344000	0.145188
419.525000	0.025415
419.706000	-0.064260
419.887000	0.083989
420.069000	0.264384
420.250000	0.165155
420.431000	0.067458
420.613000	-0.010427
420.794000	-0.222654
420.975000	0.156056
421.156000	-0.020071
421.338000	-0.047548
421.519000	-0.015199
421.700000	-0.119037
421.882000	-0.083343
422.063000	0.128752
422.244000	0.570664
422.425000	0.336985
422.607000	-0.030036
422.788000	-0.077015
422.969000	-0.121662
423.150000	-0.104034
423.332000	-0.144003
423.513000	0.063990
423.694000	0.114683
423.876000	0.127291
424.057000	0.226114
424.238000	0.319634
424.419000	0.322195
424.601000	0.172164
424.782000	0.198049
424.963000	0.370845
425.145000	0.305455
425.326000	0.323495
425.507000	0.358444
425.688000	0.209751
425.870000	0.082220
426.051000	0.018720
426.232000	0.128446
426.413000	0.216851
426.595000	0.168891
426.776000	0.160744
426.957000	0.247343
427.139000	0.299559
427.320000	0.357623
427.501000	0.487586
427.682000	0.498159
427.864000	0.522156
428.045000	0.686011
428.226000	0.605380
428.408000	0.293939
428.589000	0.440168
428.770000	0.481211
428.951000	0.386769
429.133000	0.248816
429.314000	0.444540
429.495000	0.487915
429.677000	0.504110
429.858000	0.501437
430.039000	0.576138
430.220000	0.695483
430.402000	0.767201
430.583000	0.487224
430.764000	0.523773
430.945000	0.727256
431.127000	0.872030
431.308000	0.707636
431.489000	0.907968
431.671000	1.031943
431.852000	0.923111
432.033000	0.832420
432.214000	0.921403
432.396000	1.015688
432.577000	0.892396
432.758000	0.759338
432.940000	0.863569
433.121000	0.996202
433.302000	1.091147
433.483000	1.305644
433.665000	1.432931
433.846000	1.334562
434.027000	1.238169
434.208000	1.154906
434.390000	1.138681
434.571000	1.643635
434.752000	2.125996
434.934000	1.910484
435.115000	1.863771
435.296000	1.947394
435.477000	1.789281
435.659000	1.578116
435.840000	1.706416
436.026000	1.752148
436.211000	1.659533
436.397000	1.431202
436.582000	1.529276
436.768000	1.812627
436.953000	1.802527
437.139000	1.871790
437.325000	2.209686
437.510000	2.168389
437.696000	2.380633
437.881000	2.382921
438.067000	2.067216
438.252000	2.181555
438.438000	2.226600
438.624000	2.322888
438.809000	2.401718
438.995000	2.505060
439.180000	2.473486
439.366000	2.497708
439.551000	2.586557
439.737000	2.741572
439.923000	2.862532
440.108000	2.803864
440.294000	2.894400
440.479000	3.133249
440.665000	3.212480
440.850000	3.161146
441.036000	3.220903
441.222000	3.296103
441.407000	3.214734
441.593000	3.414711
441.778000	3.588240
441.964000	3.788657
442.149000	3.511450
442.335000	3.531359
442.521000	3.742463
442.706000	3.973042
442.892000	3.997458
443.077000	4.055452
443.263000	4.199073
443.448000	4.184453
443.634000	4.237372
443.820000	4.685534
444.005000	4.570514
444.191000	4.446506
444.376000	4.600885
444.562000	5.030765
444.747000	5.120593
444.933000	5.091888
445.119000	5.093733
445.304000	5.064633
445.490000	5.344430
445.675000	5.445712
445.861000	5.402569
446.046000	5.514227
446.232000	5.688759
446.418000	5.881146
446.603000	6.016221
446.789000	6.068435
446.974000	6.191910
447.160000	6.102584
447.345000	6.337365
447.531000	6.380415
447.717000	6.693255
447.902000	6.939999
448.088000	7.024847
448.273000	7.002613
448.459000	7.093588
448.644000	7.172151
448.830000	7.314268
449.016000	7.323445
449.201000	7.521012
449.387000	7.806058
449.572000	7.984921
449.758000	8.035073
449.943000	8.100616
450.129000	8.177395
450.315000	8.346685
450.500000	8.457390
450.686000	8.687088
450.871000	8.694045
451.057000	8.952560
451.243000	9.084285
451.428000	9.230475
451.614000	9.395999
451.799000	9.484033
451.985000	9.847366
452.170000	9.965868
452.356000	9.869407
452.542000	9.972020
452.727000	10.225903
452.913000	10.253764
453.098000	10.641436
453.284000	10.957282
453.469000	10.845152
453.655000	10.963585
453.841000	11.024453
454.026000	10.910724
454.212000	11.063086
454.397000	11.159725
454.583000	11.244642
454.768000	11.139637
454.954000	11.433786
455.140000	11.573001
455.325000	11.436995
455.511000	11.506134
455.696000	11.628216
455.882000	11.755448
456.067000	12.002626
456.253000	11.814776
456.439000	11.708538
456.624000	11.710591
456.810000	11.790328
456.995000	11.868373
457.181000	11.764304
457.366000	11.956391
457.552000	11.888633
457.738000	11.915363
457.923000	11.933668
458.109000	12.154755
458.294000	12.075654
458.480000	11.967279
458.665000	11.836840
458.851000	11.590619
459.037000	11.324091
459.222000	11.453418
459.408000	11.403356
459.593000	11.358860
459.779000	11.334320
459.964000	11.425367
460.150000	11.520807
460.336000	11.307515
460.521000	10.862992
460.707000	10.628872
460.892000	10.493592
461.078000	10.588677
461.263000	10.451609
461.449000	10.212336
461.635000	10.168806
461.820000	10.010588
462.006000	9.939466
462.191000	9.704225
462.377000	9.337323
462.562000	9.545250
462.748000	9.573813
462.934000	8.998681
463.119000	8.750627
463.305000	8.816801
463.490000	8.565561
463.676000	8.523637
463.861000	8.310014
464.047000	8.116563
464.233000	8.031541
464.418000	7.827839
464.604000	7.588318
464.789000	7.732993
464.975000	7.636585
465.160000	7.324957
465.346000	7.209764
465.532000	6.997851
465.717000	6.809870
465.903000	6.960246
466.088000	6.764193
466.274000	6.429323
466.459000	6.276364
466.645000	6.564883
466.831000	6.382776
467.016000	6.291387
467.202000	6.129518
467.387000	5.915227
467.573000	5.577152
467.758000	5.757665
467.944000	5.536242
468.130000	5.397095
468.315000	5.467141
468.501000	5.477392
468.686000	5.281183
468.872000	5.232302
469.057000	5.155521
469.243000	4.962261
469.429000	4.895493
469.614000	4.723386
469.800000	4.579180
469.985000	4.644868
470.171000	4.634877
470.356000	4.529103
470.542000	4.516844
470.728000	4.427455
470.913000	4.317278
471.099000	4.380400
471.284000	4.248941
471.470000	4.135429
471.655000	4.086695
471.841000	4.022073
472.027000	3.875764
472.212000	4.048059
472.398000	4.065035
472.583000	3.835687
472.769000	3.776309
472.954000	3.688000
473.140000	3.482336
473.326000	3.407080
473.511000	3.663358
473.697000	3.633352
473.882000	3.466195
474.068000	3.326076
474.253000	3.193961
474.439000	3.243304
474.625000	3.250877
474.810000	3.207752
474.996000	3.158616
475.181000	2.937687
475.367000	3.043619
475.552000	3.251920
475.738000	2.845281
475.924000	2.840628
476.109000	2.860350
476.295000	2.683816
476.480000	2.660767
476.666000	2.591678
476.851000	2.582939
477.037000	2.574257
477.223000	2.417978
477.408000	2.295783
477.594000	2.165963
477.779000	2.282332
477.965000	2.273288
478.151000	2.058774
478.336000	2.159175
478.522000	2.047155
478.707000	1.962197
478.893000	2.035178
479.078000	1.841569
479.264000	1.796379
479.450000	1.834139
479.635000	1.921657
479.821000	1.808929
480.006000	1.828537
480.192000	1.799679
480.377000	1.792474
480.563000	1.767262
480.749000	1.551001
480.934000	1.525896
481.120000	1.616196
481.305000	1.656935
481.491000	1.611909
481.676000	1.609362
481.862000	1.569736
482.048000	1.386368
482.233000	1.394567
482.419000	1.382924
482.604000	1.274493
482.790000	1.246133
482.975000	1.248522
483.161000	1.418461
483.347000	1.368227
483.532000	1.263951
483.718000	1.031187
483.903000	1.072182
484.089000	1.107813
484.274000	0.971902
484.460000	1.105822
484.646000	1.134283
484.831000	0.979573
485.017000	1.003572
485.202000	0.995526
485.388000	1.210877
485.573000	1.204817
485.759000	1.004018
485.945000	1.150390
486.130000	0.947008
486.316000	0.938779
486.501000	1.026913
486.687000	0.824921
486.872000	0.721634
487.058000	0.886231
487.244000	0.874524
487.429000	0.716799
487.615000	0.867258
487.800000	0.902550
487.986000	0.790774
488.171000	0.865811
488.357000	0.776546
488.543000	0.784623
488.728000	0.868504
488.914000	0.770834
489.099000	0.641894
489.285000	0.616001
489.470000	0.790850
489.656000	0.820457
489.842000	0.754681
490.027000	0.822039
490.213000	0.653822
490.398000	0.350393
490.584000	0.624326
490.769000	0.641146
490.955000	0.682022
491.141000	0.691289
491.326000	0.606578
491.512000	0.764844
491.697000	0.628849
491.883000	0.472008
492.068000	0.424455
492.254000	0.471715
492.440000	0.542936
492.625000	0.454587
492.811000	0.406238
492.996000	0.507515
493.182000	0.498816
493.367000	0.310842
493.553000	0.238702
493.739000	0.321101
493.924000	0.449299
494.110000	0.439617
494.295000	0.303009
494.481000	0.375224
494.666000	0.412026
494.852000	0.581986
495.038000	0.399955
495.223000	0.244142
495.409000	0.281113
495.594000	0.254548
495.780000	0.307805
495.965000	0.225983
496.151000	0.428451
496.337000	0.472543
496.522000	0.235124
496.708000	0.336642
496.893000	0.451328
497.079000	0.261054
497.264000	0.218605
497.450000	0.280473
497.636000	0.354236
497.821000	0.186898
498.007000	0.392894
498.192000	0.421221
498.378000	0.266562
498.563000	0.166334
498.749000	0.189856
498.935000	0.203560
499.120000	0.310064
499.306000	0.184721
499.491000	0.121498
499.677000	0.207389
499.862000	0.290932
500.048000	0.328809
500.234000	0.213838
500.419000	0.162888
500.605000	0.297336
500.790000	0.186183
500.976000	0.042765
501.161000	-0.009812
501.347000	0.165399
501.533000	0.257842
501.718000	0.182930
501.904000	0.110763
502.089000	0.188320
502.275000	0.250987
502.460000	0.139467
502.646000	0.203838
502.832000	0.240158
503.017000	0.176268
503.203000	-0.003985
503.388000	-0.031017
503.574000	0.158899
503.759000	0.174085
503.945000	0.208414
504.131000	0.128615
504.316000	0.067552
504.502000	0.079310
504.687000	0.063053
504.873000	-0.035781
505.058000	-0.078144
505.244000	-0.094598
505.430000	-0.013438
505.615000	0.105755
505.801000	0.127230
505.986000	-0.041656
506.172000	0.065466
506.358000	0.076236
506.543000	0.037272
506.729000	0.216684
506.914000	0.127268
507.100000	0.270124
507.285000	0.081554
507.471000	-0.050351
507.657000	0.158633
507.842000	0.068298
508.028000	-0.076413
508.213000	-0.050435
508.399000	0.007867
508.584000	0.135541
508.770000	0.001906
508.956000	-0.045772
509.141000	0.006669
509.327000	0.086639
509.512000	0.029241
509.698000	0.054285
509.883000	0.098606
510.069000	0.010294
510.255000	0.042632
510.440000	0.071461
510.626000	-0.012463
510.811000	-0.082088
510.997000	0.028329
511.182000	0.296857
511.368000	0.172355
511.554000	-0.175819
511.739000	-0.104895
511.925000	0.107603
512.110000	0.084705
512.296000	0.206400
512.481000	0.192934
512.667000	0.086108
512.853000	-0.093100
513.038000	-0.033004
513.224000	-0.060723
513.409000	-0.118542
513.595000	0.011584
513.780000	-0.157265
513.966000	-0.107558
514.152000	-0.079897
514.337000	-0.141320
514.523000	-0.100402
514.708000	-0.016148
514.894000	-0.005317
515.079000	-0.142517
515.265000	-0.077784
515.451000	-0.060900
515.636000	-0.188845
515.822000	-0.079065
516.007000	-0.167345
516.193000	-0.008939
516.378000	0.080588
516.564000	-0.034315
516.750000	-0.040370
516.935000	0.044260
517.121000	0.088987
517.306000	0.166519
517.492000	0.100110
517.677000	-0.121546
517.863000	-0.150628
518.049000	-0.021075
518.234000	-0.086416
518.420000	0.039505
518.605000	0.204240
518.791000	0.169026
518.976000	0.014101
519.162000	-0.101194
519.348000	0.011651
519.533000	0.007998
519.719000	0.183903
519.904000	0.052950
520.090000	0.049207
520.275000	0.236011
520.461000	0.168427
520.647000	-0.051515
520.832000	-0.235612
521.018000	-0.102555
521.203000	-0.084052
521.389000	-0.249795
521.574000	-0.148286
521.760000	-0.011403
521.946000	0.003164
522.131000	-0.073557
522.317000	-0.086819
522.502000	-0.123244
522.688000	-0.029670
522.873000	-0.078382
523.059000	-0.099143
523.245000	-0.063762
523.430000	-0.168624
523.616000	-0.141780
523.801000	-0.205390
523.987000	-0.131226
524.172000	-0.012706
524.358000	0.033734
524.544000	-0.016351
524.729000	0.059146
524.915000	0.086126
525.100000	-0.028535
525.286000	0.008060
525.471000	-0.000490
525.657000	0.057129
525.843000	-0.187054
526.028000	-0.072958
526.214000	-0.109765
526.399000	-0.195045
526.585000	-0.248043
526.770000	-0.270180
526.956000	-0.127650
527.142000	-0.196748
527.327000	-0.074638
527.513000	-0.160101
527.698000	-0.180098
527.884000	-0.143459
528.069000	-0.181631
528.255000	-0.061369
528.441000	-0.157211
528.626000	-0.115276
528.812000	0.137872
528.997000	-0.036724
529.183000	-0.151576
529.368000	-0.073255
529.554000	-0.057099
529.740000	-0.077439
529.925000	-0.106470
530.111000	-0.125531
530.296000	-0.048567
530.482000	0.052743
530.667000	-0.036022
530.853000	0.021122
531.039000	-0.080849
531.224000	-0.027436
531.410000	0.080233
531.595000	-0.012059
531.781000	0.027714
531.967000	-0.105025
532.152000	0.037016
532.338000	-0.064064
532.523000	-0.200612
532.709000	-0.188312
532.894000	-0.101434
533.080000	-0.079240
533.266000	-0.214530
533.451000	-0.219281
533.637000	-0.157856
533.822000	0.007433
534.008000	-0.149063
534.193000	-0.100365
534.379000	0.000802
534.565000	-0.094425
534.750000	-0.144586
534.936000	0.102162
535.121000	-0.042542
535.307000	-0.011400
535.492000	-0.014138
535.678000	-0.223450
535.864000	-0.103620
536.049000	0.187426
536.235000	-0.022693
536.420000	-0.051988
536.606000	-0.105111
536.791000	-0.206702
536.977000	-0.187538
537.163000	0.033306
537.348000	0.019306
537.534000	0.095175
537.719000	-0.095126
537.905000	-0.239318
538.090000	0.006642
538.276000	0.097952
538.462000	0.060474
538.647000	0.069477
538.833000	-0.035809
539.018000	0.080505
539.204000	0.040723
539.389000	-0.132810
539.575000	0.207559
539.761000	0.098022
539.946000	-0.176251
540.132000	-0.003617
540.317000	-0.115476
540.503000	0.011512
540.688000	0.037497
540.874000	0.271532
541.060000	0.444150
541.245000	0.278858
541.431000	0.088784
541.616000	0.149306
541.802000	0.152528
541.987000	0.244494
542.173000	0.276573
542.359000	0.183352
542.544000	0.302963
542.730000	0.143176
542.915000	0.134120
543.101000	0.278430
543.286000	0.087347
543.472000	-0.011698
543.658000	0.111686
543.843000	0.142092
544.029000	0.335052
544.214000	0.192114
544.400000	-0.121840
544.585000	0.063292
544.771000	0.143674
544.957000	0.341642
545.142000	0.473804
545.328000	0.510526
545.513000	0.519556
545.699000	0.471500
545.884000	0.294848
546.070000	0.247876
546.261000	0.217805
546.451000	0.020605
546.642000	-0.195596
546.833000	-0.095833
547.023000	-0.186045
547.214000	-0.152206
547.405000	0.012517
547.595000	0.243402
547.786000	0.216198
547.977000	-0.025563
548.167000	-0.181749
548.358000	-0.154184
548.549000	0.213704
548.740000	-0.000670
548.930000	-0.305590
549.121000	-0.165331
549.312000	-0.211503
549.502000	-0.293167
549.693000	-0.149337
549.884000	-0.061510
550.074000	0.026454
550.265000	-0.175762
550.456000	-0.038169
550.646000	0.038601
550.837000	-0.002392
551.028000	-0.151242
551.218000	-0.041735
551.409000	-0.131248
551.600000	-0.115886
551.790000	0.061451
551.981000	-0.218175
552.172000	-0.228958
552.362000	0.120306
552.553000	0.183461
552.744000	-0.033682
552.934000	-0.099742
553.125000	-0.150402
553.316000	-0.166175
553.506000	0.201777
553.697000	-0.025228
553.888000	-0.058413
554.079000	0.165575
554.269000	0.116684
554.460000	-0.204450
554.651000	-0.209935
554.841000	-0.361550
555.032000	-0.252803
555.223000	-0.143703
555.413000	-0.060461
555.604000	-0.090723
555.795000	-0.133433
555.985000	-0.041495
556.176000	-0.105142
556.367000	-0.407736
556.557000	-0.256395
556.748000	-0.144815
556.939000	-0.201434
557.129000	-0.300653
557.320000	-0.123249
557.511000	-0.147835
557.701000	-0.156450
557.892000	-0.043356
558.083000	0.111113
558.273000	-0.034441
558.464000	-0.197780
558.655000	-0.204706
558.845000	-0.124514
559.036000	-0.053806
559.227000	-0.078642
559.418000	0.063172
559.608000	0.056052
559.799000	-0.277074
559.990000	-0.310845
560.180000	-0.215971
560.371000	-0.357671
560.562000	-0.275961
560.752000	-0.103138
560.943000	-0.301076
561.134000	-0.472958
561.324000	-0.189025
561.515000	0.043216
561.706000	-0.106226
561.896000	-0.320091
562.087000	-0.221567
562.278000	-0.307340
562.468000	-0.451470
562.659000	-0.313802
562.850000	0.039557
563.040000	0.053559
563.231000	-0.394825
563.422000	-0.213699
563.612000	-0.315309
563.803000	-0.243204
563.994000	-0.313225
564.185000	-0.380302
564.375000	-0.132583
564.566000	-0.177487
564.757000	-0.204052
564.947000	-0.283667
565.138000	-0.146024
565.329000	-0.221704
565.519000	-0.385537
565.710000	-0.261545
565.901000	-0.030080
566.091000	0.068406
566.282000	-0.164419
566.473000	-0.179373
566.663000	-0.151707
566.854000	-0.322038
567.045000	-0.164352
567.235000	-0.130230
567.426000	-0.176189
567.617000	-0.150087
567.807000	-0.153549
567.998000	-0.121030
568.189000	-0.200650
568.379000	-0.103789
568.570000	-0.034436
568.761000	-0.121956
568.951000	-0.185670
569.142000	-0.228021
569.333000	-0.268434
569.524000	-0.396612
569.714000	-0.440193
569.905000	-0.516474
570.096000	-0.121224
570.286000	0.007692
570.477000	0.146080
570.668000	-0.060643
570.858000	-0.092293
571.049000	-0.221455
571.240000	-0.307934
571.430000	-0.080283
571.621000	-0.160989
571.812000	-0.064857
572.002000	-0.050131
572.193000	-0.227856
572.384000	-0.130665
572.574000	-0.069832
572.765000	-0.143684
572.956000	-0.230092
573.146000	-0.058102
573.337000	-0.198857
573.528000	-0.183794
573.718000	-0.025116
573.909000	0.072635
574.100000	-0.021745
574.290000	-0.181817
574.481000	-0.183024
574.672000	-0.168692
574.863000	-0.037659
575.053000	-0.148425
575.244000	-0.080767
575.435000	-0.253594
575.625000	-0.268415
575.816000	-0.258530
576.007000	-0.153464
576.197000	-0.118627
576.388000	-0.102283
576.579000	0.021593
576.769000	0.013639
576.960000	-0.251013
577.155000	-0.430474
577.350000	-0.171094
577.545000	-0.036865
577.740000	-0.209538
577.935000	0.148286
578.130000	0.068396
578.326000	-0.230525
578.521000	0.021260
578.716000	0.052282
578.911000	-0.221332
579.106000	-0.109012
579.301000	0.022538
579.496000	-0.139115
579.691000	-0.424983
579.886000	-0.264385
580.081000	-0.143014
580.276000	-0.099895
580.471000	-0.185400
580.666000	-0.278075
580.861000	-0.309981
581.057000	-0.314757
581.252000	-0.171449
581.447000	-0.256293
581.642000	-0.250625
581.837000	-0.251811
582.032000	-0.190370
582.227000	0.028073
582.422000	-0.003616
582.617000	-0.183555
582.812000	-0.281805
583.007000	-0.263712
583.202000	-0.300533
583.397000	-0.030335
583.592000	0.140424
583.788000	-0.142639
583.983000	-0.111460
584.178000	-0.009446
584.373000	-0.194824
584.568000	-0.235531
584.763000	-0.278385
584.958000	-0.366549
585.153000	-0.232821
585.348000	-0.210658
585.543000	-0.090291
585.738000	-0.125526
585.933000	-0.291695
586.128000	-0.047619
586.324000	-0.059532
586.519000	-0.065378
586.714000	0.027410
586.909000	0.083557
587.104000	0.134196
587.299000	-0.037515
587.494000	-0.075813
587.689000	-0.108475
587.884000	-0.095461
588.079000	-0.138457
588.274000	-0.129801
588.469000	-0.138434
588.664000	-0.013951
588.859000	-0.022888
589.055000	-0.033330
589.250000	-0.086939
589.445000	-0.215225
589.640000	-0.175123
589.835000	0.056221
590.030000	0.141409
590.225000	0.186287
590.420000	-0.026050
590.615000	-0.195404
590.810000	-0.160759
591.005000	-0.023145
591.200000	-0.132916
591.395000	-0.235122
591.591000	-0.096649
591.786000	0.042886
591.981000	-0.053239
592.176000	-0.000603
592.371000	-0.018694
592.566000	-0.069901
592.761000	0.125924
592.956000	0.100487
593.151000	0.186584
593.346000	0.099302
593.541000	0.114322
593.736000	0.057033
593.931000	-0.125043
594.126000	-0.040122
594.322000	0.026747
594.517000	-0.082655
594.712000	-0.210375
594.907000	-0.212658
595.102000	-0.075460
595.297000	0.104720
595.492000	0.212029
595.687000	0.022380
595.882000	-0.051223
596.077000	0.023971
596.272000	0.192958
596.467000	0.272934
596.662000	0.139369
596.857000	0.143014
597.053000	0.175743
597.248000	0.217418
597.443000	0.236288
597.638000	0.184085
597.833000	-0.003729
598.028000	0.197992
598.223000	0.344520
598.418000	0.253244
598.613000	0.162890
598.808000	0.307952
599.003000	0.270841
599.198000	0.082167
599.393000	0.150854
599.589000	0.323514
599.784000	0.160772
599.979000	0.236336
600.174000	0.468915
600.369000	0.261899
600.564000	0.336219
600.759000	0.558814
600.954000	0.655415
601.149000	0.523287
601.344000	0.230000
601.539000	0.432704
601.734000	0.391073
601.929000	0.206796
602.124000	0.311563
602.320000	0.526416
602.515000	0.769426
602.710000	0.748741
602.905000	0.416156
603.100000	0.363074
603.295000	0.435344
603.490000	0.580207
603.685000	0.652125
603.880000	0.649724
604.075000	0.516801
604.270000	0.516291
604.465000	0.665086
604.660000	0.498655
604.856000	0.584918
605.051000	0.812680
605.246000	0.845739
605.441000	0.643850
605.636000	0.608665
605.831000	0.743466
606.026000	0.693248
606.221000	0.702258
606.416000	0.898476
606.611000	1.094894
606.806000	1.089052
607.001000	1.256945
607.196000	1.062341
607.391000	0.890463
607.587000	1.124427
607.782000	1.143796
607.977000	0.962697
608.172000	1.369164
608.367000	1.393544
608.562000	1.243101
608.757000	1.242702
608.952000	1.209663
609.147000	1.635566
609.342000	1.572745
609.537000	1.395579
609.732000	1.491236
609.927000	1.491556
610.122000	1.644895
610.318000	2.015639
610.513000	2.161133
610.708000	2.018881
610.903000	2.144521
611.098000	2.257909
611.293000	2.251929
611.488000	2.220899
611.683000	2.251227
611.878000	2.273403
612.073000	2.297190
612.268000	2.279833
612.463000	2.407678
612.658000	2.404398
612.854000	2.344622
613.049000	2.294126
613.244000	2.451845
613.439000	2.594273
613.634000	2.310393
613.829000	2.482979
614.024000	2.415249
614.219000	2.483484
614.414000	2.826605
614.609000	2.624609
614.804000	2.538104
614.999000	2.601126
615.194000	2.785936
615.389000	2.824529
615.585000	2.686506
615.780000	2.938305
615.975000	2.906999
616.170000	2.983489
616.365000	3.343640
616.560000	3.490853
616.755000	3.440289
616.950000	3.494482
617.145000	3.642325
617.340000	3.468675
617.535000	3.267643
617.730000	3.613191
617.925000	3.496066
618.120000	3.553555
618.316000	4.056220
618.511000	3.984564
618.706000	3.902300
618.901000	4.089406
619.096000	4.262034
619.291000	4.203128
619.486000	4.358288
619.681000	4.174743
619.876000	4.212747
620.071000	4.415613
620.266000	4.754468
620.461000	4.987349
620.656000	4.963538
620.852000	4.990350
621.047000	4.943231
621.242000	4.878130
621.437000	5.308238
621.632000	5.565268
621.827000	5.501790
622.022000	5.268725
622.217000	5.505022
622.412000	5.756220
622.607000	5.860705
622.802000	5.694123
622.997000	5.774257
623.192000	6.066299
623.387000	6.214774
623.583000	6.052938
623.778000	6.581040
623.973000	6.653134
624.168000	6.692129
624.363000	6.815649
624.558000	7.014973
624.753000	6.834877
624.948000	7.117184
625.143000	7.196053
625.338000	7.343236
625.533000	7.305868
625.728000	7.458028
625.923000	7.726298
626.119000	7.727936
626.314000	7.624940
626.509000	7.726461
626.704000	7.938046
626.899000	8.134424
627.094000	8.244281
627.289000	8.396749
627.484000	8.554027
627.679000	8.635085
627.874000	8.750970
628.069000	9.203541
628.264000	9.224630
628.459000	9.248130
628.654000	9.324769
628.850000	9.274163
629.045000	9.501287
629.240000	9.516337
629.435000	9.588147
629.630000	9.781161
629.825000	9.901815
630.020000	9.944578
630.215000	9.843932
630.410000	10.002889
630.605000	10.054219
630.800000	10.114582
630.995000	10.313980
631.190000	10.581043
631.385000	10.410238
631.581000	10.276955
631.776000	10.323206
631.971000	10.095001
632.166000	10.121745
632.361000	9.876823
632.556000	9.959081
632.751000	10.077130
632.946000	9.754097
633.141000	9.565577
633.336000	9.498135
633.531000	9.444732
633.726000	9.289049
633.921000	9.029260
634.117000	8.670979
634.312000	8.430472
634.507000	8.391237
634.702000	8.346208
634.897000	8.150492
635.092000	8.080563
635.287000	7.972144
635.482000	7.635372
635.677000	7.600687
635.872000	7.378615
636.067000	7.201626
636.262000	6.771281
636.457000	6.289229
636.652000	6.078831
636.848000	5.889558
637.043000	5.787579
637.238000	5.660166
637.433000	5.240403
637.628000	5.154996
637.823000	5.245920
638.018000	5.069136
638.213000	4.723774
638.408000	4.456913
638.603000	4.261579
638.798000	4.059742
638.993000	3.961325
639.188000	3.744169
639.383000	3.560738
639.579000	3.875690
639.774000	3.542803
639.969000	3.266788
640.164000	3.084807
640.359000	2.890412
640.554000	3.027482
640.749000	2.908200
640.944000	2.823156
641.139000	2.714072
641.334000	2.550485
641.529000	1.998327
641.724000	2.051691
641.919000	2.186611
642.115000	2.373908
642.310000	2.307203
642.505000	2.128755
642.700000	2.018065
642.895000	1.794419
643.090000	1.861539
643.285000	2.029991
643.480000	1.919482
643.675000	1.834697
643.870000	2.065022
644.065000	1.841811
644.260000	1.376658
644.455000	1.422678
644.650000	1.291384
644.846000	1.337047
645.041000	1.066946
645.236000	0.857546
645.431000	0.908731
645.626000	0.677290
645.821000	0.857927
646.016000	0.960534
646.211000	1.311263
646.406000	1.139995
646.601000	1.065681
646.796000	0.877284
646.991000	0.624400
647.186000	0.703324
647.381000	0.833796
647.577000	0.826198
647.772000	0.939601
647.967000	0.796311
648.162000	0.716958
648.357000	0.648366
648.552000	0.774528
648.747000	0.749679
648.942000	0.760707
649.137000	0.642417
649.332000	0.456807
649.527000	0.437553
649.722000	0.687227
649.917000	0.797537
650.113000	0.457246
650.308000	0.277370
650.503000	0.343025
650.698000	0.463229
650.893000	0.318696
651.088000	0.455335
651.283000	0.533238
651.478000	0.133738
651.673000	0.321415
651.868000	0.204441
652.063000	0.489833
652.258000	0.597427
652.453000	0.754106
652.648000	0.363222
652.844000	0.254183
653.039000	0.303988
653.234000	-0.108233
653.429000	-0.243960
653.624000	0.007739
653.819000	0.281371
654.014000	0.158599
654.209000	-0.009506
654.404000	0.169642
654.599000	0.044574
654.794000	0.031537
654.989000	0.339266
655.184000	0.205186
655.380000	-0.122232
655.575000	-0.102739
655.770000	-0.031264
655.965000	0.103369
656.160000	-0.011733
656.355000	0.168573
656.550000	0.101542
656.745000	0.145220
656.940000	-0.003055
657.135000	0.055852
657.330000	0.121354
657.525000	-0.112267
657.720000	0.027569
657.915000	0.160888
658.111000	0.066917
658.306000	0.303334
658.501000	0.075898
658.696000	-0.193836
658.891000	0.084678
659.086000	-0.011841
659.281000	0.038657
659.476000	-0.148249
659.671000	-0.539716
659.866000	-0.304521
660.061000	0.069576
660.256000	0.111461
660.451000	0.074079
660.646000	-0.155419
660.842000	-0.113604
661.037000	-0.226410
661.232000	-0.248876
661.427000	-0.084958
661.622000	-0.213672
661.817000	-0.308900
662.012000	-0.054204
662.207000	-0.152054
662.402000	-0.286152
662.597000	-0.096788
662.792000	-0.384121
662.987000	-0.417200
663.182000	-0.143674
663.378000	-0.130392
663.573000	-0.482114
663.768000	-0.490049
663.963000	-0.275926
664.158000	-0.300248
664.353000	0.153878
664.548000	0.380301
664.743000	0.057469
664.938000	-0.274745
665.133000	-0.313394
665.328000	0.104920
665.523000	0.089334
665.718000	-0.106943
665.913000	-0.197486
666.109000	-0.173017
666.304000	0.051164
666.499000	-0.048416
666.694000	0.071697
666.889000	0.341656
667.084000	0.008195
667.279000	-0.126029
667.474000	-0.110167
667.669000	-0.094211
667.864000	-0.183176
668.059000	-0.110439
668.254000	-0.094586
668.449000	-0.282249
668.644000	-0.149724
668.840000	0.065390
669.035000	-0.234457
669.230000	-0.506347
669.425000	-0.134259
669.620000	-0.306658
669.815000	-0.284697
670.010000	-0.282129
670.205000	-0.178553
670.400000	-0.139088
670.595000	-0.130272
670.790000	-0.227588
670.985000	-0.190782
671.180000	0.036159
671.376000	-0.390680
671.571000	-0.421772
671.766000	-0.306225
671.961000	-0.345975
672.156000	-0.416434
672.351000	-0.302125
672.546000	-0.312120
672.741000	-0.176030
672.936000	-0.106131
673.131000	0.437394
673.326000	0.078978
673.521000	-0.316187
673.716000	-0.440864
673.911000	-0.603619
674.107000	-0.024530
674.302000	0.249244
674.497000	-0.022212
674.692000	-0.353278
674.887000	-0.406683
675.082000	-0.269472
675.277000	-0.008091
675.472000	-0.112942
675.667000	-0.277777
675.862000	-0.325671
676.057000	-0.235099
676.252000	-0.264328
676.447000	-0.372982
676.643000	-0.161637
676.838000	0.143202
677.033000	-0.145329
677.228000	0.134115
677.423000	0.097992
677.618000	-0.327686
677.813000	-0.504060
678.008000	-0.202370
678.203000	-0.180722
678.398000	-0.409799
678.593000	-0.181113
678.788000	-0.057148
678.983000	-0.369299
679.178000	-0.215736
679.374000	-0.255154
679.569000	-0.211617
679.764000	-0.327702
679.959000	-0.491007
680.154000	-0.500958
680.349000	-0.641095
680.544000	-0.529170
680.739000	-0.383752
680.934000	-0.495375
681.129000	-0.469495
681.324000	-0.489929
681.519000	-0.212624
681.714000	-0.257529
681.909000	-0.411446
682.105000	-0.579742
682.300000	-0.148754
682.495000	0.021526
682.690000	-0.021073
682.885000	-0.131560
683.080000	-0.355997
683.275000	-0.305797
683.470000	0.067085
683.665000	0.218884
683.860000	0.426876
684.055000	0.135787
684.250000	-0.371242
684.445000	-0.403565
684.641000	0.136111
684.836000	-0.181614
685.031000	-0.263959
685.226000	-0.264316
685.421000	0.050244
685.616000	-0.239425
685.811000	-0.404453
686.006000	-0.098663
686.201000	-0.147678
686.396000	-0.533057
686.591000	-0.430615
686.786000	-0.039916
686.981000	-0.244702
687.176000	-0.175138
687.372000	-0.279391
687.567000	0.032793
687.762000	0.017224
687.957000	-0.108040
688.152000	-0.270413
688.347000	-0.210642
688.542000	-0.484315
688.737000	-0.817512
688.932000	-0.905682
689.127000	-0.430298
689.322000	-0.075002
689.517000	-0.278293
689.712000	-0.493902
689.908000	-0.441354
690.103000	-0.423608
690.298000	-0.327992
690.493000	-0.331515
690.688000	-0.598746
690.883000	-0.413389
691.078000	0.036425
691.273000	0.084643
691.468000	-0.191623
691.663000	-0.205822
691.858000	-0.036106
692.053000	-0.089992
692.248000	-0.022656
692.443000	-0.041534
692.639000	-0.138914
692.834000	-0.009212
693.029000	0.478644
693.224000	0.421005
693.419000	-0.227325
693.614000	-0.383415
693.809000	-0.452018
694.004000	-0.529536
694.199000	-0.529398
694.394000	-0.245547
694.589000	-0.526258
694.784000	-0.573582
694.979000	-0.270837
695.174000	-0.290838
695.370000	0.219275
695.565000	-0.012150
695.760000	-0.388590
695.955000	0.026635
696.150000	0.087700
696.345000	-0.385591
696.540000	-0.112754
696.740000	-0.240969
696.940000	-0.126717
697.140000	-0.026372
697.340000	-0.251246
697.539000	-0.082669
697.739000	-0.206473
697.939000	-0.164392
698.139000	-0.561880
698.339000	-0.894914
698.539000	-0.600414
698.739000	-0.627537
698.939000	-0.485093
699.138000	-0.597104
699.338000	0.106851
699.538000	0.284119
699.738000	-0.267214
699.938000	-0.318980
700.138000	-0.402698
700.338000	-0.539057
700.538000	-0.376029
700.737000	-0.315368
700.937000	-0.693823
701.137000	-0.660346
701.337000	-0.035880
701.537000	0.001740
701.737000	-0.316849
701.937000	-0.401748
702.137000	-0.279844
702.337000	-0.411166
702.536000	-0.630536
702.736000	-0.567116
702.936000	-0.705266
703.136000	-0.206286
703.336000	-0.179874
703.536000	-0.344883
703.736000	-0.764099
703.936000	-0.680209
704.135000	-0.606417
704.335000	-0.192688
704.535000	-0.467967
704.735000	-0.728694
704.935000	-0.139882
705.135000	-0.140563
705.335000	-0.367160
705.535000	-0.147080
705.735000	-0.212544
705.934000	-0.146979
706.134000	-0.400013
706.334000	-0.523279
706.534000	-0.583784
706.734000	-0.584248
706.934000	-0.661951
707.134000	-0.632217
707.334000	-0.351846
707.533000	-0.337483
707.733000	-0.346240
707.933000	-0.478733
708.133000	-0.220179
708.333000	-0.091665
708.533000	-0.348611
708.733000	-0.034433
708.933000	-0.309566
709.132000	-0.458588
709.332000	-0.377442
709.532000	-0.515112
709.732000	-0.320033
709.932000	-0.768214
710.132000	-0.734273
710.332000	-0.861631
710.532000	-0.269014
710.732000	-0.117177
710.931000	-0.523413
711.131000	-0.488671
711.331000	-0.338712
711.531000	-0.434558
711.731000	-0.383275
711.931000	-0.331448
712.131000	-0.355709
712.331000	-0.130736
712.530000	-0.238364
712.730000	-0.470573
712.930000	-0.291386
713.130000	-0.382235
713.330000	-0.556385
713.530000	-0.387229
713.730000	0.319517
713.930000	-0.041717
714.129000	-0.545487
714.329000	-0.675156
714.529000	-0.369121
714.729000	-0.082473
714.929000	-0.194943
715.129000	-0.470642
715.329000	-0.355188
715.529000	-0.350353
715.729000	0.318931
715.928000	0.030211
716.128000	-0.227982
716.328000	-0.159177
716.528000	-0.361719
716.728000	-0.298553
716.928000	-0.516826
717.128000	-0.359480
717.328000	-0.365760
717.527000	-0.486791
717.727000	-0.465031
717.927000	-0.304007
718.127000	-0.393458
718.327000	-0.847755
718.527000	-0.786670
718.727000	-0.320839
718.927000	-0.465483
719.127000	-0.721283
719.326000	-0.468660
719.526000	-0.110325
719.726000	-0.255180
719.926000	-0.759366
720.126000	-0.698188
720.326000	-0.472271
720.526000	-0.546568
720.726000	-0.460841
720.925000	-0.240930
721.125000	-0.726117
721.325000	-0.407094
721.525000	-0.300690
721.725000	-0.447180
721.925000	-0.438648
722.125000	-0.513757
722.325000	-0.011096
722.524000	-0.273017
722.724000	-0.751893
722.924000	-0.853448
723.124000	-0.611676
723.324000	-0.188553
723.524000	-0.165709
723.724000	-0.741757
723.924000	-0.526442
724.124000	-0.354827
724.323000	-0.130338
724.523000	-0.209549
724.723000	0.107981
724.923000	-0.087471
725.123000	-0.137314
725.323000	-0.071105
725.523000	-0.317590
725.723000	-0.536743
725.922000	-0.557324
726.122000	-0.387966
726.322000	-0.526035
726.522000	-0.536586
726.722000	0.205833
726.922000	-0.211703
727.122000	-0.356524
727.322000	0.028854
727.521000	-0.260320
727.721000	-0.489744
727.921000	-0.385347
728.121000	-0.459337
728.321000	-0.841419
728.521000	-0.606804
728.721000	-0.357112
728.921000	0.025741
729.121000	0.677153
729.320000	0.042793
729.520000	-0.408952
729.720000	-0.610358
729.920000	-0.486783
730.120000	-0.240046
730.320000	-0.203035
730.520000	-0.555327
730.720000	-0.557076
730.919000	-0.460943
731.119000	-0.176606
731.319000	-0.686239
731.519000	-0.816906
731.719000	-0.369849
731.919000	-0.566441
732.119000	-0.991880
732.319000	-1.064235
732.519000	-0.458620
732.718000	-0.698544
732.918000	-0.647074
733.118000	-0.516444
733.318000	-0.151470
733.518000	-0.517972
733.718000	-1.053463
733.918000	-0.935170
734.118000	-0.637680
734.317000	-0.352433
734.517000	-0.569282
734.717000	-0.540324
734.917000	-0.079078
735.117000	-0.149844
735.317000	-0.227535
735.517000	0.250119
735.717000	0.549331
735.916000	-0.413659
736.116000	-0.629892
736.316000	-0.422995
736.516000	-0.312147
736.716000	-0.387345
736.916000	-0.948631
737.116000	-0.686456
737.316000	-0.005047
737.516000	-0.095354
737.715000	-0.214682
737.915000	-0.775232
738.115000	-0.708774
738.315000	-0.375340
738.515000	-0.701903
738.715000	-0.538098
738.915000	-0.008773
739.115000	-0.506756
739.314000	-0.561173
739.514000	-0.045525
739.714000	0.061099
739.914000	-0.152824
740.114000	-0.415691
740.314000	-0.201338
740.514000	0.191268
740.714000	-0.577977
740.913000	-0.977364
741.113000	-0.740139
741.313000	-0.430505
741.513000	-0.465386
741.713000	-0.241571
741.913000	-0.201255
742.113000	-0.438024
742.313000	-0.974459
742.513000	-0.563932
742.712000	-0.448365
742.912000	-0.823482
743.112000	-0.586823
743.312000	-0.896165
743.512000	-0.573863
743.712000	-0.349863
743.912000	-0.998374
744.112000	-1.148635
744.311000	-1.117118
744.511000	-0.637416
744.711000	-0.244939
744.911000	-0.701822
745.111000	-0.706567
745.311000	-0.180087
745.511000	-0.518464
745.711000	-0.709573
745.911000	-0.472884
746.110000	-0.983631
746.310000	-1.067839
746.510000	-0.670456
746.710000	-0.166615
746.910000	-0.064503
747.110000	-0.718550
747.310000	-1.011834
747.510000	-0.817620
747.709000	-0.481296
747.909000	-0.470607
748.109000	-0.109275
748.309000	-0.285336
748.509000	-0.698048
748.709000	-0.913556
748.909000	-0.624111
749.109000	-0.606667
749.308000	-0.050068
749.508000	-0.329882
749.708000	-0.548907
749.908000	-0.220585
750.108000	-0.200906
750.308000	-0.981099
750.508000	-0.193939
750.708000	-0.615575
750.908000	-1.092711
751.107000	-0.330798
751.307000	0.240819
751.507000	-0.393711
751.707000	-0.372602
751.907000	-0.514000
752.107000	-0.349907
752.307000	-0.725463
752.507000	-0.539683
752.706000	-0.593498
752.906000	0.382584
753.106000	-0.450131
753.306000	-1.107340
753.506000	-0.182952
753.706000	-0.559245
753.906000	-0.196019
754.106000	-0.001692
754.305000	-0.243126
754.505000	-0.205542
754.705000	-0.398812
754.905000	-0.459270
755.105000	-0.185865
755.305000	-1.022394
755.505000	-0.831798
755.705000	-0.402207
755.905000	-0.485483
756.104000	-0.961429
756.304000	-1.436481
756.504000	-1.665306
756.704000	-0.403426
756.904000	-0.106472
757.104000	-0.515921
757.304000	-0.485883
757.504000	0.007021
757.703000	-0.449276
757.903000	-0.019351
758.103000	0.227404
758.303000	-0.205062
758.503000	-0.458176
758.703000	-0.628021
758.903000	-0.726056
759.103000	-0.407253
759.303000	-0.391299
759.502000	-0.504816
759.702000	-0.064649
759.902000	-0.543299
760.102000	-0.576263
760.302000	-0.578203
760.502000	-0.332131
760.702000	-0.269167
760.902000	-0.564906
761.101000	-0.876210
761.301000	-1.124098
761.501000	-0.750248
761.701000	-0.824920
761.901000	-0.613178
762.101000	-0.107789
762.301000	-0.393389
762.501000	-0.933108
762.700000	-1.043929
762.900000	-0.923841
763.100000	-0.595568
763.300000	-0.285960
763.500000	-0.598594
763.703000	-0.694167
763.905000	-0.888031
764.108000	-0.207820
764.311000	-0.582348
764.513000	-0.704910
764.716000	-0.472471
764.919000	-0.506089
765.121000	-1.010684
765.324000	-1.155568
765.527000	-1.133213
765.729000	-0.852735
765.932000	0.093316
766.135000	-0.120895
766.337000	-0.492400
766.540000	-0.689905
766.743000	-0.411051
766.945000	-0.967468
767.148000	-1.258534
767.351000	-1.060987
767.553000	-0.195210
767.756000	-0.596895
767.958000	-1.138530
768.161000	-0.718371
768.364000	-0.997957
768.566000	-1.277688
768.769000	-0.637067
768.972000	-0.280388
769.174000	-0.785910
769.377000	-1.318840
769.580000	-1.292106
769.782000	-0.577596
769.985000	-1.053260
770.188000	-2.015551
770.390000	-1.150480
770.593000	0.390298
770.796000	0.142123
770.998000	-0.449489
771.201000	-0.883001
771.404000	-0.475520
771.606000	-0.837715
771.809000	-0.797420
772.012000	-0.623527
772.214000	-1.536970
772.417000	-1.602353
772.620000	-0.372093
772.822000	-0.621937
773.025000	-0.990037
773.228000	-0.956534
773.430000	-0.872129
773.633000	-0.605161
773.836000	-0.468955
774.038000	-0.353555
774.241000	-0.511345
774.444000	-0.834765
774.646000	0.258293
774.849000	-0.283433
775.052000	-0.518686
775.254000	-0.350578
775.457000	-0.657503
775.659000	-0.556418
775.862000	-0.833798
776.065000	-0.603750
776.267000	0.059757
776.470000	0.329100
776.673000	-0.400786
776.875000	0.112175
777.078000	-0.038369
777.281000	-0.964959
777.483000	-0.310146
777.686000	-0.200874
777.889000	-0.305824
778.091000	-0.033630
778.294000	-1.109272
778.497000	-1.000364
778.699000	-0.806609
778.902000	-0.740774
779.105000	-0.487551
779.307000	0.256806
779.510000	-0.791204
779.713000	-0.528458
779.915000	-0.674222
780.118000	0.478398
780.321000	0.553827
780.523000	-0.457594
780.726000	-1.004552
780.929000	-1.148871
781.131000	-1.096980
781.334000	-1.666664
781.537000	-1.628113
781.739000	-0.440111
781.942000	-0.986992
782.145000	-1.448982
782.347000	-1.406356
782.550000	-1.107726
782.753000	-1.237038
782.955000	-1.037685
783.158000	-0.998744
783.361000	-0.677353
783.563000	-0.693934
783.766000	-0.899390
783.968000	0.940462
784.171000	0.856170
784.374000	-0.472985
784.576000	-0.522676
784.779000	-0.179111
784.982000	0.131215
785.184000	-0.555658
785.387000	-0.209390
785.590000	0.490180
785.792000	0.256130
785.995000	-0.019127
786.198000	-0.176928
786.400000	-0.585082
786.603000	-0.626277
786.806000	-0.816622
787.008000	-0.573388
787.211000	-0.342778
787.414000	-1.072852
787.616000	-0.871129
787.819000	-0.752861
788.022000	-1.436613
788.224000	-0.859281
788.427000	-1.504304
788.630000	-0.793484
788.832000	-0.434962
789.035000	-1.096618
789.238000	-1.732191
789.440000	-1.393139
789.643000	-0.182347
789.846000	-0.701183
790.048000	-0.399312
790.251000	-0.113282
790.454000	-0.357815
790.656000	0.348607
790.859000	-0.535846
791.062000	-0.918533
791.264000	-0.248809
791.467000	-1.216307
791.669000	-1.719717
791.872000	-0.660719
792.075000	-1.216832
792.277000	-0.950396
792.480000	-0.681523
792.683000	-1.119303
792.885000	-1.239323
793.088000	-1.058839
793.291000	-1.312798
793.493000	-1.405109
793.696000	-0.572098
793.899000	-0.327127
794.101000	-0.701580
794.304000	-0.836067
794.507000	-0.522712
794.709000	-0.293628
794.912000	-0.806462
795.115000	-1.149772
795.317000	-0.881005
795.520000	-0.688767
795.723000	-0.937645
795.925000	-1.357999
796.128000	-1.639322
796.331000	-1.187847
796.533000	-1.524853
796.736000	-0.829697
796.939000	-0.632179
797.141000	-0.952645
797.344000	-0.252780
797.547000	-0.158995
797.749000	-0.178029
797.952000	-0.897183
798.155000	-1.366724
798.357000	-1.520419
798.560000	-1.325474
798.763000	-0.656972
798.965000	-1.049906
799.168000	-0.881081
799.371000	-0.576176
799.573000	-0.776339
799.776000	-1.494803
799.978000	-1.474286
800.181000	-0.659354
800.384000	0.732602
800.586000	0.171945
800.789000	-1.533920
800.992000	-1.519967
801.194000	-1.652748
801.397000	-1.559701
801.600000	-1.291611
801.802000	0.029991
802.005000	-0.224997
802.208000	-1.694921
802.410000	-0.723525
802.613000	-0.430502
802.816000	-0.714385
803.018000	-1.462971
803.221000	-1.253857
803.424000	0.262703
803.626000	-0.122254
803.829000	-0.729194
804.032000	0.211183
804.234000	1.032876
804.437000	-0.566303
804.640000	-0.693207
804.842000	-0.533525
805.045000	-1.083163
805.248000	-0.990473
805.450000	-0.948953
805.653000	-0.812131
805.856000	-1.015075
806.058000	-0.016356
806.261000	-1.150387
806.464000	-1.124185
806.666000	-0.420525
806.869000	-0.836790
807.072000	-2.366744
807.274000	-2.623473
807.477000	-1.309785
807.679000	-0.819470
807.882000	-1.397133
808.085000	-1.001488
808.287000	-0.289419
808.490000	-1.396637
808.693000	-1.271457
808.895000	-0.900984
809.098000	-0.775053
809.301000	-0.897392
809.503000	-1.042773
809.706000	-0.081089
809.909000	0.260295
810.111000	-0.017092
810.314000	-0.666700
810.517000	-1.041622
810.719000	-1.333692
810.922000	-1.181263
811.125000	-0.117586
811.327000	0.126911
811.530000	-0.545853
811.735000	-1.058254
811.940000	-1.277962
812.146000	-1.159661
812.351000	-0.454005
812.556000	-0.601445
812.761000	-1.386835
812.967000	-0.414757
813.172000	-0.348206
813.377000	-0.835629
813.582000	-0.047361
813.788000	-0.308480
813.993000	-1.519208
814.198000	-0.650239
814.403000	-1.438059
814.609000	-0.579143
814.814000	-0.671949
815.019000	0.162053
815.224000	-0.002999
815.429000	-1.135283
815.635000	-0.563366
815.840000	-0.654942
816.045000	-0.566548
816.250000	-0.285256
816.456000	-1.668622
816.661000	-2.428451
816.866000	-1.672269
817.071000	-1.748089
817.277000	-2.455679
817.482000	-1.460143
817.687000	-0.847336
817.892000	-0.859922
818.097000	-0.175018
818.303000	0.168765
818.508000	0.464758
818.713000	7.485198
818.918000	3.904242
819.124000	0.232376
819.329000	-0.925568
819.534000	-1.031122
819.739000	-1.244725
819.945000	-1.274433
820.150000	-0.978037
820.355000	-0.787794
820.560000	-0.282651
820.766000	-0.467488
820.971000	-0.816382
821.176000	-2.311438
821.381000	-2.779565
821.586000	-1.776178
821.792000	-0.222596
821.997000	-0.686299
822.202000	-0.898602
822.407000	-1.529970
822.613000	-1.623177
822.818000	-1.045024
823.023000	-0.652088
823.228000	-0.813349
823.434000	-0.185006
823.639000	0.153950
823.844000	-0.965970
824.049000	-0.227553
824.255000	-0.061655
824.460000	-0.798556
824.665000	-1.160105
824.870000	-0.045418
825.075000	-0.348642
825.281000	-0.231439
825.486000	0.914252
825.691000	-1.518115
825.896000	-2.859711
826.102000	-1.112517
826.307000	-1.029702
826.512000	-1.351173
826.717000	-0.890357
826.923000	-1.056972
827.128000	-0.842931
827.333000	-1.754246
827.538000	-0.816585
827.744000	-0.082383
827.949000	-1.280636
828.154000	-1.022336
828.359000	-0.117633
828.564000	-0.638756
828.770000	-1.066633
828.975000	0.094119
829.180000	-0.360537
829.385000	-1.868011
829.591000	-1.553369
829.796000	-0.921913
830.001000	-1.049958
830.206000	-1.523807
830.412000	-1.377620
830.617000	-1.208783
830.822000	-0.358798
831.027000	-1.093987
831.232000	-1.557694
831.438000	-1.531873
831.643000	-0.887379
831.848000	-1.037198
832.053000	-0.865161
832.259000	-0.968251
832.464000	-2.654356
832.669000	-2.169242
832.874000	-1.839555
833.080000	-2.091050
833.285000	-0.003750
833.490000	-0.125718
833.695000	-1.826423
833.901000	-1.550370
834.106000	-1.685772
834.311000	-1.408056
834.516000	-0.912717
834.721000	-1.524004
834.927000	-0.448270
835.132000	-0.720187
835.337000	1.033418
835.542000	-0.315965
835.748000	-1.999176
835.953000	-0.003907
836.158000	-0.278056
836.363000	-0.701862
836.569000	-0.677584
836.774000	-1.631442
836.979000	-1.931496
837.184000	-2.264858
837.390000	-2.268991
837.595000	-1.454684
837.800000	-1.036862
838.005000	-0.669916
838.210000	-0.892263
838.416000	-1.574602
838.621000	-1.172445
838.826000	-1.303726
839.031000	-1.361448
839.237000	-1.937135
839.442000	-2.527245
839.647000	-2.626302
839.852000	-2.090274
840.058000	-1.807614
840.263000	-1.670673
840.468000	-2.589855
840.673000	-1.526542
840.878000	-1.340115
841.084000	-2.156544
841.289000	-1.488328
841.494000	1.288843
841.699000	1.208035
841.905000	0.347584
842.110000	0.788969
842.315000	-1.486764
842.520000	-0.937953
842.726000	-1.574880
842.931000	-1.842320
843.136000	-0.805484
843.341000	-2.513005
843.547000	-1.615306
843.752000	-1.126778
843.957000	-1.916049
844.162000	-2.079684
844.367000	-1.685959
844.573000	-0.959934
844.778000	-0.591725
844.983000	-0.459879
845.188000	-0.462237
845.394000	-2.201377
845.599000	-1.915014
845.804000	-1.538139
846.009000	-0.731238
846.215000	-1.852537
846.420000	-1.548709
846.625000	-0.670157
846.830000	0.155503
847.036000	-1.027154
847.241000	-1.723798
847.446000	-0.108445
847.651000	-0.827190
847.856000	-2.038777
848.062000	-1.564103
848.267000	0.077407
848.472000	-1.134537
848.677000	-2.671955
848.883000	-0.958656
849.088000	0.816091
849.293000	-0.828863
849.498000	-1.662770
849.704000	-0.590896
849.909000	-1.036149
850.114000	-1.923652
850.319000	-1.230815
850.524000	-1.273840
850.730000	-1.062289
850.935000	-1.444853
851.140000	-0.274071
851.345000	-0.200631
851.551000	-0.323939
851.756000	-0.054280
851.961000	-1.575841
852.166000	-1.440527
852.372000	-1.121661
852.577000	-1.304835
852.782000	-1.453256
852.987000	0.421927
853.193000	-0.055452
853.398000	-0.723607
853.603000	-2.140293
853.808000	-2.621781
854.013000	-1.404464
854.219000	-0.043332
854.424000	1.517386
854.629000	1.007840
854.834000	-1.425043
855.040000	-1.083423
855.245000	-0.587806
855.450000	-2.986778
855.655000	-3.999648
855.861000	-3.529101
856.066000	-2.663057
856.271000	-2.772773
856.476000	-0.811951
856.682000	-1.545195
856.887000	-4.156683
857.092000	-2.610345
857.297000	-0.112093
857.502000	-0.607031
857.708000	-1.197672
857.913000	0.021472
858.118000	-0.926391
858.323000	-1.064948
858.529000	-1.280301
858.734000	-1.664568
858.939000	-1.451243
859.144000	-1.853039
859.350000	-2.879869
859.555000	-2.641727
859.760000	-0.640564
859.965000	0.173896
860.171000	-1.752020
860.376000	-0.548400
860.581000	-2.545580
860.786000	-5.008835
860.991000	-4.101677
861.197000	-3.058204
861.402000	-1.317642
861.607000	-2.024310
861.812000	-3.096317
862.018000	-3.264742
862.223000	-2.287057
862.428000	-1.110110
862.633000	-0.192277
862.839000	-0.756604
863.044000	-1.825788
863.249000	-2.822729
863.454000	-0.587199
863.659000	-1.740703
863.865000	-2.848199
864.070000	-2.620636
864.275000	-3.051733
864.480000	-2.370963
864.686000	-3.848503
864.891000	-3.317162
865.096000	-1.184385
865.301000	-0.618706
865.507000	-0.652411
865.712000	-0.487021
865.917000	-1.791171
866.122000	-0.840377
866.328000	-3.728393
866.533000	-3.588590
866.738000	-0.036634
866.943000	-0.052007
867.148000	0.470697
867.354000	-2.083601
867.559000	-3.619443
867.764000	-1.891807
867.969000	-0.789380
868.175000	-2.269611
868.380000	-2.763161
868.585000	-3.394143
868.790000	-1.265393
868.996000	-1.384655
869.201000	-3.278508
869.406000	-4.186003
869.611000	-3.249382
869.817000	-2.495765
870.022000	1.851680
870.227000	-0.263340
870.432000	-2.668956
870.637000	-1.282693
870.843000	-1.940094
871.048000	-2.038570
871.253000	0.107355
871.458000	-1.232678
871.664000	-3.724832
871.869000	-3.647542
872.074000	-3.027749
872.279000	-1.566238
872.485000	-2.060586
872.690000	-2.069520
872.895000	-2.431716
873.100000	-3.125852
873.306000	-3.477777
873.511000	-2.240330
873.716000	-0.228967
873.921000	-1.932616
874.126000	-2.652615
874.332000	-2.075429
874.537000	-1.011666
874.742000	-0.870264
874.947000	-1.342146
875.153000	0.168029
875.358000	-1.393001
875.563000	-2.005184
875.768000	-4.460192
875.974000	-4.354804
876.179000	-1.158115
876.384000	-0.558739
876.589000	-2.664592
876.794000	-2.308107
877.000000	-3.083612
877.205000	-4.499170
877.410000	-1.704524
877.615000	-3.594358
877.821000	-5.681224
878.026000	-3.318710
878.231000	-3.772721
878.436000	-3.797276
878.642000	-3.273115
878.847000	-1.496775
879.052000	-0.301132
879.257000	-3.100469
879.463000	-3.753891
879.668000	-2.345039
879.873000	-0.342725
880.078000	-3.088348
880.283000	-4.918609
880.489000	-5.162178
880.694000	-4.544533
880.899000	-2.378556
881.104000	-0.674185
881.310000	1.382615
881.515000	-0.140766
881.720000	0.945781
881.925000	2.005777
882.131000	3.597585
882.336000	0.456057
882.541000	-4.039407
882.746000	-3.511302
882.952000	-3.937314
883.157000	-3.672644
883.362000	-3.796054
883.567000	-4.127307
883.772000	-4.245201
883.978000	-3.293931
884.183000	-1.624760
884.388000	-2.059060
884.593000	-4.530167
884.799000	0.152081
885.004000	-0.434278
885.209000	-2.099233
885.414000	-1.323204
885.620000	-4.206189
885.825000	-1.280776
886.030000	-1.647005
886.235000	-2.914389
886.440000	-2.460657
886.646000	-5.429763
886.851000	-5.121767
887.056000	-0.323764
887.261000	-1.060440
887.467000	-4.022412
887.672000	-1.816464
887.877000	-2.894657
888.082000	-5.163937
888.288000	-5.637346
888.493000	-7.817624
888.698000	-6.437181
888.903000	-3.111844
889.109000	-3.646787
889.314000	-0.420356
889.519000	-2.210348
889.724000	-0.246428
889.929000	-1.848203
890.135000	-2.287173
890.340000	-2.500999
890.545000	-3.789123
890.750000	-4.958198
890.956000	-3.568428
891.161000	-1.193608
891.366000	-3.595347
891.571000	-2.478982
891.777000	-2.282614
891.982000	-0.141974
892.187000	-1.011443
892.392000	-0.297821
892.598000	-0.187760
892.803000	-0.369819
893.008000	-3.365626
893.213000	-4.098184
893.418000	-3.312516
893.624000	-4.034075
893.829000	-6.447304
894.034000	-3.337676
894.239000	-1.429614
894.445000	-4.557770
894.650000	-4.534798
894.855000	-4.034425
895.060000	-4.670653
895.266000	-4.423182
895.471000	-5.420093
895.676000	-1.401521
895.881000	-1.273163
896.087000	-2.748129
896.292000	-4.085396
896.497000	-0.056823
896.702000	-1.943101
896.907000	-3.575721
897.113000	1.317996
897.318000	0.961935
897.523000	0.299318
897.728000	-2.084217
897.934000	-2.790601
898.139000	-2.869802
898.344000	-0.346457
898.549000	-1.848619
898.755000	-3.765474
898.960000	-3.910629
899.165000	-5.668570
899.370000	-2.067331
899.575000	0.874228
899.781000	-3.900867
899.986000	-4.048838
900.191000	-2.686724
900.396000	-3.037240
900.602000	-1.932138
900.807000	-2.875953
901.012000	-1.958466
901.217000	-0.289172
901.423000	-3.245828
901.628000	-5.082879
901.833000	-0.443526
902.038000	-0.575414
902.244000	-4.800742
902.449000	-3.901346
902.654000	-4.359106
902.859000	-2.816134
903.064000	0.198388
903.270000	-0.010479
903.475000	-4.808306
903.680000	-7.108194
903.885000	-5.950474
904.091000	-4.707391
904.296000	-6.351201
904.501000	-5.894964
904.706000	-5.135783
904.912000	-0.797399
905.117000	-2.680027
905.322000	-5.584785
905.527000	-4.820980
905.733000	-4.140453
905.938000	-4.441554
906.143000	-4.968371
906.348000	-6.672547
906.553000	-1.190248
906.759000	0.157104
906.964000	-2.379540
907.169000	-3.980678
907.374000	-6.772402
907.580000	-4.931447
907.785000	-3.512078
907.990000	25.115706
908.195000	16.303243
908.401000	-1.064393
908.606000	-9.508686
908.811000	-10.233562
909.016000	-2.505135
909.221000	-2.365932
909.427000	-3.444807
909.632000	-5.833551
909.837000	-5.814079
910.042000	-7.006753
910.248000	-7.829321
910.453000	-3.543812
910.658000	-5.074010
910.863000	-5.344528
911.069000	-6.625037
911.274000	-2.088239
911.479000	-0.448898
911.684000	-7.331729
911.890000	-4.216360
912.095000	-4.001685
912.300000	-6.655876
912.506000	-5.045176
912.711000	-5.300318
912.917000	-3.220236
913.123000	-3.576242
913.328000	-4.373565
913.534000	-3.370568
913.740000	6.617727
913.946000	2.593033
914.151000	-5.096772
914.357000	-6.317271
914.563000	-1.168881
914.768000	-5.504268
914.974000	-7.815781
915.180000	-6.601407
915.385000	-5.230007
915.591000	-8.165765
915.797000	-3.050624
916.002000	-0.118108
916.208000	-4.163599
916.414000	-6.272035
916.620000	-6.565736
916.825000	-3.388045
917.031000	-4.445800
917.237000	-9.759964
917.442000	-5.439507
917.648000	-6.021783
917.854000	-7.779292
918.059000	-1.245138
918.265000	-0.520568
918.471000	-4.011232
918.676000	-7.359031
918.882000	-9.551514
919.088000	-7.606319
919.294000	-12.628104
919.499000	-7.905797
919.705000	-1.110722
919.911000	-3.415132
920.116000	-2.190163
920.322000	-8.751899
920.528000	-7.758596
920.733000	-8.452814
920.939000	-8.919117
921.145000	-8.116253
921.350000	-7.625799
921.556000	-5.650503
921.762000	-5.357292
921.968000	-5.852274
922.173000	-7.903607
922.379000	-10.532931
922.585000	-5.904592
922.790000	-6.857205
922.996000	-7.694972
923.202000	-7.955094
923.407000	-9.308207
923.613000	-7.384169
923.819000	-4.708347
924.024000	-4.511273
924.230000	-3.144845
924.436000	-6.014708
924.642000	4.978420
924.847000	0.722312
925.053000	-6.537472
925.259000	-10.942544
925.464000	-5.450030
925.670000	-6.102241
925.876000	-8.650179
926.081000	-9.631197
926.287000	-4.433490
926.493000	-3.603906
926.698000	-6.155954
926.904000	-3.632965
927.110000	-6.336721
927.316000	-5.541771
927.521000	2.241146
927.727000	-3.716516
927.933000	-6.271206
928.138000	-5.590406
928.344000	-11.482553
928.550000	-6.333351
928.755000	-1.470883
928.961000	-6.779678
929.167000	-7.112504
929.372000	-0.019510
929.578000	-1.348752
929.784000	-6.862540
929.990000	-10.231584
930.195000	-8.111034
930.401000	-7.366339
930.607000	-5.013519
930.812000	-3.585527
931.018000	-7.231477
931.224000	-13.651263
931.429000	-9.183503
931.635000	-12.800000
931.841000	-13.974357
932.046000	-8.176722
932.252000	-3.512846
932.458000	3.074831
932.664000	-1.533128
932.869000	-8.451827
933.075000	-10.196028
933.281000	-10.065230
933.486000	-2.706061
933.692000	-5.245567
933.898000	-9.500630
934.103000	-3.364337
934.309000	-6.037309
934.515000	-3.726609
934.720000	-2.087937
934.926000	1.225204
935.132000	0.869048
935.338000	-4.897736
935.543000	-12.719058
935.749000	-13.331192
935.955000	-15.187279
936.160000	-12.546012
936.366000	-2.734563
936.572000	-3.302455
936.777000	-2.976657
936.983000	-0.617759
937.189000	-6.252530
937.394000	-11.237494
937.600000	-2.117655
937.806000	2.622194
938.012000	-6.445081
938.217000	3.100553
938.423000	0.532114
938.629000	-7.380651
938.834000	-14.768270
939.040000	-15.232035
939.246000	-9.371173
939.451000	-13.127852
939.657000	-7.672383
939.863000	-10.762034
940.068000	-3.792720
940.274000	-8.743505
940.480000	-6.940450
940.686000	-4.252846
940.891000	-5.844992
941.097000	18.883345
941.303000	3.765088
941.508000	-9.340486
941.714000	-5.791561
941.920000	-17.051284
942.125000	-4.675477
942.331000	-5.515582
942.537000	0.539693
942.742000	-0.611258
942.948000	-11.599056
943.154000	-15.133001
943.360000	-26.123559
943.565000	-10.987637
943.771000	0.986727
943.977000	2.669612
944.182000	-17.575768
944.388000	-15.958007
944.594000	-1.236031
944.799000	5.080985
945.005000	-2.847499
945.211000	1.761453
945.416000	-2.379050
945.622000	-15.703285
945.828000	-12.265278
946.034000	-3.612761
946.239000	-2.823614
946.445000	-8.357845
946.651000	-19.157388
946.856000	-18.764535
947.062000	-4.202450
947.268000	-1.285645
947.473000	-17.157794
947.679000	-19.336618
947.885000	-4.740599
948.090000	-2.312038
948.296000	12.366655
948.502000	-1.678666
948.708000	-13.288902
948.913000	-13.353621
949.119000	-2.922942
949.325000	-10.283362
949.530000	-24.084802
949.736000	-27.160020
949.942000	-19.096712
950.147000	-18.117345
950.353000	-16.300245
950.559000	-11.595130
950.764000	10.602061
950.970000	6.351989
951.176000	-9.923709
951.382000	-15.480787
951.587000	-3.557184
951.793000	0.354135
951.999000	0.930934
952.204000	-12.181278
952.410000	-26.823981
952.616000	-13.519421
952.821000	-9.536644
953.027000	-17.514233
953.233000	-19.113809
953.438000	-17.957464
953.644000	1.751210
953.850000	-4.420775
954.056000	-11.007886
954.261000	-11.886262
954.467000	0.263856
954.673000	3.807781
954.878000	-7.357198
955.084000	-6.145356
955.290000	-22.310548
955.495000	-22.990477
955.701000	-18.433209
955.907000	0.582687
956.112000	-0.145687
956.318000	4.703030
956.524000	2.879364
956.730000	-12.440375
956.935000	-13.647158
957.141000	-16.510229
957.347000	-6.362834
957.552000	-11.599496
957.758000	-23.279175
957.964000	-33.575285
958.169000	0.282600
958.375000	0.501533
958.581000	-14.725054
958.786000	-27.972015
958.992000	-31.905197
959.198000	-10.125476
959.404000	-5.290307
959.609000	-11.865597
959.815000	-15.592635
960.021000	2.113935
960.226000	-6.008110
960.432000	-28.859051
960.638000	-20.788502
960.843000	-13.528183
961.049000	-12.148499
961.255000	-3.809776
961.460000	-18.167508
961.666000	-38.006930
961.872000	-22.968564
962.078000	-19.800992
962.283000	-29.430768
962.489000	-29.087773
962.695000	-18.085670
962.900000	-13.926153
963.106000	-15.061226
963.312000	-19.494958
963.517000	-22.892975
963.723000	-27.101210
963.929000	-2.831274
964.134000	7.013871
964.340000	-16.888925
964.546000	-20.565199
964.752000	-27.221333
964.957000	-32.153757
965.163000	-2.683246
965.369000	-6.982727
965.574000	-6.785598
965.780000	-10.833679
966.000000	-21.091641
966.220000	-17.554885
966.440000	-14.647382
966.661000	-1.289740
966.881000	-22.350801
967.101000	-42.042775
967.321000	-41.550869
967.541000	-14.138963
967.761000	-19.944714
967.981000	-14.997634
968.202000	-12.465875
968.422000	-1.361687
968.642000	-2.801645
968.862000	-4.924260
969.082000	-16.396069
969.302000	-10.335812
969.522000	-13.173297
969.743000	0.528382
969.963000	-20.911277
970.183000	-30.663572
970.403000	-27.635625
970.623000	-25.069187
970.843000	1.177800
971.063000	-1.007139
971.284000	-24.919807
971.504000	-37.249204
971.724000	-15.986291
971.944000	-29.772312
972.164000	-37.479075
972.384000	-28.387774
972.604000	-48.165085
972.825000	-52.343272
973.045000	-35.433578
973.265000	19.473863
973.485000	6.055777
973.705000	-10.503074
973.925000	-18.302457
974.145000	-52.486428
974.365000	-17.500279
974.586000	-16.887276
974.806000	-33.542315
975.026000	-2.586321
975.246000	-18.354841
975.466000	-32.209624
975.686000	-15.802142
975.906000	-29.774665
976.127000	-50.072911
976.347000	-45.219303
976.567000	-12.959818
976.787000	-10.190059
977.007000	-25.550797
977.227000	-29.311889
977.447000	-28.085556
977.668000	-49.923733
977.888000	-37.618015
978.108000	-36.093663
978.328000	-20.652485
978.548000	6.873258
978.768000	6.596674
978.988000	-7.272024
979.209000	-22.390406
979.429000	-26.328896
979.649000	-11.048547
979.869000	-34.531928
980.089000	-52.905797
980.309000	-55.368000
980.529000	-60.509314
980.750000	-33.243578
980.970000	-45.006871
981.190000	-38.584603
981.410000	-36.912000
981.630000	-37.953108
981.850000	-21.879097
982.070000	-20.098771
982.291000	-52.426016
982.511000	-47.916365
982.731000	-5.182970
982.951000	-29.313548
983.171000	-39.556060
983.391000	-30.166796
983.611000	2.604657
983.832000	-28.470921
984.052000	-54.824499
984.272000	-28.789645
984.492000	-22.274777
984.712000	-41.105006
984.932000	-63.811047
985.152000	-62.153097
985.373000	-46.363767
985.593000	-20.280078
985.813000	-36.454957
986.033000	-46.299451
986.253000	-6.270046
986.473000	5.483078
986.693000	-28.338014
986.914000	-36.829883
987.134000	9.923958
987.354000	-25.794581
987.574000	185.167292
987.794000	105.911878
988.014000	-46.066294
988.234000	-33.867404
988.455000	-14.376787
988.675000	-12.268990
988.895000	-26.554012
989.115000	-42.539538
989.335000	-20.111768
989.555000	-8.676196
989.775000	-55.349025
989.995000	-43.391357
990.216000	-28.816173
990.436000	-30.293542
990.656000	1.234936
990.876000	-32.096230
991.096000	-19.650164
991.316000	8.682254
991.536000	-19.770070
991.757000	-39.341533
991.977000	-81.887635
992.197000	-18.263055
992.417000	-34.253870
992.637000	-88.282190
992.857000	-90.485794
993.077000	-75.559629
993.298000	-49.137138
993.518000	-53.595030
993.738000	-102.800273
993.958000	-58.443032
994.178000	-63.255150
994.398000	-54.139430
994.618000	-88.781867
994.839000	-142.793735
995.059000	-39.641344
995.279000	32.102459
995.499000	-13.605957
995.719000	-11.856597
995.939000	-40.749919
996.159000	-38.157281
996.380000	-25.289335
996.600000	-75.253755
996.820000	-43.156046
997.040000	0.728605
997.260000	-61.830201
997.480000	-44.274496
997.700000	-110.808371
997.921000	-73.446654
998.141000	12.223500
998.361000	-15.036471
998.581000	-64.654994
998.801000	-100.786125
999.021000	-62.398313
999.241000	-35.508859
999.462000	-56.068311
999.682000	-115.089857
999.902000	-78.781276
1000.122000	-87.968685
1000.342000	-145.749225
1000.562000	-70.168749
1000.782000	-70.806493
1001.003000	-1046.788565
