Wavelength	Irradiance
(nm)	(mW/cm2/nm)

294.396000	0.000000
294.577000	0.000000
294.757000	0.000000
294.938000	-0.000000
295.118000	-0.000000
295.299000	0.000000
295.479000	-0.000000
295.660000	-0.000000
295.840000	-0.000000
296.021000	-0.000000
296.202000	-0.000000
296.382000	-0.000000
296.563000	-0.000000
296.743000	-0.000000
296.924000	0.000000
297.104000	0.000000
297.285000	-0.000000
297.465000	-0.000000
297.646000	-0.000000
297.826000	-0.000000
298.007000	0.000000
298.187000	0.000000
298.368000	-0.000000
298.548000	0.000000
298.729000	0.000000
298.909000	-0.000000
299.090000	-0.000000
299.270000	-0.000000
299.451000	-0.000000
299.631000	-0.000000
299.812000	-0.000000
299.992000	0.000000
300.173000	0.000000
300.353000	-0.000000
300.534000	-0.000000
300.714000	0.000000
300.895000	0.000000
301.075000	-0.000000
301.256000	0.000000
301.436000	-0.000000
301.617000	-0.000000
301.797000	-0.000000
301.978000	-0.000000
302.159000	0.000000
302.339000	0.000000
302.520000	-0.000000
302.700000	-0.000000
302.881000	0.000000
303.061000	0.000000
303.242000	0.000000
303.422000	0.000000
303.603000	-0.000000
303.783000	-0.000000
303.964000	0.000000
304.144000	-0.000000
304.325000	-0.000000
304.505000	0.000000
304.686000	0.000000
304.866000	0.000000
305.047000	-0.000000
305.227000	-0.000000
305.408000	-0.000000
305.588000	-0.000000
305.769000	-0.000000
305.949000	-0.000000
306.130000	-0.000000
306.310000	-0.000000
306.491000	-0.000000
306.671000	0.000000
306.852000	-0.000000
307.032000	-0.000000
307.213000	-0.000000
307.393000	-0.000000
307.574000	0.000000
307.755000	0.000000
307.935000	-0.000000
308.116000	-0.000000
308.296000	-0.000000
308.477000	0.000000
308.657000	0.000000
308.838000	0.000000
309.018000	0.000000
309.199000	-0.000000
309.379000	-0.000000
309.560000	0.000000
309.740000	-0.000000
309.921000	-0.000000
310.101000	-0.000000
310.282000	-0.000000
310.462000	-0.000000
310.643000	-0.000000
310.823000	-0.000000
311.004000	-0.000000
311.184000	-0.000000
311.365000	0.000000
311.545000	0.000000
311.726000	0.000000
311.906000	0.000000
312.087000	0.000000
312.267000	-0.000000
312.448000	-0.000000
312.628000	-0.000000
312.809000	-0.000000
312.989000	-0.000000
313.170000	-0.000000
313.344000	-0.000000
313.518000	-0.000000
313.691000	-0.000000
313.865000	-0.000000
314.039000	-0.000000
314.213000	-0.000000
314.387000	-0.000000
314.560000	-0.000000
314.734000	-0.000000
314.908000	-0.000000
315.082000	-0.000000
315.255000	-0.000000
315.429000	0.000000
315.603000	0.000000
315.777000	-0.000000
315.951000	0.000000
316.124000	-0.000000
316.298000	-0.000000
316.472000	-0.000000
316.646000	-0.000000
316.820000	-0.000000
316.993000	-0.000000
317.167000	-0.000000
317.341000	-0.000000
317.515000	-0.000000
317.688000	-0.000000
317.862000	-0.000000
318.036000	-0.000000
318.210000	-0.000000
318.384000	-0.000000
318.557000	-0.000000
318.731000	-0.000000
318.905000	-0.000000
319.079000	0.000000
319.253000	-0.000000
319.426000	0.000000
319.600000	0.000000
319.774000	-0.000000
319.948000	-0.000000
320.122000	0.000000
320.295000	0.000000
320.469000	-0.000000
320.643000	-0.000000
320.817000	-0.000000
320.990000	-0.000000
321.164000	-0.000000
321.338000	-0.000000
321.512000	-0.000000
321.686000	-0.000000
321.859000	-0.000000
322.033000	-0.000000
322.207000	0.000000
322.381000	-0.000000
322.555000	0.000000
322.728000	0.000000
322.902000	-0.000000
323.076000	-0.000000
323.250000	-0.000000
323.423000	-0.000000
323.597000	-0.000000
323.771000	-0.000000
323.945000	-0.000000
324.119000	-0.000000
324.292000	0.000000
324.466000	-0.000000
324.640000	0.000000
324.814000	0.000000
324.988000	-0.000000
325.161000	-0.000000
325.335000	-0.000000
325.509000	-0.000000
325.683000	-0.000000
325.856000	-0.000000
326.030000	-0.000000
326.204000	-0.000000
326.378000	-0.000000
326.552000	-0.000000
326.725000	-0.000000
326.899000	-0.000000
327.073000	-0.000000
327.247000	-0.000000
327.421000	0.000000
327.594000	-0.000000
327.768000	-0.000000
327.942000	-0.000000
328.116000	0.000000
328.289000	0.000000
328.463000	-0.000000
328.637000	0.000000
328.811000	-0.000000
328.985000	-0.000000
329.158000	-0.000000
329.332000	-0.000000
329.506000	0.000000
329.680000	-0.000000
329.854000	-0.000000
330.027000	0.000000
330.201000	0.000000
330.375000	0.000000
330.549000	0.000000
330.723000	0.000000
330.896000	-0.000000
331.070000	-0.000000
331.244000	-0.000000
331.418000	-0.000000
331.591000	0.000000
331.765000	-0.000000
331.939000	-0.000000
332.113000	-0.000000
332.287000	-0.000000
332.460000	0.000000
332.634000	0.000000
332.808000	-0.000000
332.982000	-0.000000
333.156000	-0.000000
333.329000	0.000000
333.503000	-0.000000
333.677000	-0.000000
333.851000	-0.000000
334.024000	-0.000000
334.198000	-0.000000
334.372000	-0.000000
334.546000	-0.000000
334.720000	-0.000000
334.893000	-0.000000
335.067000	-0.000000
335.241000	-0.000000
335.415000	-0.000000
335.589000	-0.000000
335.762000	-0.000000
335.936000	-0.000000
336.110000	-0.000000
336.284000	-0.000000
336.458000	-0.000000
336.631000	-0.000000
336.805000	-0.000000
336.979000	-0.000000
337.153000	-0.000000
337.326000	-0.000000
337.500000	-0.000000
337.674000	-0.000000
337.848000	-0.000000
338.022000	0.000000
338.195000	-0.000000
338.369000	-0.000000
338.543000	-0.000000
338.717000	-0.000000
338.891000	0.000000
339.064000	0.000000
339.238000	-0.000000
339.412000	-0.000000
339.586000	-0.000000
339.759000	-0.000000
339.933000	-0.000000
340.107000	0.000000
340.281000	0.000000
340.455000	-0.000000
340.628000	-0.000000
340.802000	-0.000000
340.976000	-0.000000
341.150000	-0.000000
341.324000	-0.000000
341.497000	-0.000000
341.671000	-0.000000
341.845000	-0.000000
342.019000	-0.000000
342.192000	-0.000000
342.366000	-0.000000
342.540000	-0.000000
342.714000	-0.000000
342.888000	-0.000000
343.061000	0.000000
343.235000	-0.000000
343.409000	-0.000000
343.583000	-0.000000
343.757000	-0.000000
343.930000	-0.000000
344.104000	-0.000000
344.278000	0.000000
344.452000	0.000000
344.626000	-0.000000
344.799000	-0.000000
344.973000	-0.000000
345.147000	-0.000000
345.321000	-0.000000
345.494000	-0.000000
345.668000	0.000000
345.842000	0.000000
346.016000	-0.000000
346.190000	0.000000
346.363000	0.000000
346.537000	0.000000
346.711000	-0.000000
346.885000	-0.000000
347.059000	-0.000000
347.232000	-0.000000
347.406000	0.000000
347.580000	-0.000000
347.754000	-0.000000
347.927000	0.000000
348.101000	0.000000
348.275000	-0.000000
348.449000	-0.000000
348.623000	-0.000000
348.796000	-0.000000
348.970000	0.000000
349.144000	-0.000000
349.318000	-0.000000
349.492000	-0.000000
349.665000	-0.000000
349.839000	-0.000000
350.013000	-0.000000
350.187000	-0.000000
350.361000	-0.000000
350.534000	-0.000000
350.708000	-0.000000
350.882000	-0.000000
351.056000	0.000000
351.229000	-0.000000
351.403000	-0.000000
351.577000	-0.000000
351.751000	-0.000000
351.925000	-0.000000
352.098000	-0.000000
352.272000	-0.000000
352.446000	-0.000000
352.620000	-0.000000
352.794000	-0.000000
352.967000	-0.000000
353.141000	0.000000
353.315000	0.000000
353.489000	-0.000000
353.662000	-0.000000
353.836000	-0.000000
354.010000	-0.000000
354.184000	0.000000
354.358000	-0.000000
354.531000	-0.000000
354.705000	-0.000000
354.879000	-0.000000
355.053000	-0.000000
355.227000	0.000000
355.400000	-0.000000
355.574000	0.000000
355.748000	0.000000
355.922000	-0.000000
356.095000	-0.000000
356.269000	0.000000
356.443000	-0.000000
356.617000	-0.000000
356.791000	-0.000000
356.964000	-0.000000
357.138000	-0.000000
357.312000	-0.000000
357.486000	-0.000000
357.660000	-0.000000
357.833000	-0.000000
358.007000	-0.000000
358.181000	-0.000000
358.355000	-0.000000
358.529000	-0.000000
358.702000	-0.000000
358.876000	-0.000000
359.050000	-0.000000
359.224000	-0.000000
359.397000	-0.000000
359.571000	-0.000000
359.745000	-0.000000
359.919000	0.000000
360.093000	-0.101754
360.266000	-0.018471
360.440000	0.077988
360.614000	0.114445
360.788000	-0.010127
360.962000	-0.288606
361.135000	-0.129184
361.309000	-0.206846
361.483000	-0.326039
361.657000	-0.323275
361.830000	-0.294717
362.004000	-0.069289
362.178000	-0.343985
362.352000	-0.241632
362.526000	-0.139521
362.699000	-0.130030
362.873000	-0.382312
363.047000	-0.313524
363.221000	-0.339055
363.395000	-0.264886
363.568000	-0.176895
363.742000	-0.120055
363.916000	-0.142571
364.090000	-0.279505
364.263000	-0.268089
364.437000	-0.360735
364.611000	0.008677
364.785000	0.008822
364.959000	-0.236675
365.132000	-0.231384
365.306000	-0.257579
365.480000	-0.084902
365.656000	-0.194857
365.831000	-0.212659
366.007000	-0.191612
366.183000	-0.077468
366.358000	-0.222697
366.534000	-0.194596
366.710000	-0.410396
366.886000	-0.325338
367.061000	-0.126184
367.237000	0.012389
367.413000	-0.135811
367.588000	-0.297302
367.764000	-0.291385
367.940000	-0.303712
368.115000	-0.238852
368.291000	-0.305650
368.467000	-0.247143
368.643000	0.103384
368.818000	-0.241447
368.994000	-0.364189
369.170000	-0.296934
369.345000	-0.252887
369.521000	-0.287203
369.697000	-0.219292
369.872000	-0.309733
370.048000	-0.390363
370.224000	-0.305477
370.399000	-0.413014
370.575000	-0.298018
370.751000	-0.398458
370.927000	-0.349753
371.102000	-0.308378
371.278000	-0.365007
371.454000	-0.266117
371.629000	-0.059225
371.805000	-0.120501
371.981000	0.075203
372.156000	0.255931
372.332000	0.097936
372.508000	0.059934
372.683000	-0.019381
372.859000	-0.156874
373.035000	-0.242586
373.211000	0.134172
373.386000	-0.045350
373.562000	-0.431419
373.738000	-0.517747
373.913000	-0.624981
374.089000	-0.452201
374.265000	-0.030659
374.440000	-0.019884
374.616000	-0.030864
374.792000	-0.219475
374.968000	0.191871
375.143000	-0.030269
375.319000	-0.308190
375.495000	-0.390451
375.670000	-0.238423
375.846000	-0.120953
376.022000	-0.184425
376.197000	-0.175648
376.373000	-0.422536
376.549000	-0.453095
376.724000	-0.421103
376.900000	-0.288959
377.076000	-0.115403
377.252000	0.162710
377.427000	0.248067
377.603000	-0.097459
377.779000	-0.186451
377.954000	-0.386856
378.130000	-0.343988
378.306000	-0.259083
378.481000	-0.170138
378.657000	-0.211240
378.833000	-0.305154
379.009000	-0.224471
379.184000	-0.047229
379.360000	-0.064283
379.536000	-0.135269
379.711000	-0.141098
379.887000	-0.244879
380.063000	-0.315593
380.238000	-0.338907
380.414000	-0.095779
380.590000	-0.315536
380.765000	-0.346226
380.941000	-0.074456
381.117000	-0.004840
381.293000	-0.128992
381.468000	-0.379938
381.644000	-0.316376
381.820000	-0.143429
381.995000	0.016093
382.171000	0.248155
382.347000	0.205727
382.522000	-0.196892
382.698000	0.054185
382.874000	0.050636
383.050000	-0.350518
383.225000	-0.001394
383.401000	0.257383
383.577000	-0.064803
383.752000	-0.270790
383.928000	-0.208150
384.104000	-0.167443
384.279000	-0.280709
384.455000	-0.149101
384.631000	-0.180283
384.806000	-0.405569
384.982000	-0.135715
385.158000	-0.206372
385.334000	-0.059528
385.509000	-0.155967
385.685000	-0.479455
385.861000	-0.287562
386.036000	-0.376527
386.212000	-0.493496
386.388000	-0.325575
386.563000	-0.324956
386.739000	-0.386912
386.915000	-0.579030
387.090000	-0.223105
387.266000	-0.063523
387.442000	-0.035870
387.618000	-0.199833
387.793000	-0.460393
387.969000	-0.546393
388.145000	-0.434761
388.320000	-0.339807
388.496000	-0.296418
388.672000	-0.573432
388.847000	-0.120549
389.023000	-0.083625
389.199000	-0.480253
389.375000	-0.235684
389.550000	-0.324894
389.726000	-0.193944
389.902000	-0.357394
390.077000	-0.155013
390.253000	-0.110112
390.429000	-0.247497
390.604000	-0.120176
390.780000	-0.193893
390.956000	-0.316412
391.131000	-0.329188
391.307000	-0.038165
391.483000	-0.205474
391.659000	-0.276654
391.834000	-0.064855
392.010000	-0.231692
392.186000	-0.288749
392.361000	-0.252531
392.537000	-0.346294
392.713000	0.028317
392.888000	0.269079
393.064000	-0.031108
393.240000	-0.288507
393.416000	-0.352347
393.591000	-0.404458
393.767000	-0.455466
393.943000	-0.315544
394.118000	0.060545
394.294000	0.184117
394.470000	-0.017521
394.645000	0.040752
394.821000	0.271955
394.997000	-0.088578
395.172000	-0.168504
395.348000	-0.262275
395.524000	-0.490429
395.700000	-0.341898
395.875000	-0.125770
396.051000	-0.125605
396.227000	-0.177929
396.402000	-0.259593
396.578000	-0.171976
396.754000	-0.350414
396.929000	-0.297828
397.105000	-0.020377
397.281000	-0.064932
397.457000	-0.271034
397.632000	-0.252477
397.808000	-0.510065
397.984000	-0.578110
398.159000	-0.534676
398.335000	-0.333910
398.511000	0.201115
398.686000	-0.026535
398.862000	-0.336971
399.038000	-0.442505
399.213000	-0.153867
399.389000	-0.440502
399.565000	-0.204614
399.741000	0.011251
399.916000	-0.032816
400.092000	0.221679
400.268000	-0.128924
400.443000	-0.310081
400.619000	0.055358
400.795000	-0.039146
400.970000	-0.244227
401.146000	-0.310857
401.322000	-0.001259
401.497000	0.436056
401.673000	0.080956
401.849000	-0.275475
402.025000	-0.079719
402.200000	-0.229742
402.376000	-0.351658
402.552000	0.143255
402.727000	-0.016885
402.903000	-0.363201
403.079000	-0.251040
403.254000	0.001875
403.430000	0.039113
403.606000	-0.075868
403.782000	-0.165831
403.957000	-0.346929
404.133000	-0.472718
404.309000	-0.291535
404.484000	-0.094551
404.660000	-0.079220
404.841000	-0.200980
405.023000	-0.035383
405.204000	-0.135101
405.385000	-0.401529
405.566000	-0.384158
405.748000	-0.287506
405.929000	-0.099264
406.110000	-0.113741
406.292000	-0.242534
406.473000	-0.106681
406.654000	-0.279450
406.835000	-0.216192
407.017000	-0.265030
407.198000	-0.179216
407.379000	-0.120576
407.560000	-0.151652
407.742000	-0.245640
407.923000	-0.209673
408.104000	-0.351097
408.286000	-0.161907
408.467000	-0.127602
408.648000	-0.412433
408.829000	-0.429467
409.011000	-0.263431
409.192000	-0.425486
409.373000	-0.208436
409.555000	-0.087843
409.736000	-0.139484
409.917000	-0.257185
410.098000	-0.188089
410.280000	-0.147192
410.461000	-0.137823
410.642000	-0.153285
410.823000	0.093032
411.005000	0.047488
411.186000	-0.135250
411.367000	-0.220732
411.549000	-0.260178
411.730000	-0.059087
411.911000	0.059596
412.092000	-0.067906
412.274000	-0.175707
412.455000	-0.203205
412.636000	-0.124931
412.818000	-0.310787
412.999000	-0.353465
413.180000	-0.208434
413.361000	-0.203181
413.543000	-0.286052
413.724000	-0.381025
413.905000	-0.381037
414.087000	-0.312900
414.268000	-0.330220
414.449000	-0.366475
414.630000	-0.421564
414.812000	-0.542698
414.993000	-0.237161
415.174000	-0.057253
415.355000	-0.226862
415.537000	-0.512615
415.718000	-0.181701
415.899000	-0.251971
416.081000	-0.347900
416.262000	-0.106736
416.443000	-0.252716
416.624000	-0.257968
416.806000	-0.141512
416.987000	-0.039367
417.168000	-0.091695
417.350000	-0.240570
417.531000	-0.343596
417.712000	-0.282631
417.893000	-0.082380
418.075000	-0.009825
418.256000	-0.250405
418.437000	-0.155388
418.618000	-0.053349
418.800000	0.001737
418.981000	-0.182622
419.162000	-0.138517
419.344000	0.036297
419.525000	-0.024329
419.706000	-0.099742
419.887000	0.071184
420.069000	0.172281
420.250000	0.059531
420.431000	-0.001153
420.613000	-0.096743
420.794000	-0.288457
420.975000	0.007467
421.156000	-0.162292
421.338000	-0.199538
421.519000	-0.193748
421.700000	-0.185673
421.882000	-0.194288
422.063000	-0.064412
422.244000	0.365065
422.425000	0.174039
422.607000	-0.140456
422.788000	-0.209129
422.969000	-0.316688
423.150000	-0.288336
423.332000	-0.267460
423.513000	-0.044240
423.694000	-0.073351
423.876000	-0.113435
424.057000	-0.029947
424.238000	0.053760
424.419000	0.091600
424.601000	-0.053330
424.782000	-0.085126
424.963000	0.119451
425.145000	0.073709
425.326000	0.110663
425.507000	0.159165
425.688000	0.042008
425.870000	-0.142702
426.051000	-0.293780
426.232000	-0.227775
426.413000	-0.168518
426.595000	-0.184858
426.776000	-0.190511
426.957000	-0.145229
427.139000	-0.058534
427.320000	-0.001153
427.501000	0.117466
427.682000	0.096738
427.864000	0.113949
428.045000	0.310521
428.226000	0.250812
428.408000	-0.059026
428.589000	0.076639
428.770000	0.044844
428.951000	-0.052803
429.133000	-0.181399
429.314000	-0.012572
429.495000	-0.015377
429.677000	0.010288
429.858000	-0.006866
430.039000	0.081917
430.220000	0.179332
430.402000	0.218752
430.583000	0.004580
430.764000	0.087242
430.945000	0.241669
431.127000	0.302341
431.308000	0.097683
431.489000	0.305459
431.671000	0.375123
431.852000	0.211223
432.033000	0.163107
432.214000	0.270182
432.396000	0.348393
432.577000	0.140117
432.758000	-0.043619
432.940000	0.052627
433.121000	0.224982
433.302000	0.294663
433.483000	0.400915
433.665000	0.510837
433.846000	0.443237
434.027000	0.289542
434.208000	0.194264
434.390000	0.172569
434.571000	0.556602
434.752000	0.997605
434.934000	0.815073
435.115000	0.769958
435.296000	0.816847
435.477000	0.560107
435.659000	0.335373
435.840000	0.514751
436.026000	0.567943
436.211000	0.397889
436.397000	0.096918
436.582000	0.273886
436.768000	0.559290
436.953000	0.439001
437.139000	0.429913
437.325000	0.808552
437.510000	0.776056
437.696000	0.884340
437.881000	0.880257
438.067000	0.605384
438.252000	0.686045
438.438000	0.658843
438.624000	0.685591
438.809000	0.791891
438.995000	0.852097
439.180000	0.828271
439.366000	0.777118
439.551000	0.747003
439.737000	0.864198
439.923000	0.918155
440.108000	0.837809
440.294000	0.935181
440.479000	1.091717
440.665000	1.191370
440.850000	1.099315
441.036000	1.127772
441.222000	1.106486
441.407000	0.983246
441.593000	1.090204
441.778000	1.273445
441.964000	1.400659
442.149000	1.059788
442.335000	0.985122
442.521000	1.137951
442.706000	1.345393
442.892000	1.327196
443.077000	1.288158
443.263000	1.433092
443.448000	1.373390
443.634000	1.379437
443.820000	1.663144
444.005000	1.566310
444.191000	1.362513
444.376000	1.406368
444.562000	1.762440
444.747000	1.846969
444.933000	1.766585
445.119000	1.712397
445.304000	1.577084
445.490000	1.729850
445.675000	1.778904
445.861000	1.748648
446.046000	1.822145
446.232000	1.914279
446.418000	2.021614
446.603000	2.008952
446.789000	2.019209
446.974000	2.062693
447.160000	1.903784
447.345000	1.982729
447.531000	2.020486
447.717000	2.219103
447.902000	2.350551
448.088000	2.430986
448.273000	2.346968
448.459000	2.325609
448.644000	2.390840
448.830000	2.345436
449.016000	2.205282
449.201000	2.367274
449.387000	2.562779
449.572000	2.670844
449.758000	2.600193
449.943000	2.606373
450.129000	2.605799
450.315000	2.669498
450.500000	2.647298
450.686000	2.792181
450.871000	2.755518
451.057000	2.922634
451.243000	2.960943
451.428000	2.991936
451.614000	3.041188
451.799000	3.044271
451.985000	3.292518
452.170000	3.326050
452.356000	3.116028
452.542000	3.158890
452.727000	3.407385
452.913000	3.322651
453.098000	3.459057
453.284000	3.682298
453.469000	3.559577
453.655000	3.736374
453.841000	3.735375
454.026000	3.605049
454.212000	3.582630
454.397000	3.662522
454.583000	3.567442
454.768000	3.479985
454.954000	3.736684
455.140000	3.817112
455.325000	3.594358
455.511000	3.498236
455.696000	3.561404
455.882000	3.801801
456.067000	4.081062
456.253000	3.910030
456.439000	3.723699
456.624000	3.629698
456.810000	3.622112
456.995000	3.723044
457.181000	3.641375
457.366000	3.851567
457.552000	3.800168
457.738000	3.909691
457.923000	3.892832
458.109000	4.138032
458.294000	4.005412
458.480000	3.884106
458.665000	3.858305
458.851000	3.744825
459.037000	3.416123
459.222000	3.623624
459.408000	3.609582
459.593000	3.564033
459.779000	3.632057
459.964000	3.727389
460.150000	3.841852
460.336000	3.716150
460.521000	3.474138
460.707000	3.326822
460.892000	3.132760
461.078000	3.397783
461.263000	3.458852
461.449000	3.213748
461.635000	3.129211
461.820000	3.109076
462.006000	3.178723
462.191000	3.079871
462.377000	2.858103
462.562000	3.202228
462.748000	3.352023
462.934000	2.840423
463.119000	2.628892
463.305000	2.801645
463.490000	2.679577
463.676000	2.647878
463.861000	2.563877
464.047000	2.560304
464.233000	2.640389
464.418000	2.482198
464.604000	2.317277
464.789000	2.532537
464.975000	2.479676
465.160000	2.340198
465.346000	2.287276
465.532000	2.151318
465.717000	2.013253
465.903000	2.267569
466.088000	2.206616
466.274000	1.923899
466.459000	1.901620
466.645000	2.221032
466.831000	2.111769
467.016000	2.130438
467.202000	1.964362
467.387000	1.808082
467.573000	1.650650
467.758000	1.900918
467.944000	1.746219
468.130000	1.587358
468.315000	1.725244
468.501000	1.831413
468.686000	1.736887
468.872000	1.673748
469.057000	1.693076
469.243000	1.589842
469.429000	1.487525
469.614000	1.367720
469.800000	1.323894
469.985000	1.444403
470.171000	1.532679
470.356000	1.411558
470.542000	1.434530
470.728000	1.366155
470.913000	1.335416
471.099000	1.469349
471.284000	1.326482
471.470000	1.288925
471.655000	1.304478
471.841000	1.208492
472.027000	1.154175
472.212000	1.403344
472.398000	1.414505
472.583000	1.227971
472.769000	1.190832
472.954000	1.182417
473.140000	0.974816
473.326000	0.908467
473.511000	1.202594
473.697000	1.206188
473.882000	1.068953
474.068000	1.033727
474.253000	0.937628
474.439000	1.000328
474.625000	1.044322
474.810000	1.025415
474.996000	1.040698
475.181000	0.808423
475.367000	0.913791
475.552000	1.181819
475.738000	0.885514
475.924000	0.861312
476.109000	0.935149
476.295000	0.785017
476.480000	0.805493
476.666000	0.791179
476.851000	0.784216
477.037000	0.808048
477.223000	0.665123
477.408000	0.599781
477.594000	0.529387
477.779000	0.628870
477.965000	0.666276
478.151000	0.519614
478.336000	0.609840
478.522000	0.551608
478.707000	0.479495
478.893000	0.568007
479.078000	0.442194
479.264000	0.433531
479.450000	0.477603
479.635000	0.634771
479.821000	0.495358
480.006000	0.510340
480.192000	0.538353
480.377000	0.557098
480.563000	0.514855
480.749000	0.306566
480.934000	0.297463
481.120000	0.431882
481.305000	0.560060
481.491000	0.496596
481.676000	0.510893
481.862000	0.538491
482.048000	0.360414
482.233000	0.384044
482.419000	0.352033
482.604000	0.238294
482.790000	0.260242
482.975000	0.341746
483.161000	0.469919
483.347000	0.410137
483.532000	0.342433
483.718000	0.115399
483.903000	0.141925
484.089000	0.213908
484.274000	0.119477
484.460000	0.277586
484.646000	0.288573
484.831000	0.170284
485.017000	0.241938
485.202000	0.245845
485.388000	0.409326
485.573000	0.406342
485.759000	0.250186
485.945000	0.383436
486.130000	0.202046
486.316000	0.243596
486.501000	0.310439
486.687000	0.120870
486.872000	0.055703
487.058000	0.221217
487.244000	0.223533
487.429000	0.014338
487.615000	0.196852
487.800000	0.279371
487.986000	0.170101
488.171000	0.224723
488.357000	0.169918
488.543000	0.210224
488.728000	0.292168
488.914000	0.212584
489.099000	0.091791
489.285000	0.055122
489.470000	0.213922
489.656000	0.237725
489.842000	0.241095
490.027000	0.315079
490.213000	0.135992
490.398000	-0.138046
490.584000	0.159352
490.769000	0.129447
490.955000	0.186798
491.141000	0.231068
491.326000	0.153930
491.512000	0.251345
491.697000	0.181038
491.883000	0.049933
492.068000	-0.009311
492.254000	-0.005088
492.440000	0.069065
492.625000	0.016053
492.811000	0.020237
492.996000	0.110729
493.182000	0.099884
493.367000	-0.061869
493.553000	-0.139769
493.739000	-0.044978
493.924000	0.068597
494.110000	0.070477
494.295000	-0.009201
494.481000	0.072443
494.666000	0.074590
494.852000	0.204167
495.038000	0.005428
495.223000	-0.109553
495.409000	-0.034207
495.594000	-0.057245
495.780000	-0.025839
495.965000	-0.092615
496.151000	0.140838
496.337000	0.171928
496.522000	-0.040224
496.708000	0.024139
496.893000	0.138582
497.079000	0.001245
497.264000	-0.031903
497.450000	0.007461
497.636000	0.140222
497.821000	-0.023585
498.007000	0.129516
498.192000	0.161148
498.378000	0.053069
498.563000	-0.004977
498.749000	0.019927
498.935000	-0.013265
499.120000	0.073607
499.306000	-0.015322
499.491000	-0.054515
499.677000	0.007432
499.862000	0.079986
500.048000	0.107112
500.234000	-0.004969
500.419000	-0.009127
500.605000	0.136198
500.790000	0.061387
500.976000	-0.075611
501.161000	-0.152427
501.347000	0.024088
501.533000	0.100986
501.718000	0.003323
501.904000	-0.057034
502.089000	0.017928
502.275000	0.090654
502.460000	-0.013268
502.646000	0.024076
502.832000	0.092616
503.017000	0.057430
503.203000	-0.142525
503.388000	-0.190908
503.574000	-0.027915
503.759000	0.028324
503.945000	0.078442
504.131000	0.001252
504.316000	-0.040448
504.502000	-0.013349
504.687000	-0.040571
504.873000	-0.153588
505.058000	-0.161938
505.244000	-0.170265
505.430000	-0.145438
505.615000	-0.070084
505.801000	0.005465
505.986000	-0.151458
506.172000	-0.063634
506.358000	-0.017623
506.543000	-0.046970
506.729000	0.125049
506.914000	0.072755
507.100000	0.176390
507.285000	-0.053683
507.471000	-0.161291
507.657000	0.060371
507.842000	-0.045111
508.028000	-0.169595
508.213000	-0.115038
508.399000	-0.113157
508.584000	0.041575
508.770000	-0.030491
508.956000	-0.123754
509.141000	-0.087651
509.327000	-0.000849
509.512000	-0.083258
509.698000	-0.060105
509.883000	0.007640
510.069000	-0.049795
510.255000	-0.015754
510.440000	0.005542
510.626000	-0.086071
510.811000	-0.126732
510.997000	-0.043533
511.182000	0.148349
511.368000	0.050357
511.554000	-0.267731
511.739000	-0.165143
511.925000	0.031171
512.110000	0.009812
512.296000	0.125305
512.481000	0.114474
512.667000	0.005559
512.853000	-0.165511
513.038000	-0.075805
513.224000	-0.105810
513.409000	-0.208600
513.595000	-0.078083
513.780000	-0.234558
513.966000	-0.223298
514.152000	-0.212630
514.337000	-0.195596
514.523000	-0.144249
514.708000	-0.077983
514.894000	-0.041677
515.079000	-0.152789
515.265000	-0.133989
515.451000	-0.073896
515.636000	-0.140386
515.822000	-0.039546
516.007000	-0.177126
516.193000	-0.028776
516.378000	0.048616
516.564000	-0.078188
516.750000	-0.030942
516.935000	0.089434
517.121000	0.080819
517.306000	0.121769
517.492000	0.085324
517.677000	-0.164428
517.863000	-0.203206
518.049000	-0.063306
518.234000	-0.114898
518.420000	0.007756
518.605000	0.164964
518.791000	0.151967
518.976000	-0.018153
519.162000	-0.158330
519.348000	-0.046171
519.533000	-0.089192
519.719000	0.137159
519.904000	0.046635
520.090000	0.009911
520.275000	0.167313
520.461000	0.124437
520.647000	-0.085102
520.832000	-0.269426
521.018000	-0.121834
521.203000	-0.099904
521.389000	-0.280562
521.574000	-0.158086
521.760000	-0.033212
521.946000	-0.037639
522.131000	-0.128603
522.317000	-0.152183
522.502000	-0.201815
522.688000	-0.100304
522.873000	-0.111217
523.059000	-0.150271
523.245000	-0.158784
523.430000	-0.230464
523.616000	-0.167602
523.801000	-0.252387
523.987000	-0.211569
524.172000	-0.061683
524.358000	-0.024771
524.544000	-0.089809
524.729000	-0.039809
524.915000	0.044676
525.100000	-0.039889
525.286000	0.005645
525.471000	-0.018289
525.657000	-0.003051
525.843000	-0.219076
526.028000	-0.037994
526.214000	-0.105645
526.399000	-0.235104
526.585000	-0.300837
526.770000	-0.318315
526.956000	-0.194012
527.142000	-0.259807
527.327000	-0.090949
527.513000	-0.185643
527.698000	-0.210073
527.884000	-0.171057
528.069000	-0.168508
528.255000	-0.031802
528.441000	-0.157875
528.626000	-0.125091
528.812000	0.132082
528.997000	-0.023094
529.183000	-0.196219
529.368000	-0.123541
529.554000	-0.079150
529.740000	-0.052467
529.925000	-0.106302
530.111000	-0.108665
530.296000	-0.041372
530.482000	0.023892
530.667000	-0.079823
530.853000	-0.023526
531.039000	-0.080254
531.224000	-0.025983
531.410000	0.040102
531.595000	-0.035122
531.781000	0.019617
531.967000	-0.131661
532.152000	-0.023929
532.338000	-0.106975
532.523000	-0.243460
532.709000	-0.235086
532.894000	-0.115093
533.080000	-0.054576
533.266000	-0.234340
533.451000	-0.263325
533.637000	-0.196020
533.822000	0.022653
534.008000	-0.104680
534.193000	-0.112167
534.379000	-0.036573
534.565000	-0.158329
534.750000	-0.173276
534.936000	0.059099
535.121000	-0.128620
535.307000	-0.097476
535.492000	-0.068633
535.678000	-0.295137
535.864000	-0.115805
536.049000	0.200510
536.235000	-0.010824
536.420000	-0.057827
536.606000	-0.124907
536.791000	-0.230354
536.977000	-0.223433
537.163000	0.024086
537.348000	0.006561
537.534000	0.075200
537.719000	-0.199676
537.905000	-0.351306
538.090000	-0.047231
538.276000	0.053065
538.462000	-0.006202
538.647000	0.019721
538.833000	-0.061051
539.018000	0.027785
539.204000	-0.008918
539.389000	-0.156876
539.575000	0.115245
539.761000	0.052066
539.946000	-0.225259
540.132000	-0.113604
540.317000	-0.194542
540.503000	-0.030698
540.688000	-0.006503
540.874000	0.232664
541.060000	0.338556
541.245000	0.086265
541.431000	-0.069602
541.616000	-0.009342
541.802000	-0.094604
541.987000	0.037508
542.173000	0.098559
542.359000	-0.020511
542.544000	0.079157
542.730000	-0.073359
542.915000	-0.095820
543.101000	-0.001115
543.286000	-0.168690
543.472000	-0.256863
543.658000	-0.102370
543.843000	-0.046236
544.029000	0.140285
544.214000	0.010195
544.400000	-0.321506
544.585000	-0.163095
544.771000	-0.120869
544.957000	0.058851
545.142000	0.178986
545.328000	0.265458
545.513000	0.277441
545.699000	0.295945
545.884000	0.137394
546.070000	0.021947
546.261000	0.016230
546.451000	-0.140711
546.642000	-0.336077
546.833000	-0.211213
547.023000	-0.257831
547.214000	-0.212019
547.405000	-0.094864
547.595000	0.204045
547.786000	0.163629
547.977000	-0.074955
548.167000	-0.237459
548.358000	-0.214775
548.549000	0.156612
548.740000	0.010719
548.930000	-0.349671
549.121000	-0.258078
549.312000	-0.298046
549.502000	-0.385930
549.693000	-0.199417
549.884000	-0.139393
550.074000	-0.082604
550.265000	-0.270159
550.456000	-0.195084
550.646000	-0.040688
550.837000	-0.010327
551.028000	-0.153295
551.218000	-0.037706
551.409000	-0.242492
551.600000	-0.221302
551.790000	-0.056464
551.981000	-0.286604
552.172000	-0.216430
552.362000	0.078668
552.553000	0.131573
552.744000	-0.047532
552.934000	-0.047573
553.125000	-0.155973
553.316000	-0.261359
553.506000	0.141500
553.697000	-0.001246
553.888000	-0.029226
554.079000	0.135665
554.269000	0.120227
554.460000	-0.201093
554.651000	-0.220055
554.841000	-0.354861
555.032000	-0.311527
555.223000	-0.258610
555.413000	-0.076240
555.604000	-0.035771
555.795000	-0.117663
555.985000	-0.026481
556.176000	-0.083075
556.367000	-0.347331
556.557000	-0.196972
556.748000	-0.175217
556.939000	-0.247578
557.129000	-0.323094
557.320000	-0.168594
557.511000	-0.146220
557.701000	-0.152281
557.892000	-0.121303
558.083000	0.118647
558.273000	-0.032823
558.464000	-0.266390
558.655000	-0.171554
558.845000	-0.145895
559.036000	-0.145999
559.227000	-0.196488
559.418000	0.077604
559.608000	0.083880
559.799000	-0.275263
559.990000	-0.251871
560.180000	-0.139275
560.371000	-0.340550
560.562000	-0.358851
560.752000	-0.145681
560.943000	-0.283957
561.134000	-0.489953
561.324000	-0.285982
561.515000	0.033105
561.706000	-0.063782
561.896000	-0.288269
562.087000	-0.247432
562.278000	-0.290947
562.468000	-0.434671
562.659000	-0.312208
562.850000	0.036095
563.040000	0.132555
563.231000	-0.328223
563.422000	-0.153329
563.612000	-0.265360
563.803000	-0.258673
563.994000	-0.282126
564.185000	-0.340203
564.375000	-0.155490
564.566000	-0.167627
564.757000	-0.165003
564.947000	-0.309862
565.138000	-0.204234
565.329000	-0.277494
565.519000	-0.360188
565.710000	-0.213137
565.901000	-0.031962
566.091000	0.078617
566.282000	-0.096208
566.473000	-0.098964
566.663000	-0.156817
566.854000	-0.341562
567.045000	-0.149727
567.235000	-0.089093
567.426000	-0.098148
567.617000	-0.076666
567.807000	-0.128033
567.998000	-0.109691
568.189000	-0.175945
568.379000	-0.148453
568.570000	-0.043214
568.761000	-0.129966
568.951000	-0.189557
569.142000	-0.237714
569.333000	-0.246691
569.524000	-0.320332
569.714000	-0.391880
569.905000	-0.486479
570.096000	-0.132164
570.286000	-0.013080
570.477000	0.170760
570.668000	-0.075230
570.858000	-0.063379
571.049000	-0.178256
571.240000	-0.308266
571.430000	-0.125033
571.621000	-0.218619
571.812000	-0.097743
572.002000	-0.115507
572.193000	-0.235320
572.384000	-0.091864
572.574000	-0.039235
572.765000	-0.071312
572.956000	-0.187628
573.146000	-0.009921
573.337000	-0.138031
573.528000	-0.158140
573.718000	-0.006959
573.909000	0.074119
574.100000	0.007501
574.290000	-0.188072
574.481000	-0.204867
574.672000	-0.139033
574.863000	0.001717
575.053000	-0.095380
575.244000	-0.083758
575.435000	-0.271525
575.625000	-0.230657
575.816000	-0.219050
576.007000	-0.151129
576.197000	-0.131525
576.388000	-0.164896
576.579000	-0.012420
576.769000	-0.023683
576.960000	-0.265944
577.155000	-0.377587
577.350000	-0.161063
577.545000	-0.026327
577.740000	-0.213343
577.935000	0.160513
578.130000	0.026773
578.326000	-0.368118
578.521000	-0.051134
578.716000	0.007192
578.911000	-0.266373
579.106000	-0.089191
579.301000	-0.031286
579.496000	-0.211750
579.691000	-0.427512
579.886000	-0.279175
580.081000	-0.118140
580.276000	-0.066257
580.471000	-0.188421
580.666000	-0.263982
580.861000	-0.280144
581.057000	-0.323704
581.252000	-0.171923
581.447000	-0.222946
581.642000	-0.207059
581.837000	-0.177008
582.032000	-0.227783
582.227000	-0.006440
582.422000	-0.017140
582.617000	-0.163693
582.812000	-0.280276
583.007000	-0.224312
583.202000	-0.314095
583.397000	-0.045998
583.592000	0.183669
583.788000	-0.093120
583.983000	-0.124567
584.178000	-0.024664
584.373000	-0.215555
584.568000	-0.243820
584.763000	-0.291091
584.958000	-0.353778
585.153000	-0.259735
585.348000	-0.236089
585.543000	-0.037646
585.738000	-0.076825
585.933000	-0.285944
586.128000	-0.076817
586.324000	-0.040343
586.519000	0.009424
586.714000	0.027770
586.909000	0.056689
587.104000	0.104276
587.299000	-0.074570
587.494000	-0.077091
587.689000	-0.124534
587.884000	-0.098557
588.079000	-0.143365
588.274000	-0.093465
588.469000	-0.156517
588.664000	-0.030078
588.859000	-0.003699
589.055000	-0.008994
589.250000	-0.080455
589.445000	-0.175943
589.640000	-0.162825
589.835000	0.094633
590.030000	0.216847
590.225000	0.238150
590.420000	0.046844
590.615000	-0.062337
590.810000	-0.003725
591.005000	-0.003741
591.200000	-0.089279
591.395000	-0.124009
591.591000	0.012273
591.786000	0.124225
591.981000	-0.014438
592.176000	0.090018
592.371000	0.114174
592.566000	0.065884
592.761000	0.288133
592.956000	0.234973
593.151000	0.299500
593.346000	0.241125
593.541000	0.267759
593.736000	0.247010
593.931000	0.079855
594.126000	0.174536
594.322000	0.223159
594.517000	0.152884
594.712000	0.074584
594.907000	0.066716
595.102000	0.262327
595.297000	0.384279
595.492000	0.504762
595.687000	0.328643
595.882000	0.285186
596.077000	0.438717
596.272000	0.613424
596.467000	0.651872
596.662000	0.521241
596.857000	0.559016
597.053000	0.639715
597.248000	0.741154
597.443000	0.797193
597.638000	0.730130
597.833000	0.554058
598.028000	0.774036
598.223000	0.910980
598.418000	0.810160
598.613000	0.729768
598.808000	0.915959
599.003000	1.011249
599.198000	0.873672
599.393000	0.926157
599.589000	1.037248
599.784000	0.884752
599.979000	1.056240
600.174000	1.299855
600.369000	1.175453
600.564000	1.263724
600.759000	1.514545
600.954000	1.654637
601.149000	1.525043
601.344000	1.234531
601.539000	1.455279
601.734000	1.456185
601.929000	1.305028
602.124000	1.435717
602.320000	1.745830
602.515000	2.045310
602.710000	2.015592
602.905000	1.690077
603.100000	1.673240
603.295000	1.747035
603.490000	1.959128
603.685000	2.158074
603.880000	2.169225
604.075000	2.069340
604.270000	2.119389
604.465000	2.277483
604.660000	2.133761
604.856000	2.346089
605.051000	2.670644
605.246000	2.651318
605.441000	2.461824
605.636000	2.425373
605.831000	2.676076
606.026000	2.660653
606.221000	2.652831
606.416000	2.917366
606.611000	3.175954
606.806000	3.328035
607.001000	3.490365
607.196000	3.254870
607.391000	3.144199
607.587000	3.505578
607.782000	3.501543
607.977000	3.406777
608.172000	3.964039
608.367000	3.992896
608.562000	3.821203
608.757000	3.924267
608.952000	3.918892
609.147000	4.485345
609.342000	4.553288
609.537000	4.340492
609.732000	4.405654
609.927000	4.431835
610.122000	4.617157
610.318000	4.989169
610.513000	5.239801
610.708000	5.102360
610.903000	5.239677
611.098000	5.400341
611.293000	5.480970
611.488000	5.628315
611.683000	5.776228
611.878000	5.830889
612.073000	5.970666
612.268000	6.100738
612.463000	6.288374
612.658000	6.418216
612.854000	6.523293
613.049000	6.573522
613.244000	6.864220
613.439000	7.038498
613.634000	6.931437
613.829000	7.250943
614.024000	7.208642
614.219000	7.380083
614.414000	7.953345
614.609000	7.872783
614.804000	7.868898
614.999000	8.028505
615.194000	8.267365
615.389000	8.543170
615.585000	8.451016
615.780000	8.823796
615.975000	9.030632
616.170000	9.250554
616.365000	9.702279
616.560000	9.991698
616.755000	10.037170
616.950000	10.265167
617.145000	10.571050
617.340000	10.450950
617.535000	10.514349
617.730000	10.983477
617.925000	10.949687
618.120000	11.129324
618.316000	11.707695
618.511000	11.910534
618.706000	12.025967
618.901000	12.291790
619.096000	12.731336
619.291000	12.925580
619.486000	13.092622
619.681000	12.967471
619.876000	13.171077
620.071000	13.579823
620.266000	14.100480
620.461000	14.530802
620.656000	14.706574
620.852000	14.882956
621.047000	15.030972
621.242000	15.181219
621.437000	15.762147
621.632000	16.179604
621.827000	16.328452
622.022000	16.287849
622.217000	16.808094
622.412000	17.114851
622.607000	17.523916
622.802000	17.570710
622.997000	17.795871
623.192000	18.327022
623.387000	18.554749
623.583000	18.534593
623.778000	19.510782
623.973000	19.808925
624.168000	20.049661
624.363000	20.361376
624.558000	20.678971
624.753000	20.710327
624.948000	21.304922
625.143000	21.585643
625.338000	21.855705
625.533000	22.189098
625.728000	22.806172
625.923000	23.228297
626.119000	23.253223
626.314000	23.607131
626.509000	23.931501
626.704000	24.379888
626.899000	24.711944
627.094000	25.109670
627.289000	25.564077
627.484000	26.031698
627.679000	26.420378
627.874000	26.706022
628.069000	27.324056
628.264000	27.524854
628.459000	27.776208
628.654000	28.067021
628.850000	28.359541
629.045000	28.895126
629.240000	29.154797
629.435000	29.555911
629.630000	29.899514
629.825000	30.080558
630.020000	30.610913
630.215000	30.647306
630.410000	30.981978
630.605000	31.127384
630.800000	31.302699
630.995000	31.780644
631.190000	32.217325
631.385000	32.179803
631.581000	32.204542
631.776000	32.164676
631.971000	32.032793
632.166000	32.091187
632.361000	31.797300
632.556000	31.936395
632.751000	32.192285
632.946000	31.629425
633.141000	31.262897
633.336000	31.172159
633.531000	30.950341
633.726000	30.492230
633.921000	29.979334
634.117000	29.685495
634.312000	29.007809
634.507000	28.616258
634.702000	28.126740
634.897000	27.690811
635.092000	27.400732
635.287000	26.866998
635.482000	26.058345
635.677000	25.566239
635.872000	24.835584
636.067000	24.199574
636.262000	23.566396
636.457000	22.554693
636.652000	21.977850
636.848000	21.141344
637.043000	20.509247
637.238000	19.964518
637.433000	19.088389
637.628000	18.598003
637.823000	18.290209
638.018000	17.855347
638.213000	16.995435
638.408000	16.245346
638.603000	15.675681
638.798000	15.179270
638.993000	14.510117
639.188000	13.852206
639.383000	13.425190
639.579000	13.439572
639.774000	12.712410
639.969000	12.077827
640.164000	11.460505
640.359000	11.024519
640.554000	10.895111
640.749000	10.456950
640.944000	10.187307
641.139000	9.824361
641.334000	9.275507
641.529000	8.502189
641.724000	8.429390
641.919000	8.378244
642.115000	8.314747
642.310000	7.903459
642.505000	7.479613
642.700000	7.238616
642.895000	6.822961
643.090000	6.802581
643.285000	6.759709
643.480000	6.482706
643.675000	6.294362
643.870000	6.387126
644.065000	5.988249
644.260000	5.380886
644.455000	5.151840
644.650000	4.858556
644.846000	4.910296
645.041000	4.558054
645.236000	4.269856
645.431000	4.320393
645.626000	3.962784
645.821000	4.016688
646.016000	3.872723
646.211000	4.114030
646.406000	3.984097
646.601000	3.812881
646.796000	3.496126
646.991000	3.154666
647.186000	3.210084
647.381000	3.286717
647.577000	3.121939
647.772000	3.110919
647.967000	2.959959
648.162000	2.917417
648.357000	2.741481
648.552000	2.777849
648.747000	2.719497
648.942000	2.642480
649.137000	2.481266
649.332000	2.254747
649.527000	2.231205
649.722000	2.369702
649.917000	2.410635
650.113000	1.917586
650.308000	1.629580
650.503000	1.753237
650.698000	1.875623
650.893000	1.683807
651.088000	1.745547
651.283000	1.844306
651.478000	1.498700
651.673000	1.611011
651.868000	1.378526
652.063000	1.545067
652.258000	1.668241
652.453000	1.831107
652.648000	1.445275
652.844000	1.324398
653.039000	1.299918
653.234000	0.819291
653.429000	0.656297
653.624000	0.820146
653.819000	1.139847
654.014000	1.078777
654.209000	0.870359
654.404000	1.003749
654.599000	0.813970
654.794000	0.789526
654.989000	1.099979
655.184000	0.954741
655.380000	0.580242
655.575000	0.572601
655.770000	0.573552
655.965000	0.666351
656.160000	0.589449
656.355000	0.743807
656.550000	0.749964
656.745000	0.769854
656.940000	0.580386
657.135000	0.634545
657.330000	0.615402
657.525000	0.382863
657.720000	0.613031
657.915000	0.705733
658.111000	0.597147
658.306000	0.850522
658.501000	0.556098
658.696000	0.302497
658.891000	0.532734
659.086000	0.368787
659.281000	0.482627
659.476000	0.256515
659.671000	-0.122772
659.866000	0.127520
660.061000	0.448576
660.256000	0.487942
660.451000	0.429582
660.646000	0.214289
660.842000	0.304909
661.037000	0.132072
661.232000	0.128325
661.427000	0.281619
661.622000	0.156043
661.817000	0.029940
662.012000	0.290668
662.207000	0.077459
662.402000	-0.100634
662.597000	0.157001
662.792000	-0.100610
662.987000	-0.104485
663.182000	0.200687
663.378000	0.228633
663.573000	-0.085152
663.768000	-0.132625
663.963000	0.026236
664.158000	-0.029389
664.353000	0.457000
664.548000	0.604336
664.743000	0.293730
664.938000	0.006385
665.133000	-0.069543
665.328000	0.398665
665.523000	0.331268
665.718000	0.102681
665.913000	0.130954
666.109000	0.115143
666.304000	0.183525
666.499000	0.074812
666.694000	0.256535
666.889000	0.550925
667.084000	0.204762
667.279000	-0.042060
667.474000	0.026707
667.669000	0.123794
667.864000	0.099638
668.059000	0.059225
668.254000	0.047115
668.449000	-0.119548
668.644000	-0.054538
668.840000	0.136572
669.035000	-0.034192
669.230000	-0.283448
669.425000	0.039235
669.620000	-0.075196
669.815000	-0.128788
670.010000	-0.136864
670.205000	0.043472
670.400000	0.039301
670.595000	0.059952
670.790000	-0.087993
670.985000	-0.059272
671.180000	0.196144
671.376000	-0.183122
671.571000	-0.266197
671.766000	-0.233669
671.961000	-0.271060
672.156000	-0.304596
672.351000	-0.122033
672.546000	-0.155566
672.741000	-0.097120
672.936000	0.060676
673.131000	0.590068
673.326000	0.249054
673.521000	-0.252615
673.716000	-0.386442
673.911000	-0.503905
674.107000	0.111537
674.302000	0.342396
674.497000	0.157951
674.692000	-0.241299
674.887000	-0.301176
675.082000	-0.212916
675.277000	0.061765
675.472000	-0.031346
675.667000	-0.218064
675.862000	-0.260622
676.057000	-0.150362
676.252000	-0.061293
676.447000	-0.121180
676.643000	-0.001705
676.838000	0.224681
677.033000	0.028232
677.228000	0.285597
677.423000	0.169917
677.618000	-0.242659
677.813000	-0.371515
678.008000	-0.157021
678.203000	-0.040592
678.398000	-0.282933
678.593000	-0.101267
678.788000	0.063389
678.983000	-0.326965
679.178000	-0.179617
679.374000	-0.132085
679.569000	-0.101890
679.764000	-0.241941
679.959000	-0.395739
680.154000	-0.360790
680.349000	-0.542182
680.544000	-0.414209
680.739000	-0.181751
680.934000	-0.375294
681.129000	-0.451261
681.324000	-0.491528
681.519000	-0.174392
681.714000	-0.218731
681.909000	-0.311335
682.105000	-0.436386
682.300000	0.056096
682.495000	0.198459
682.690000	0.091873
682.885000	-0.064274
683.080000	-0.400140
683.275000	-0.230173
683.470000	0.110295
683.665000	0.209392
683.860000	0.502326
684.055000	0.286435
684.250000	-0.137046
684.445000	-0.294361
684.641000	0.183288
684.836000	-0.087726
685.031000	-0.206039
685.226000	-0.174507
685.421000	0.230596
685.616000	-0.038281
685.811000	-0.303326
686.006000	0.011876
686.201000	-0.010977
686.396000	-0.341598
686.591000	-0.346884
686.786000	0.108746
686.981000	0.053457
687.176000	0.099782
687.372000	-0.122093
687.567000	0.113820
687.762000	0.044540
687.957000	-0.131758
688.152000	-0.290114
688.347000	-0.169539
688.542000	-0.398752
688.737000	-0.790617
688.932000	-0.740534
689.127000	-0.348311
689.322000	-0.053522
689.517000	-0.278821
689.712000	-0.411702
689.908000	-0.374397
690.103000	-0.327878
690.298000	-0.209801
690.493000	-0.305103
690.688000	-0.533167
690.883000	-0.363649
691.078000	0.131414
691.273000	0.212382
691.468000	-0.164129
691.663000	-0.145596
691.858000	0.036405
692.053000	-0.006706
692.248000	0.098774
692.443000	0.041234
692.639000	-0.059577
692.834000	0.055872
693.029000	0.436543
693.224000	0.453139
693.419000	-0.157001
693.614000	-0.302946
693.809000	-0.405195
694.004000	-0.430297
694.199000	-0.439918
694.394000	-0.153322
694.589000	-0.417438
694.784000	-0.398290
694.979000	-0.119393
695.174000	-0.242334
695.370000	0.174343
695.565000	0.027491
695.760000	-0.316875
695.955000	0.101606
696.150000	0.190447
696.345000	-0.358598
696.540000	-0.086333
696.740000	-0.244936
696.940000	-0.016871
697.140000	0.022943
697.340000	-0.236820
697.539000	-0.036992
697.739000	-0.187032
697.939000	-0.062053
698.139000	-0.392746
698.339000	-0.871910
698.539000	-0.670393
698.739000	-0.586533
698.939000	-0.457511
699.138000	-0.448129
699.338000	0.240477
699.538000	0.337748
699.738000	-0.149533
699.938000	-0.276920
700.138000	-0.425261
700.338000	-0.452058
700.538000	-0.217363
700.737000	-0.140420
700.937000	-0.671404
701.137000	-0.728728
701.337000	-0.130659
701.537000	-0.022684
701.737000	-0.269801
701.937000	-0.208486
702.137000	-0.275587
702.337000	-0.405285
702.536000	-0.566693
702.736000	-0.458464
702.936000	-0.614957
703.136000	-0.210454
703.336000	-0.272903
703.536000	-0.299773
703.736000	-0.630498
703.936000	-0.655321
704.135000	-0.571422
704.335000	-0.148755
704.535000	-0.427526
704.735000	-0.643522
704.935000	-0.107026
705.135000	-0.139179
705.335000	-0.382963
705.535000	-0.277354
705.735000	-0.160880
705.934000	-0.181955
706.134000	-0.388372
706.334000	-0.399901
706.534000	-0.490769
706.734000	-0.422057
706.934000	-0.480501
707.134000	-0.533793
707.334000	-0.332465
707.533000	-0.322404
707.733000	-0.476855
707.933000	-0.557421
708.133000	-0.279439
708.333000	-0.157600
708.533000	-0.324377
708.733000	-0.045105
708.933000	-0.281619
709.132000	-0.357554
709.332000	-0.293431
709.532000	-0.385979
709.732000	-0.212681
709.932000	-0.743459
710.132000	-0.759215
710.332000	-0.845348
710.532000	-0.288896
710.732000	0.014105
710.931000	-0.268187
711.131000	-0.421839
711.331000	-0.313077
711.531000	-0.384635
711.731000	-0.500627
711.931000	-0.353325
712.131000	-0.320022
712.331000	-0.128269
712.530000	-0.193812
712.730000	-0.496236
712.930000	-0.347907
713.130000	-0.227978
713.330000	-0.487397
713.530000	-0.378514
713.730000	0.335503
713.930000	0.114013
714.129000	-0.455575
714.329000	-0.623434
714.529000	-0.395724
714.729000	-0.074420
714.929000	-0.107746
715.129000	-0.452840
715.329000	-0.425418
715.529000	-0.343294
715.729000	0.338184
715.928000	0.031330
716.128000	-0.394106
716.328000	-0.204375
716.528000	-0.300167
716.728000	-0.311485
716.928000	-0.367746
717.128000	-0.238949
717.328000	-0.261448
717.527000	-0.459218
717.727000	-0.307197
717.927000	-0.206212
718.127000	-0.251677
718.327000	-0.802965
718.527000	-0.785535
718.727000	-0.235197
718.927000	-0.303919
719.127000	-0.562283
719.326000	-0.349432
719.526000	-0.053594
719.726000	-0.173691
719.926000	-0.598718
720.126000	-0.690588
720.326000	-0.495497
720.526000	-0.478381
720.726000	-0.341747
720.925000	-0.244096
721.125000	-0.661039
721.325000	-0.337044
721.525000	-0.355217
721.725000	-0.517262
721.925000	-0.454895
722.125000	-0.495551
722.325000	0.067304
722.524000	-0.223477
722.724000	-0.864717
722.924000	-0.922930
723.124000	-0.644053
723.324000	-0.270968
723.524000	-0.189382
723.724000	-0.721939
723.924000	-0.513158
724.124000	-0.225539
724.323000	0.038815
724.523000	-0.061109
724.723000	0.239074
724.923000	-0.014137
725.123000	-0.137978
725.323000	0.062614
725.523000	-0.191752
725.723000	-0.493067
725.922000	-0.493623
726.122000	-0.417148
726.322000	-0.418273
726.522000	-0.484102
726.722000	0.140192
726.922000	-0.156718
727.122000	-0.300231
727.322000	-0.067996
727.521000	-0.127955
727.721000	-0.331736
727.921000	-0.343728
728.121000	-0.409497
728.321000	-0.752126
728.521000	-0.525551
728.721000	-0.327673
728.921000	0.009634
729.121000	0.661019
729.320000	0.136456
729.520000	-0.262068
729.720000	-0.619354
729.920000	-0.512915
730.120000	-0.402501
730.320000	-0.391334
730.520000	-0.598185
730.720000	-0.490300
730.919000	-0.270712
731.119000	-0.118501
731.319000	-0.773348
731.519000	-0.791595
731.719000	-0.406505
731.919000	-0.535355
732.119000	-0.971863
732.319000	-0.913366
732.519000	-0.378104
732.718000	-0.767065
732.918000	-0.712182
733.118000	-0.435552
733.318000	-0.157597
733.518000	-0.474071
733.718000	-1.071249
733.918000	-0.959962
734.118000	-0.586715
734.317000	-0.314522
734.517000	-0.501043
734.717000	-0.484671
734.917000	-0.109203
735.117000	-0.165865
735.317000	-0.260040
735.517000	0.312393
735.717000	0.654428
735.916000	-0.267876
736.116000	-0.551698
736.316000	-0.491589
736.516000	-0.256512
736.716000	-0.288404
736.916000	-0.876395
737.116000	-0.669150
737.316000	0.023070
737.516000	0.042379
737.715000	0.035981
737.915000	-0.574674
738.115000	-0.769955
738.315000	-0.389779
738.515000	-0.647786
738.715000	-0.521792
738.915000	0.049390
739.115000	-0.542884
739.314000	-0.678968
739.514000	-0.022191
739.714000	0.062816
739.914000	-0.120750
740.114000	-0.370818
740.314000	-0.232920
740.514000	0.228005
740.714000	-0.491938
740.913000	-0.863471
741.113000	-0.619435
741.313000	-0.208247
741.513000	-0.388404
741.713000	-0.449465
741.913000	-0.304186
742.113000	-0.283654
742.313000	-0.834005
742.513000	-0.626758
742.712000	-0.548002
742.912000	-0.891579
743.112000	-0.577026
743.312000	-0.706577
743.512000	-0.491108
743.712000	-0.376998
743.912000	-0.970599
744.112000	-1.100807
744.311000	-1.254236
744.511000	-0.941351
744.711000	-0.401106
744.911000	-0.635535
745.111000	-0.622551
745.311000	-0.154557
745.511000	-0.500241
745.711000	-0.618283
745.911000	-0.577536
746.110000	-1.000432
746.310000	-0.992398
746.510000	-0.774680
746.710000	-0.303190
746.910000	-0.023773
747.110000	-0.486037
747.310000	-0.844686
747.510000	-0.580292
747.709000	-0.404560
747.909000	-0.462127
748.109000	-0.215537
748.309000	-0.336755
748.509000	-0.707298
748.709000	-0.817050
748.909000	-0.459806
749.109000	-0.612404
749.308000	-0.031584
749.508000	-0.219021
749.708000	-0.507376
749.908000	-0.211934
750.108000	-0.147494
750.308000	-0.917071
750.508000	-0.228399
750.708000	-0.672330
750.908000	-1.125889
751.107000	-0.354022
751.307000	0.245477
751.507000	-0.406458
751.707000	-0.332667
751.907000	-0.392249
752.107000	-0.371465
752.307000	-0.868189
752.507000	-0.588711
752.706000	-0.766138
752.906000	0.152959
753.106000	-0.502195
753.306000	-1.079220
753.506000	-0.205341
753.706000	-0.588718
753.906000	-0.386031
754.106000	-0.078211
754.305000	-0.048192
754.505000	-0.176664
754.705000	-0.435723
754.905000	-0.193097
755.105000	0.019795
755.305000	-0.917944
755.505000	-0.805896
755.705000	-0.202109
755.905000	-0.494505
756.104000	-1.055958
756.304000	-1.205207
756.504000	-1.338963
756.704000	-0.453296
756.904000	-0.173768
757.104000	-0.467892
757.304000	-0.445078
757.504000	-0.003121
757.703000	-0.455516
757.903000	0.075060
758.103000	0.263248
758.303000	-0.309557
758.503000	-0.523067
758.703000	-0.611143
758.903000	-0.706209
759.103000	-0.359626
759.303000	-0.281759
759.502000	-0.450322
759.702000	-0.098969
759.902000	-0.516625
760.102000	-0.413325
760.302000	-0.245280
760.502000	0.109403
760.702000	-0.067669
760.902000	-0.503753
761.101000	-0.853338
761.301000	-1.211691
761.501000	-0.733414
761.701000	-0.775534
761.901000	-0.616140
762.101000	-0.060599
762.301000	-0.158871
762.501000	-0.765501
762.700000	-0.793728
762.900000	-0.752828
763.100000	-0.580519
763.300000	-0.309661
763.500000	-0.600044
763.703000	-0.556738
763.905000	-0.774436
764.108000	-0.053255
764.311000	-0.419440
764.513000	-0.686579
764.716000	-0.563870
764.919000	-0.522739
765.121000	-0.950345
765.324000	-1.163343
765.527000	-0.958287
765.729000	-0.873755
765.932000	-0.113419
766.135000	-0.054154
766.337000	-0.316626
766.540000	-0.589466
766.743000	-0.328584
766.945000	-0.814710
767.148000	-1.158925
767.351000	-1.081740
767.553000	-0.252549
767.756000	-0.527993
767.958000	-0.940661
768.161000	-0.657485
768.364000	-0.944944
768.566000	-1.232675
768.769000	-0.819893
768.972000	-0.359522
769.174000	-0.822276
769.377000	-1.357495
769.580000	-1.237831
769.782000	-0.309626
769.985000	-0.758111
770.188000	-1.718600
770.390000	-0.984642
770.593000	0.658553
770.796000	0.535362
770.998000	-0.401314
771.201000	-0.959212
771.404000	-0.544084
771.606000	-0.715277
771.809000	-0.697256
772.012000	-0.645136
772.214000	-1.519580
772.417000	-1.546500
772.620000	-0.430330
772.822000	-0.774145
773.025000	-0.953519
773.228000	-0.721861
773.430000	-0.678098
773.633000	-0.544228
773.836000	-0.517903
774.038000	-0.501747
774.241000	-0.583100
774.444000	-0.857357
774.646000	0.059894
774.849000	-0.167354
775.052000	-0.376482
775.254000	-0.286111
775.457000	-0.777442
775.659000	-0.715427
775.862000	-0.834254
776.065000	-0.543067
776.267000	0.078761
776.470000	0.336690
776.673000	-0.362698
776.875000	0.051702
777.078000	0.060838
777.281000	-0.817954
777.483000	-0.226489
777.686000	-0.078118
777.889000	-0.255086
778.091000	0.005605
778.294000	-1.011207
778.497000	-0.975145
778.699000	-0.704834
778.902000	-0.791660
779.105000	-0.519679
779.307000	0.371998
779.510000	-0.700468
779.713000	-0.466905
779.915000	-0.705515
780.118000	0.299948
780.321000	0.338331
780.523000	-0.470573
780.726000	-0.851958
780.929000	-0.851651
781.131000	-0.900674
781.334000	-1.603100
781.537000	-1.473140
781.739000	-0.340266
781.942000	-0.908109
782.145000	-1.531657
782.347000	-1.406840
782.550000	-1.059196
782.753000	-1.130673
782.955000	-0.958425
783.158000	-0.792376
783.361000	-0.657714
783.563000	-0.774942
783.766000	-0.610601
783.968000	1.328922
784.171000	1.187340
784.374000	-0.417477
784.576000	-0.653591
784.779000	-0.180831
784.982000	0.104774
785.184000	-0.739387
785.387000	-0.023888
785.590000	0.851536
785.792000	0.395429
785.995000	0.026002
786.198000	-0.254436
786.400000	-0.788660
786.603000	-0.639387
786.806000	-0.567036
787.008000	-0.124655
787.211000	-0.175551
787.414000	-1.259380
787.616000	-1.111711
787.819000	-0.930986
788.022000	-1.411624
788.224000	-0.801637
788.427000	-1.610321
788.630000	-1.153972
788.832000	-0.660456
789.035000	-1.099690
789.238000	-1.557211
789.440000	-1.204206
789.643000	-0.117693
789.846000	-0.563224
790.048000	-0.388155
790.251000	-0.107962
790.454000	-0.708637
790.656000	-0.014558
790.859000	-0.566983
791.062000	-1.048261
791.264000	-0.244114
791.467000	-1.177544
791.669000	-1.997616
791.872000	-0.773936
792.075000	-1.004745
792.277000	-1.004908
792.480000	-0.936233
792.683000	-1.461774
792.885000	-1.547766
793.088000	-1.266946
793.291000	-1.429678
793.493000	-1.347029
793.696000	-0.462689
793.899000	-0.089800
794.101000	-0.582909
794.304000	-0.820495
794.507000	-0.230165
794.709000	-0.112166
794.912000	-1.054709
795.115000	-1.523265
795.317000	-1.067293
795.520000	-0.690674
795.723000	-0.879401
795.925000	-1.242162
796.128000	-1.535941
796.331000	-0.893423
796.533000	-1.214602
796.736000	-0.634677
796.939000	-0.492110
797.141000	-0.749003
797.344000	-0.360399
797.547000	-0.060092
797.749000	0.062408
797.952000	-0.766134
798.155000	-1.468569
798.357000	-1.488656
798.560000	-1.157847
798.763000	-0.433745
798.965000	-0.670315
799.168000	-0.593046
799.371000	-0.287805
799.573000	-0.720775
799.776000	-1.621326
799.978000	-1.558404
800.181000	-0.702853
800.384000	0.946994
800.586000	0.121813
800.789000	-1.428959
800.992000	-1.198410
801.194000	-1.465658
801.397000	-1.677060
801.600000	-1.324017
801.802000	-0.085772
802.005000	-0.248834
802.208000	-1.625538
802.410000	-0.901785
802.613000	-0.613205
802.816000	-0.871673
803.018000	-1.672806
803.221000	-1.311084
803.424000	0.136806
803.626000	-0.229152
803.829000	-0.585370
804.032000	0.161580
804.234000	1.064202
804.437000	-0.326840
804.640000	-0.612608
804.842000	-0.590118
805.045000	-0.977218
805.248000	-0.762550
805.450000	-1.086234
805.653000	-1.093120
805.856000	-1.104006
806.058000	-0.029078
806.261000	-1.000706
806.464000	-0.940924
806.666000	-0.370147
806.869000	-0.629852
807.072000	-1.842792
807.274000	-2.358949
807.477000	-1.246624
807.679000	-0.878531
807.882000	-1.312192
808.085000	-1.023060
808.287000	-0.154108
808.490000	-1.113200
808.693000	-1.226131
808.895000	-0.765946
809.098000	-0.641509
809.301000	-0.768880
809.503000	-0.998597
809.706000	0.159332
809.909000	0.336313
810.111000	0.210174
810.314000	-0.284255
810.517000	-1.118147
810.719000	-1.073568
810.922000	-0.707672
811.125000	0.096873
811.327000	0.161523
811.530000	-0.442732
811.735000	-0.506317
811.940000	-0.893833
812.146000	-1.013996
812.351000	-0.225063
812.556000	-0.705903
812.761000	-1.580306
812.967000	-0.423582
813.172000	-0.318658
813.377000	-0.634049
813.582000	0.152607
813.788000	-0.230491
813.993000	-1.234130
814.198000	-0.679833
814.403000	-1.459375
814.609000	-0.683731
814.814000	-0.539830
815.019000	0.394796
815.224000	0.074653
815.429000	-0.958146
815.635000	-0.045769
815.840000	-0.113200
816.045000	-0.194941
816.250000	-0.005424
816.456000	-1.390858
816.661000	-2.147708
816.866000	-1.578083
817.071000	-1.563423
817.277000	-2.178700
817.482000	-1.300661
817.687000	-0.335974
817.892000	-0.144013
818.097000	-0.241691
818.303000	0.216686
818.508000	0.590565
818.713000	7.061095
818.918000	3.933998
819.124000	0.524766
819.329000	-0.748444
819.534000	-0.891250
819.739000	-0.989735
819.945000	-0.994404
820.150000	-0.588101
820.355000	-0.646176
820.560000	-0.176013
820.766000	-0.375698
820.971000	-0.864510
821.176000	-2.186612
821.381000	-2.566578
821.586000	-1.315448
821.792000	0.239746
821.997000	-0.439463
822.202000	-1.047645
822.407000	-1.587845
822.613000	-1.751169
822.818000	-1.070361
823.023000	-0.662856
823.228000	-0.725916
823.434000	-0.035239
823.639000	0.494407
823.844000	-0.433746
824.049000	-0.079727
824.255000	-0.183668
824.460000	-0.526791
824.665000	-0.810658
824.870000	0.113637
825.075000	-0.170672
825.281000	0.069075
825.486000	1.021123
825.691000	-1.579385
825.896000	-2.749627
826.102000	-0.718927
826.307000	-0.507819
826.512000	-1.150681
826.717000	-1.092998
826.923000	-1.126823
827.128000	-0.775427
827.333000	-1.384351
827.538000	-0.332618
827.744000	-0.162039
827.949000	-1.436925
828.154000	-1.052393
828.359000	-0.021849
828.564000	-0.508182
828.770000	-1.061515
828.975000	-0.306233
829.180000	-0.640954
829.385000	-2.226627
829.591000	-1.471550
829.796000	-1.078767
830.001000	-1.193080
830.206000	-1.631186
830.412000	-1.436679
830.617000	-1.585130
830.822000	-0.637863
831.027000	-0.797977
831.232000	-1.339113
831.438000	-1.512233
831.643000	-0.726595
831.848000	-0.761186
832.053000	-0.467677
832.259000	-0.863965
832.464000	-2.734754
832.669000	-2.197037
832.874000	-1.679890
833.080000	-1.654037
833.285000	-0.040001
833.490000	-0.006672
833.695000	-1.618450
833.901000	-1.710404
834.106000	-1.763694
834.311000	-1.246510
834.516000	-0.636117
834.721000	-1.118629
834.927000	-0.264497
835.132000	-0.832905
835.337000	1.078874
835.542000	-0.093619
835.748000	-2.048707
835.953000	-0.145850
836.158000	-0.128802
836.363000	-0.793391
836.569000	-0.447320
836.774000	-1.330205
836.979000	-1.702755
837.184000	-2.025601
837.390000	-1.922867
837.595000	-1.679012
837.800000	-1.148057
838.005000	-1.280642
838.210000	-1.406806
838.416000	-1.484310
838.621000	-1.235436
838.826000	-1.306885
839.031000	-0.823718
839.237000	-1.926624
839.442000	-2.478957
839.647000	-2.493536
839.852000	-2.173811
840.058000	-1.923699
840.263000	-1.470230
840.468000	-2.120447
840.673000	-1.342096
840.878000	-1.324808
841.084000	-1.985989
841.289000	-1.392193
841.494000	1.330297
841.699000	1.448129
841.905000	0.144057
842.110000	0.545037
842.315000	-1.630952
842.520000	-0.999720
842.726000	-1.078607
842.931000	-1.593667
843.136000	-0.816070
843.341000	-2.528518
843.547000	-1.981520
843.752000	-1.325109
843.957000	-1.980503
844.162000	-2.284267
844.367000	-1.404229
844.573000	-0.205418
844.778000	-0.244274
844.983000	-0.758319
845.188000	-0.563716
845.394000	-2.291254
845.599000	-2.005920
845.804000	-1.551671
846.009000	-0.492539
846.215000	-1.508798
846.420000	-1.512870
846.625000	-0.089762
846.830000	0.337430
847.036000	-1.111154
847.241000	-1.772259
847.446000	-0.254321
847.651000	-0.646717
847.856000	-1.920316
848.062000	-1.988545
848.267000	-0.195994
848.472000	-1.577577
848.677000	-2.756929
848.883000	-0.824920
849.088000	0.351075
849.293000	-1.261210
849.498000	-1.641299
849.704000	-0.646451
849.909000	-1.351684
850.114000	-2.097949
850.319000	-0.970121
850.524000	-0.975456
850.730000	-1.024205
850.935000	-1.831015
851.140000	-0.552493
851.345000	-0.465420
851.551000	-0.161424
851.756000	0.166679
851.961000	-1.086294
852.166000	-1.108860
852.372000	-0.802920
852.577000	-0.986542
852.782000	-1.508946
852.987000	0.169664
853.193000	-0.188199
853.398000	-0.905419
853.603000	-1.760976
853.808000	-2.458569
854.013000	-1.433865
854.219000	-0.145006
854.424000	1.332866
854.629000	1.244627
854.834000	-0.835291
855.040000	-0.678980
855.245000	-0.699728
855.450000	-3.038121
855.655000	-3.813470
855.861000	-3.536061
856.066000	-2.442013
856.271000	-2.445944
856.476000	0.084633
856.682000	-0.953431
856.887000	-4.324389
857.092000	-2.183262
857.297000	0.441257
857.502000	0.038032
857.708000	-0.843104
857.913000	0.062030
858.118000	-0.852352
858.323000	-1.265380
858.529000	-1.070535
858.734000	-1.387745
858.939000	-1.343340
859.144000	-2.126448
859.350000	-3.513757
859.555000	-3.060961
859.760000	-1.138780
859.965000	-0.107956
860.171000	-1.931904
860.376000	-0.801722
860.581000	-2.317321
860.786000	-4.893292
860.991000	-4.188947
861.197000	-2.585860
861.402000	-0.110352
861.607000	-1.365225
861.812000	-2.732118
862.018000	-3.071508
862.223000	-2.012661
862.428000	-1.132102
862.633000	-0.112241
862.839000	-0.549324
863.044000	-1.744577
863.249000	-2.514255
863.454000	-0.527122
863.659000	-1.306256
863.865000	-2.510895
864.070000	-2.674172
864.275000	-2.966391
864.480000	-1.692325
864.686000	-3.492105
864.891000	-2.993464
865.096000	-0.885720
865.301000	-0.382581
865.507000	-0.491730
865.712000	-1.026151
865.917000	-1.785792
866.122000	-0.684977
866.328000	-3.129708
866.533000	-3.127524
866.738000	0.206235
866.943000	-0.065264
867.148000	0.180485
867.354000	-2.408819
867.559000	-3.539838
867.764000	-1.950331
867.969000	-0.623707
868.175000	-1.676106
868.380000	-2.768034
868.585000	-4.082173
868.790000	-1.354229
868.996000	-1.278685
869.201000	-2.750445
869.406000	-4.322133
869.611000	-3.107024
869.817000	-2.422714
870.022000	1.583290
870.227000	-0.696531
870.432000	-2.335113
870.637000	-0.528442
870.843000	-1.340337
871.048000	-1.918994
871.253000	0.017350
871.458000	-1.377634
871.664000	-3.463056
871.869000	-3.865997
872.074000	-3.671072
872.279000	-2.312487
872.485000	-2.357075
872.690000	-2.248036
872.895000	-2.017823
873.100000	-2.619676
873.306000	-3.052226
873.511000	-1.406411
873.716000	0.413127
873.921000	-2.132960
874.126000	-3.107425
874.332000	-1.942890
874.537000	-0.659046
874.742000	-0.841102
874.947000	-1.430389
875.153000	0.392069
875.358000	-0.854592
875.563000	-1.508173
875.768000	-3.955228
875.974000	-4.725560
876.179000	-1.019991
876.384000	-1.278022
876.589000	-2.821802
876.794000	-1.323027
877.000000	-2.731393
877.205000	-4.293138
877.410000	-1.136350
877.615000	-2.768773
877.821000	-5.412075
878.026000	-3.732740
878.231000	-3.861248
878.436000	-4.321233
878.642000	-3.209512
878.847000	-1.451418
879.052000	-0.404773
879.257000	-2.581461
879.463000	-4.200665
879.668000	-2.948615
879.873000	0.019868
880.078000	-2.635656
880.283000	-4.945268
880.489000	-4.945161
880.694000	-4.330756
880.899000	-2.171597
881.104000	-0.216687
881.310000	0.968296
881.515000	-0.453156
881.720000	1.003409
881.925000	2.236312
882.131000	4.452449
882.336000	1.326086
882.541000	-3.545572
882.746000	-2.901946
882.952000	-3.385143
883.157000	-3.672208
883.362000	-3.677850
883.567000	-4.183809
883.772000	-4.364117
883.978000	-3.519191
884.183000	-1.540040
884.388000	-1.784253
884.593000	-4.512016
884.799000	-0.120954
885.004000	-0.375201
885.209000	-2.143897
885.414000	-2.352363
885.620000	-4.760493
885.825000	-0.780872
886.030000	-1.070690
886.235000	-2.799425
886.440000	-2.416321
886.646000	-4.833870
886.851000	-4.113062
887.056000	-0.014950
887.261000	-2.221875
887.467000	-5.010175
887.672000	-1.905798
887.877000	-2.485613
888.082000	-4.865118
888.288000	-5.532237
888.493000	-7.549435
888.698000	-5.710395
888.903000	-2.600195
889.109000	-3.634275
889.314000	-1.132504
889.519000	-3.008530
889.724000	-0.438094
889.929000	-1.208089
890.135000	-2.252936
890.340000	-2.930464
890.545000	-4.055717
890.750000	-4.648676
890.956000	-4.078203
891.161000	-1.809916
891.366000	-3.653534
891.571000	-2.368216
891.777000	-1.860235
891.982000	-0.291835
892.187000	-1.402059
892.392000	-0.529460
892.598000	-0.651696
892.803000	-0.617368
893.008000	-3.099800
893.213000	-2.772066
893.418000	-3.032953
893.624000	-3.897130
893.829000	-5.880580
894.034000	-3.461294
894.239000	-1.115995
894.445000	-4.567421
894.650000	-4.917165
894.855000	-4.309929
895.060000	-4.057799
895.266000	-3.837225
895.471000	-4.661650
895.676000	-1.707814
895.881000	-0.640742
896.087000	-2.555141
896.292000	-3.912095
896.497000	0.656621
896.702000	-1.484051
896.907000	-3.501719
897.113000	1.415976
897.318000	0.825569
897.523000	0.236498
897.728000	-1.882313
897.934000	-3.608818
898.139000	-3.237400
898.344000	-0.744242
898.549000	-1.995950
898.755000	-2.817240
898.960000	-3.181381
899.165000	-5.827927
899.370000	-2.151157
899.575000	1.990751
899.781000	-3.125947
899.986000	-4.220686
900.191000	-1.912322
900.396000	-2.885048
900.602000	-2.458580
900.807000	-2.922880
901.012000	-2.132214
901.217000	-0.288609
901.423000	-2.984050
901.628000	-5.203497
901.833000	-0.199388
902.038000	0.118736
902.244000	-4.025952
902.449000	-3.179257
902.654000	-2.796124
902.859000	-1.311656
903.064000	-0.297001
903.270000	0.027944
903.475000	-4.213458
903.680000	-6.444111
903.885000	-6.026153
904.091000	-5.821291
904.296000	-6.223325
904.501000	-5.059279
904.706000	-4.026101
904.912000	-0.501463
905.117000	-2.198252
905.322000	-5.242486
905.527000	-5.072414
905.733000	-4.346473
905.938000	-3.835527
906.143000	-4.228190
906.348000	-6.064938
906.553000	-0.918263
906.759000	-0.119699
906.964000	-0.972366
907.169000	-3.094823
907.374000	-5.703075
907.580000	-4.368340
907.785000	-4.443617
907.990000	26.265398
908.195000	18.403725
908.401000	-0.072779
908.606000	-8.331943
908.811000	-10.516849
909.016000	-3.827779
909.221000	-2.061199
909.427000	-2.178160
909.632000	-4.744860
909.837000	-4.190039
910.042000	-6.346143
910.248000	-8.586128
910.453000	-2.782008
910.658000	-3.893960
910.863000	-4.053343
911.069000	-6.255271
911.274000	-2.280332
911.479000	-1.019718
911.684000	-7.940111
911.890000	-4.093661
912.095000	-3.987027
912.300000	-7.727228
912.506000	-6.830999
912.711000	-6.346424
912.917000	-4.812535
913.123000	-4.017833
913.328000	-3.985235
913.534000	-4.079742
913.740000	5.112107
913.946000	2.263864
914.151000	-3.947806
914.357000	-5.746496
914.563000	-3.134627
914.768000	-7.182246
914.974000	-7.856138
915.180000	-6.000730
915.385000	-4.448877
915.591000	-7.240113
915.797000	-2.478536
916.002000	1.210416
916.208000	-2.053366
916.414000	-4.872811
916.620000	-5.319235
916.825000	-1.711986
917.031000	-3.589155
917.237000	-9.441380
917.442000	-5.418884
917.648000	-7.891549
917.854000	-9.611875
918.059000	-1.505749
918.265000	-0.025707
918.471000	-3.578458
918.676000	-7.468380
918.882000	-9.423372
919.088000	-7.399764
919.294000	-12.565080
919.499000	-7.241135
919.705000	-2.041781
919.911000	-4.593806
920.116000	-1.926462
920.322000	-7.861212
920.528000	-6.944470
920.733000	-7.110850
920.939000	-7.140174
921.145000	-6.915294
921.350000	-6.369805
921.556000	-4.930314
921.762000	-4.634482
921.968000	-6.140090
922.173000	-7.612073
922.379000	-11.217801
922.585000	-6.571562
922.790000	-6.219093
922.996000	-7.515165
923.202000	-10.057141
923.407000	-9.821126
923.613000	-6.690938
923.819000	-3.110721
924.024000	-3.166198
924.230000	-1.683262
924.436000	-5.096858
924.642000	4.639634
924.847000	0.665262
925.053000	-7.681143
925.259000	-12.257042
925.464000	-4.236965
925.670000	-4.389178
925.876000	-8.058941
926.081000	-9.526360
926.287000	-5.344372
926.493000	-4.631720
926.698000	-6.175150
926.904000	-4.450332
927.110000	-5.123521
927.316000	-5.226287
927.521000	1.524840
927.727000	-3.777886
927.933000	-5.382185
928.138000	-4.734218
928.344000	-11.667242
928.550000	-7.942732
928.755000	-0.034407
928.961000	-6.730317
929.167000	-6.944084
929.372000	0.832434
929.578000	-1.610189
929.784000	-5.148007
929.990000	-9.068174
930.195000	-7.937892
930.401000	-6.476295
930.607000	-6.043571
930.812000	-6.012095
931.018000	-9.582871
931.224000	-13.673145
931.429000	-9.662461
931.635000	-12.689177
931.841000	-13.559369
932.046000	-8.736803
932.252000	-3.141340
932.458000	5.656171
932.664000	-1.094063
932.869000	-9.453365
933.075000	-12.999845
933.281000	-11.026626
933.486000	-2.723456
933.692000	-4.632773
933.898000	-8.960427
934.103000	-4.974133
934.309000	-8.574058
934.515000	-6.834076
934.720000	-2.453621
934.926000	1.755201
935.132000	-1.947091
935.338000	-5.605053
935.543000	-10.459519
935.749000	-12.967042
935.955000	-14.016911
936.160000	-12.621138
936.366000	-3.293238
936.572000	-1.530580
936.777000	-0.396305
936.983000	2.640447
937.189000	-3.815103
937.394000	-12.339911
937.600000	-1.366809
937.806000	4.661677
938.012000	-5.569482
938.217000	7.118758
938.423000	3.933287
938.629000	-6.523232
938.834000	-15.722730
939.040000	-14.525914
939.246000	-8.738763
939.451000	-13.118150
939.657000	-10.373558
939.863000	-12.375180
940.068000	-4.200756
940.274000	-6.923414
940.480000	-1.828949
940.686000	-2.001339
940.891000	-4.465139
941.097000	20.119817
941.303000	5.709154
941.508000	-6.704358
941.714000	-2.474479
941.920000	-17.058488
942.125000	-8.167152
942.331000	-6.313914
942.537000	-0.348892
942.742000	1.703445
942.948000	-8.724076
943.154000	-12.234022
943.360000	-25.827223
943.565000	-9.646951
943.771000	5.081075
943.977000	5.496923
944.182000	-15.203096
944.388000	-16.323170
944.594000	-3.418160
944.799000	8.416284
945.005000	-1.121570
945.211000	2.827445
945.416000	-1.914045
945.622000	-17.239181
945.828000	-12.732582
946.034000	-1.017455
946.239000	2.653757
946.445000	-6.358888
946.651000	-20.741598
946.856000	-17.810406
947.062000	-1.796828
947.268000	1.523727
947.473000	-14.247364
947.679000	-18.823540
947.885000	-4.567702
948.090000	-1.521131
948.296000	12.111588
948.502000	2.530163
948.708000	-8.572958
948.913000	-11.820221
949.119000	-2.714013
949.325000	-8.345917
949.530000	-21.110449
949.736000	-26.156846
949.942000	-17.336722
950.147000	-14.811986
950.353000	-10.579348
950.559000	-6.805435
950.764000	10.552286
950.970000	7.116233
951.176000	-6.489067
951.382000	-12.515928
951.587000	-3.544154
951.793000	-1.469004
951.999000	3.723734
952.204000	-10.688538
952.410000	-25.775866
952.616000	-15.304036
952.821000	-9.889853
953.027000	-17.846481
953.233000	-21.505506
953.438000	-16.882405
953.644000	-0.247646
953.850000	-5.735059
954.056000	-9.552242
954.261000	-7.631687
954.467000	-0.974238
954.673000	-0.432089
954.878000	-10.008318
955.084000	-6.041350
955.290000	-21.320784
955.495000	-23.568768
955.701000	-18.782890
955.907000	1.405849
956.112000	-0.258999
956.318000	5.977340
956.524000	4.562471
956.730000	-10.248062
956.935000	-16.703478
957.141000	-21.281727
957.347000	-3.884828
957.552000	-2.168664
957.758000	-23.681320
957.964000	-35.459808
958.169000	2.821166
958.375000	1.666930
958.581000	-16.049530
958.786000	-23.910760
958.992000	-28.101813
959.198000	-9.438497
959.404000	-5.039805
959.609000	-11.666733
959.815000	-16.303667
960.021000	3.556058
960.226000	2.160677
960.432000	-24.781885
960.638000	-20.950595
960.843000	-10.000214
961.049000	-11.473582
961.255000	-0.919781
961.460000	-16.717371
961.666000	-38.495014
961.872000	-21.531688
962.078000	-18.728032
962.283000	-29.200631
962.489000	-30.091560
962.695000	-21.027693
962.900000	-16.101100
963.106000	-15.400295
963.312000	-21.361909
963.517000	-25.302762
963.723000	-25.828416
963.929000	-5.258080
964.134000	9.105137
964.340000	-13.697094
964.546000	-22.159198
964.752000	-23.782728
964.957000	-28.163536
965.163000	-6.640887
965.369000	-7.201863
965.574000	-7.036917
965.780000	-15.187513
966.000000	-26.467941
966.220000	-15.531988
966.440000	-11.977333
966.661000	-3.512483
966.881000	-23.586395
967.101000	-41.978108
967.321000	-38.821249
967.541000	-13.733044
967.761000	-17.904166
967.981000	-11.627238
968.202000	-11.645076
968.422000	1.699695
968.642000	0.667517
968.862000	-0.629047
969.082000	-10.666686
969.302000	-4.198391
969.522000	-8.413761
969.743000	2.504924
969.963000	-18.507797
970.183000	-31.935270
970.403000	-31.055418
970.623000	-30.640118
970.843000	-4.518345
971.063000	0.727378
971.284000	-20.940660
971.504000	-37.065177
971.724000	-16.125675
971.944000	-33.903806
972.164000	-38.246002
972.384000	-25.722711
972.604000	-43.309542
972.825000	-47.896661
973.045000	-29.517066
973.265000	25.118946
973.485000	9.253771
973.705000	-12.894110
973.925000	-20.498134
974.145000	-50.612608
974.365000	-12.141115
974.586000	-11.894240
974.806000	-35.828579
975.026000	-8.110193
975.246000	-21.580548
975.466000	-30.470635
975.686000	-16.016651
975.906000	-25.893780
976.127000	-52.684423
976.347000	-46.230810
976.567000	-4.780567
976.787000	-9.790449
977.007000	-18.682878
977.227000	-22.518460
977.447000	-30.861890
977.668000	-50.875034
977.888000	-34.210968
978.108000	-37.762029
978.328000	-22.014976
978.548000	5.156047
978.768000	10.288474
978.988000	-2.029402
979.209000	-16.984535
979.429000	-22.349931
979.649000	-15.227960
979.869000	-30.954860
980.089000	-43.548023
980.309000	-46.584956
980.529000	-61.480940
980.750000	-41.809891
980.970000	-43.247709
981.190000	-28.313952
981.410000	-28.750761
981.630000	-37.185422
981.850000	-19.320419
982.070000	-16.680181
982.291000	-51.211593
982.511000	-48.017826
982.731000	-13.089288
982.951000	-23.978894
983.171000	-24.594901
983.391000	-24.745610
983.611000	-1.485255
983.832000	-28.297965
984.052000	-59.909326
984.272000	-34.182319
984.492000	-23.741639
984.712000	-35.717733
984.932000	-71.147878
985.152000	-70.824779
985.373000	-44.397036
985.593000	-24.255870
985.813000	-35.928752
986.033000	-31.550559
986.253000	-0.696672
986.473000	-0.662465
986.693000	-41.121486
986.914000	-39.978716
987.134000	11.013872
987.354000	-15.769840
987.574000	196.491852
987.794000	115.554200
988.014000	-46.059706
988.234000	-31.849540
988.455000	-12.889533
988.675000	-15.722023
988.895000	-29.447168
989.115000	-47.788111
989.335000	-28.986887
989.555000	-1.913970
989.775000	-50.500072
989.995000	-49.287374
990.216000	-33.094681
990.436000	-27.907826
990.656000	11.343114
990.876000	-30.179468
991.096000	-12.415435
991.316000	19.052724
991.536000	-19.920744
991.757000	-38.614318
991.977000	-77.418698
992.197000	-26.025659
992.417000	-46.366695
992.637000	-94.894736
992.857000	-90.147081
993.077000	-76.012082
993.298000	-47.585800
993.518000	-52.498294
993.738000	-84.390689
993.958000	-37.039828
994.178000	-47.761811
994.398000	-61.476244
994.618000	-108.740155
994.839000	-141.339113
995.059000	-39.537595
995.279000	31.825137
995.499000	-10.322425
995.719000	1.187515
995.939000	-19.635827
996.159000	-45.594128
996.380000	-61.125516
996.600000	-88.263792
996.820000	-41.703584
997.040000	8.581353
997.260000	-65.748344
997.480000	-43.315900
997.700000	-109.589773
997.921000	-71.593337
998.141000	28.266206
998.361000	2.970167
998.581000	-45.354690
998.801000	-89.764717
999.021000	-75.508654
999.241000	-63.126860
999.462000	-67.215140
999.682000	-94.278401
999.902000	-60.827068
1000.122000	-79.258256
1000.342000	-154.115919
1000.562000	-82.364499
1000.782000	-65.493829
1001.003000	-1011.572287
