Wavelength	Irradiance
(nm)	(mW/cm2/nm)

294.396000	0.000000
294.577000	0.000000
294.757000	-0.000000
294.938000	-0.000000
295.118000	0.000000
295.299000	0.000000
295.479000	-0.000000
295.660000	-0.000000
295.840000	-0.000000
296.021000	-0.000000
296.202000	-0.000000
296.382000	-0.000000
296.563000	-0.000000
296.743000	-0.000000
296.924000	0.000000
297.104000	-0.000000
297.285000	-0.000000
297.465000	-0.000000
297.646000	-0.000000
297.826000	-0.000000
298.007000	0.000000
298.187000	-0.000000
298.368000	-0.000000
298.548000	0.000000
298.729000	0.000000
298.909000	-0.000000
299.090000	-0.000000
299.270000	-0.000000
299.451000	-0.000000
299.631000	-0.000000
299.812000	-0.000000
299.992000	0.000000
300.173000	0.000000
300.353000	-0.000000
300.534000	0.000000
300.714000	0.000000
300.895000	0.000000
301.075000	-0.000000
301.256000	0.000000
301.436000	-0.000000
301.617000	-0.000000
301.797000	-0.000000
301.978000	-0.000000
302.159000	0.000000
302.339000	0.000000
302.520000	-0.000000
302.700000	-0.000000
302.881000	0.000000
303.061000	0.000000
303.242000	0.000000
303.422000	0.000000
303.603000	-0.000000
303.783000	-0.000000
303.964000	-0.000000
304.144000	-0.000000
304.325000	-0.000000
304.505000	0.000000
304.686000	-0.000000
304.866000	0.000000
305.047000	-0.000000
305.227000	-0.000000
305.408000	-0.000000
305.588000	-0.000000
305.769000	-0.000000
305.949000	-0.000000
306.130000	-0.000000
306.310000	-0.000000
306.491000	-0.000000
306.671000	0.000000
306.852000	-0.000000
307.032000	-0.000000
307.213000	-0.000000
307.393000	-0.000000
307.574000	0.000000
307.755000	0.000000
307.935000	0.000000
308.116000	-0.000000
308.296000	-0.000000
308.477000	0.000000
308.657000	0.000000
308.838000	0.000000
309.018000	0.000000
309.199000	-0.000000
309.379000	-0.000000
309.560000	0.000000
309.740000	-0.000000
309.921000	-0.000000
310.101000	0.000000
310.282000	-0.000000
310.462000	-0.000000
310.643000	-0.000000
310.823000	-0.000000
311.004000	-0.000000
311.184000	-0.000000
311.365000	0.000000
311.545000	0.000000
311.726000	0.000000
311.906000	-0.000000
312.087000	0.000000
312.267000	-0.000000
312.448000	-0.000000
312.628000	-0.000000
312.809000	-0.000000
312.989000	-0.000000
313.170000	-0.000000
313.344000	-0.000000
313.518000	-0.000000
313.691000	-0.000000
313.865000	-0.000000
314.039000	-0.000000
314.213000	-0.000000
314.387000	-0.000000
314.560000	-0.000000
314.734000	-0.000000
314.908000	-0.000000
315.082000	-0.000000
315.255000	0.000000
315.429000	0.000000
315.603000	0.000000
315.777000	-0.000000
315.951000	0.000000
316.124000	-0.000000
316.298000	-0.000000
316.472000	-0.000000
316.646000	-0.000000
316.820000	-0.000000
316.993000	0.000000
317.167000	-0.000000
317.341000	-0.000000
317.515000	-0.000000
317.688000	-0.000000
317.862000	-0.000000
318.036000	-0.000000
318.210000	-0.000000
318.384000	-0.000000
318.557000	-0.000000
318.731000	-0.000000
318.905000	0.000000
319.079000	0.000000
319.253000	-0.000000
319.426000	0.000000
319.600000	0.000000
319.774000	-0.000000
319.948000	-0.000000
320.122000	0.000000
320.295000	0.000000
320.469000	-0.000000
320.643000	-0.000000
320.817000	-0.000000
320.990000	-0.000000
321.164000	-0.000000
321.338000	-0.000000
321.512000	-0.000000
321.686000	-0.000000
321.859000	-0.000000
322.033000	-0.000000
322.207000	-0.000000
322.381000	-0.000000
322.555000	0.000000
322.728000	-0.000000
322.902000	-0.000000
323.076000	-0.000000
323.250000	-0.000000
323.423000	-0.000000
323.597000	-0.000000
323.771000	-0.000000
323.945000	-0.000000
324.119000	-0.000000
324.292000	0.000000
324.466000	-0.000000
324.640000	0.000000
324.814000	0.000000
324.988000	-0.000000
325.161000	-0.000000
325.335000	-0.000000
325.509000	-0.000000
325.683000	-0.000000
325.856000	-0.000000
326.030000	-0.000000
326.204000	-0.000000
326.378000	-0.000000
326.552000	-0.000000
326.725000	-0.000000
326.899000	-0.000000
327.073000	-0.000000
327.247000	-0.000000
327.421000	0.000000
327.594000	-0.000000
327.768000	-0.000000
327.942000	-0.000000
328.116000	0.000000
328.289000	0.000000
328.463000	-0.000000
328.637000	0.000000
328.811000	-0.000000
328.985000	-0.000000
329.158000	-0.000000
329.332000	-0.000000
329.506000	0.000000
329.680000	-0.000000
329.854000	-0.000000
330.027000	-0.000000
330.201000	0.000000
330.375000	0.000000
330.549000	0.000000
330.723000	-0.000000
330.896000	-0.000000
331.070000	-0.000000
331.244000	-0.000000
331.418000	-0.000000
331.591000	-0.000000
331.765000	-0.000000
331.939000	-0.000000
332.113000	-0.000000
332.287000	-0.000000
332.460000	0.000000
332.634000	0.000000
332.808000	-0.000000
332.982000	-0.000000
333.156000	-0.000000
333.329000	-0.000000
333.503000	-0.000000
333.677000	-0.000000
333.851000	-0.000000
334.024000	-0.000000
334.198000	-0.000000
334.372000	-0.000000
334.546000	-0.000000
334.720000	-0.000000
334.893000	-0.000000
335.067000	-0.000000
335.241000	0.000000
335.415000	-0.000000
335.589000	-0.000000
335.762000	-0.000000
335.936000	-0.000000
336.110000	-0.000000
336.284000	-0.000000
336.458000	-0.000000
336.631000	-0.000000
336.805000	-0.000000
336.979000	-0.000000
337.153000	-0.000000
337.326000	-0.000000
337.500000	-0.000000
337.674000	-0.000000
337.848000	-0.000000
338.022000	-0.000000
338.195000	-0.000000
338.369000	-0.000000
338.543000	-0.000000
338.717000	-0.000000
338.891000	0.000000
339.064000	0.000000
339.238000	-0.000000
339.412000	-0.000000
339.586000	-0.000000
339.759000	-0.000000
339.933000	-0.000000
340.107000	0.000000
340.281000	-0.000000
340.455000	-0.000000
340.628000	-0.000000
340.802000	-0.000000
340.976000	-0.000000
341.150000	-0.000000
341.324000	-0.000000
341.497000	-0.000000
341.671000	-0.000000
341.845000	-0.000000
342.019000	-0.000000
342.192000	-0.000000
342.366000	-0.000000
342.540000	-0.000000
342.714000	-0.000000
342.888000	-0.000000
343.061000	-0.000000
343.235000	-0.000000
343.409000	-0.000000
343.583000	-0.000000
343.757000	-0.000000
343.930000	-0.000000
344.104000	-0.000000
344.278000	0.000000
344.452000	0.000000
344.626000	-0.000000
344.799000	-0.000000
344.973000	-0.000000
345.147000	-0.000000
345.321000	-0.000000
345.494000	-0.000000
345.668000	0.000000
345.842000	0.000000
346.016000	-0.000000
346.190000	0.000000
346.363000	0.000000
346.537000	-0.000000
346.711000	-0.000000
346.885000	-0.000000
347.059000	-0.000000
347.232000	0.000000
347.406000	0.000000
347.580000	-0.000000
347.754000	-0.000000
347.927000	0.000000
348.101000	0.000000
348.275000	-0.000000
348.449000	-0.000000
348.623000	-0.000000
348.796000	0.000000
348.970000	0.000000
349.144000	-0.000000
349.318000	-0.000000
349.492000	-0.000000
349.665000	-0.000000
349.839000	-0.000000
350.013000	-0.000000
350.187000	-0.000000
350.361000	-0.000000
350.534000	-0.000000
350.708000	-0.000000
350.882000	-0.000000
351.056000	0.000000
351.229000	-0.000000
351.403000	-0.000000
351.577000	-0.000000
351.751000	-0.000000
351.925000	-0.000000
352.098000	-0.000000
352.272000	-0.000000
352.446000	-0.000000
352.620000	-0.000000
352.794000	-0.000000
352.967000	-0.000000
353.141000	0.000000
353.315000	0.000000
353.489000	-0.000000
353.662000	-0.000000
353.836000	-0.000000
354.010000	-0.000000
354.184000	0.000000
354.358000	-0.000000
354.531000	-0.000000
354.705000	-0.000000
354.879000	-0.000000
355.053000	-0.000000
355.227000	0.000000
355.400000	-0.000000
355.574000	0.000000
355.748000	0.000000
355.922000	-0.000000
356.095000	-0.000000
356.269000	-0.000000
356.443000	-0.000000
356.617000	-0.000000
356.791000	-0.000000
356.964000	-0.000000
357.138000	-0.000000
357.312000	-0.000000
357.486000	-0.000000
357.660000	-0.000000
357.833000	0.000000
358.007000	-0.000000
358.181000	-0.000000
358.355000	-0.000000
358.529000	-0.000000
358.702000	-0.000000
358.876000	-0.000000
359.050000	-0.000000
359.224000	-0.000000
359.397000	0.000000
359.571000	-0.000000
359.745000	-0.000000
359.919000	-0.000000
360.093000	-0.054004
360.266000	0.049353
360.440000	0.090098
360.614000	0.131166
360.788000	0.016467
360.962000	-0.200771
361.135000	-0.115577
361.309000	-0.215362
361.483000	-0.326689
361.657000	-0.256195
361.830000	-0.230310
362.004000	-0.032612
362.178000	-0.358850
362.352000	-0.254400
362.526000	-0.049290
362.699000	-0.045228
362.873000	-0.392351
363.047000	-0.375655
363.221000	-0.327566
363.395000	-0.223370
363.568000	-0.245089
363.742000	-0.229884
363.916000	-0.224697
364.090000	-0.318062
364.263000	-0.293652
364.437000	-0.353842
364.611000	-0.080242
364.785000	-0.083763
364.959000	-0.235254
365.132000	-0.186779
365.306000	-0.206767
365.480000	-0.043836
365.656000	-0.153150
365.831000	-0.181240
366.007000	-0.195638
366.183000	-0.145401
366.358000	-0.308002
366.534000	-0.182767
366.710000	-0.332323
366.886000	-0.260648
367.061000	-0.063290
367.237000	0.001327
367.413000	-0.182592
367.588000	-0.363224
367.764000	-0.324326
367.940000	-0.340447
368.115000	-0.281504
368.291000	-0.275175
368.467000	-0.192255
368.643000	0.138311
368.818000	-0.227832
368.994000	-0.324168
369.170000	-0.282438
369.345000	-0.295051
369.521000	-0.331126
369.697000	-0.175983
369.872000	-0.247510
370.048000	-0.336603
370.224000	-0.265364
370.399000	-0.445793
370.575000	-0.384578
370.751000	-0.518390
370.927000	-0.455875
371.102000	-0.433129
371.278000	-0.386560
371.454000	-0.269949
371.629000	0.038538
371.805000	-0.042675
371.981000	0.057732
372.156000	0.199483
372.332000	0.067521
372.508000	-0.031102
372.683000	-0.097827
372.859000	-0.177529
373.035000	-0.186481
373.211000	0.220582
373.386000	0.008464
373.562000	-0.371037
373.738000	-0.501100
373.913000	-0.632490
374.089000	-0.461289
374.265000	-0.057251
374.440000	-0.064860
374.616000	0.032124
374.792000	-0.191645
374.968000	0.194683
375.143000	-0.026409
375.319000	-0.310798
375.495000	-0.410776
375.670000	-0.231755
375.846000	-0.126644
376.022000	-0.269110
376.197000	-0.173574
376.373000	-0.370280
376.549000	-0.407877
376.724000	-0.509041
376.900000	-0.384299
377.076000	-0.209283
377.252000	0.039505
377.427000	0.173025
377.603000	-0.176982
377.779000	-0.213646
377.954000	-0.377095
378.130000	-0.232371
378.306000	-0.166553
378.481000	-0.199767
378.657000	-0.257205
378.833000	-0.321863
379.009000	-0.187548
379.184000	-0.032627
379.360000	-0.131162
379.536000	-0.127720
379.711000	-0.212721
379.887000	-0.316206
380.063000	-0.339781
380.238000	-0.385113
380.414000	-0.072808
380.590000	-0.298140
380.765000	-0.322099
380.941000	-0.114965
381.117000	-0.100897
381.293000	-0.178264
381.468000	-0.349487
381.644000	-0.285718
381.820000	-0.130066
381.995000	0.041831
382.171000	0.243133
382.347000	0.175133
382.522000	-0.281423
382.698000	0.014737
382.874000	0.081602
383.050000	-0.283687
383.225000	0.093215
383.401000	0.271121
383.577000	-0.172975
383.752000	-0.276217
383.928000	-0.186981
384.104000	-0.073578
384.279000	-0.171365
384.455000	-0.159898
384.631000	-0.215426
384.806000	-0.406058
384.982000	-0.155890
385.158000	-0.237641
385.334000	-0.148233
385.509000	-0.195229
385.685000	-0.483193
385.861000	-0.274600
386.036000	-0.365956
386.212000	-0.561114
386.388000	-0.345320
386.563000	-0.276782
386.739000	-0.359374
386.915000	-0.583781
387.090000	-0.250324
387.266000	-0.058591
387.442000	0.007982
387.618000	-0.095468
387.793000	-0.380275
387.969000	-0.506478
388.145000	-0.378991
388.320000	-0.325060
388.496000	-0.345353
388.672000	-0.567838
388.847000	-0.154116
389.023000	-0.146295
389.199000	-0.406183
389.375000	-0.175526
389.550000	-0.319357
389.726000	-0.209390
389.902000	-0.378747
390.077000	-0.192000
390.253000	-0.138514
390.429000	-0.236020
390.604000	-0.153639
390.780000	-0.126817
390.956000	-0.274514
391.131000	-0.284742
391.307000	0.003443
391.483000	-0.211689
391.659000	-0.318142
391.834000	-0.093271
392.010000	-0.262693
392.186000	-0.361795
392.361000	-0.297984
392.537000	-0.376147
392.713000	0.115572
392.888000	0.283212
393.064000	0.007659
393.240000	-0.240643
393.416000	-0.363595
393.591000	-0.432073
393.767000	-0.508030
393.943000	-0.383816
394.118000	-0.000837
394.294000	0.199917
394.470000	-0.059237
394.645000	0.028277
394.821000	0.266843
394.997000	-0.110976
395.172000	-0.153803
395.348000	-0.274242
395.524000	-0.541671
395.700000	-0.359507
395.875000	-0.144466
396.051000	-0.168870
396.227000	-0.236199
396.402000	-0.270663
396.578000	-0.176807
396.754000	-0.352930
396.929000	-0.300106
397.105000	0.017603
397.281000	-0.115405
397.457000	-0.223201
397.632000	-0.202681
397.808000	-0.449795
397.984000	-0.607994
398.159000	-0.521295
398.335000	-0.316486
398.511000	0.159781
398.686000	-0.051580
398.862000	-0.305372
399.038000	-0.407186
399.213000	-0.185014
399.389000	-0.486892
399.565000	-0.175786
399.741000	0.085585
399.916000	0.005274
400.092000	0.209120
400.268000	-0.188981
400.443000	-0.302653
400.619000	0.082093
400.795000	-0.008930
400.970000	-0.215078
401.146000	-0.302368
401.322000	0.009310
401.497000	0.413809
401.673000	0.072373
401.849000	-0.241930
402.025000	-0.045195
402.200000	-0.187934
402.376000	-0.254224
402.552000	0.170856
402.727000	-0.045027
402.903000	-0.363870
403.079000	-0.261745
403.254000	0.039376
403.430000	0.035122
403.606000	-0.038778
403.782000	-0.098620
403.957000	-0.361166
404.133000	-0.502603
404.309000	-0.331889
404.484000	-0.082776
404.660000	-0.103057
404.841000	-0.231519
405.023000	0.017159
405.204000	-0.042825
405.385000	-0.396839
405.566000	-0.399057
405.748000	-0.249534
405.929000	-0.015039
406.110000	-0.042988
406.292000	-0.157904
406.473000	-0.114434
406.654000	-0.346432
406.835000	-0.142985
407.017000	-0.200302
407.198000	-0.154666
407.379000	-0.126697
407.560000	-0.180378
407.742000	-0.191721
407.923000	-0.168787
408.104000	-0.327213
408.286000	-0.165659
408.467000	-0.113732
408.648000	-0.336686
408.829000	-0.355307
409.011000	-0.189179
409.192000	-0.386999
409.373000	-0.163816
409.555000	-0.050505
409.736000	-0.095593
409.917000	-0.212911
410.098000	-0.158331
410.280000	-0.059433
410.461000	-0.092504
410.642000	-0.075078
410.823000	0.169255
411.005000	0.104892
411.186000	-0.161360
411.367000	-0.259495
411.549000	-0.257350
411.730000	-0.039943
411.911000	0.046130
412.092000	-0.135249
412.274000	-0.174848
412.455000	-0.041477
412.636000	0.006984
412.818000	-0.203656
412.999000	-0.288640
413.180000	-0.209292
413.361000	-0.196506
413.543000	-0.222442
413.724000	-0.304546
413.905000	-0.296865
414.087000	-0.283999
414.268000	-0.254208
414.449000	-0.273775
414.630000	-0.357252
414.812000	-0.478941
414.993000	-0.099365
415.174000	0.050465
415.355000	-0.111480
415.537000	-0.363746
415.718000	-0.067345
415.899000	-0.177155
416.081000	-0.293541
416.262000	-0.089352
416.443000	-0.188785
416.624000	-0.167713
416.806000	-0.102250
416.987000	0.086120
417.168000	-0.012015
417.350000	-0.203451
417.531000	-0.232077
417.712000	-0.170499
417.893000	0.032819
418.075000	0.079140
418.256000	-0.146070
418.437000	-0.015713
418.618000	0.099905
418.800000	0.174187
418.981000	-0.054441
419.162000	-0.026493
419.344000	0.184448
419.525000	0.116554
419.706000	-0.017521
419.887000	0.107148
420.069000	0.304011
420.250000	0.175745
420.431000	0.056710
420.613000	0.027186
420.794000	-0.133201
420.975000	0.187581
421.156000	-0.000740
421.338000	-0.043251
421.519000	0.006653
421.700000	-0.115654
421.882000	-0.052628
422.063000	0.165631
422.244000	0.650348
422.425000	0.429436
422.607000	0.001119
422.788000	0.006685
422.969000	-0.035775
423.150000	-0.056125
423.332000	-0.105667
423.513000	0.071285
423.694000	0.170052
423.876000	0.206553
424.057000	0.252863
424.238000	0.357864
424.419000	0.375677
424.601000	0.215391
424.782000	0.235649
424.963000	0.444128
425.145000	0.354644
425.326000	0.389982
425.507000	0.450137
425.688000	0.359942
425.870000	0.231385
426.051000	0.124676
426.232000	0.198432
426.413000	0.232990
426.595000	0.240996
426.776000	0.244574
426.957000	0.316021
427.139000	0.449338
427.320000	0.469852
427.501000	0.566541
427.682000	0.547115
427.864000	0.624497
428.045000	0.798854
428.226000	0.697449
428.408000	0.356391
428.589000	0.528980
428.770000	0.599850
428.951000	0.464160
429.133000	0.350577
429.314000	0.553964
429.495000	0.579585
429.677000	0.590823
429.858000	0.604337
430.039000	0.739461
430.220000	0.881394
430.402000	0.974101
430.583000	0.727961
430.764000	0.776382
430.945000	0.970715
431.127000	1.096887
431.308000	0.908548
431.489000	1.096077
431.671000	1.206850
431.852000	1.082287
432.033000	1.027794
432.214000	1.149324
432.396000	1.245952
432.577000	1.125211
432.758000	0.962499
432.940000	1.096070
433.121000	1.280240
433.302000	1.346628
433.483000	1.483127
433.665000	1.681035
433.846000	1.610189
434.027000	1.427627
434.208000	1.413196
434.390000	1.449025
434.571000	1.853217
434.752000	2.352809
434.934000	2.204753
435.115000	2.142506
435.296000	2.330759
435.477000	2.192403
435.659000	1.963588
435.840000	2.082483
436.026000	2.141392
436.211000	2.024854
436.397000	1.789670
436.582000	1.949016
436.768000	2.228961
436.953000	2.184024
437.139000	2.276852
437.325000	2.622512
437.510000	2.575301
437.696000	2.776086
437.881000	2.818343
438.067000	2.503364
438.252000	2.690860
438.438000	2.709569
438.624000	2.750915
438.809000	2.878247
438.995000	3.055998
439.180000	3.072120
439.366000	3.113160
439.551000	3.166775
439.737000	3.272283
439.923000	3.415799
440.108000	3.321428
440.294000	3.454970
440.479000	3.712258
440.665000	3.900702
440.850000	3.825781
441.036000	3.886219
441.222000	3.976381
441.407000	3.974499
441.593000	4.125282
441.778000	4.314795
441.964000	4.491457
442.149000	4.270271
442.335000	4.337957
442.521000	4.504676
442.706000	4.809975
442.892000	4.838938
443.077000	4.861724
443.263000	5.052758
443.448000	5.060989
443.634000	5.142872
443.820000	5.602898
444.005000	5.516641
444.191000	5.375528
444.376000	5.557041
444.562000	5.972641
444.747000	6.032887
444.933000	6.062335
445.119000	6.094368
445.304000	6.102272
445.490000	6.439802
445.675000	6.579437
445.861000	6.481268
446.046000	6.637065
446.232000	6.845676
446.418000	7.015585
446.603000	7.107557
446.789000	7.281995
446.974000	7.494654
447.160000	7.432572
447.345000	7.530149
447.531000	7.617179
447.717000	8.040559
447.902000	8.221586
448.088000	8.401321
448.273000	8.412047
448.459000	8.495894
448.644000	8.521032
448.830000	8.710069
449.016000	8.763099
449.201000	8.961401
449.387000	9.275288
449.572000	9.554629
449.758000	9.671782
449.943000	9.687185
450.129000	9.678542
450.315000	9.899740
450.500000	10.032879
450.686000	10.362394
450.871000	10.454542
451.057000	10.788551
451.243000	10.884859
451.428000	11.057345
451.614000	11.237440
451.799000	11.329884
451.985000	11.692998
452.170000	11.839010
452.356000	11.813247
452.542000	12.003482
452.727000	12.266648
452.913000	12.340263
453.098000	12.761278
453.284000	13.023161
453.469000	12.914456
453.655000	13.149276
453.841000	13.147405
454.026000	13.066476
454.212000	13.201586
454.397000	13.376602
454.583000	13.438254
454.768000	13.408744
454.954000	13.680295
455.140000	13.829060
455.325000	13.701621
455.511000	13.701365
455.696000	13.828510
455.882000	13.985111
456.067000	14.315943
456.253000	14.208318
456.439000	14.144177
456.624000	14.145558
456.810000	14.077364
456.995000	14.165828
457.181000	14.048383
457.366000	14.249524
457.552000	14.236799
457.738000	14.295571
457.923000	14.293264
458.109000	14.610691
458.294000	14.443098
458.480000	14.372096
458.665000	14.156833
458.851000	13.892619
459.037000	13.589773
459.222000	13.655865
459.408000	13.594122
459.593000	13.572200
459.779000	13.555780
459.964000	13.614253
460.150000	13.718286
460.336000	13.516122
460.521000	13.099694
460.707000	12.800699
460.892000	12.579312
461.078000	12.729649
461.263000	12.592475
461.449000	12.295986
461.635000	12.156201
461.820000	11.992148
462.006000	11.831550
462.191000	11.655348
462.377000	11.346118
462.562000	11.559353
462.748000	11.538850
462.934000	10.926455
463.119000	10.571088
463.305000	10.604865
463.490000	10.287566
463.676000	10.194309
463.861000	10.012132
464.047000	9.763166
464.233000	9.639617
464.418000	9.407763
464.604000	9.213880
464.789000	9.307366
464.975000	9.162562
465.160000	8.840337
465.346000	8.676695
465.532000	8.448142
465.717000	8.296018
465.903000	8.311583
466.088000	8.153221
466.274000	7.774080
466.459000	7.651320
466.645000	7.942997
466.831000	7.730686
467.016000	7.552965
467.202000	7.296711
467.387000	7.055261
467.573000	6.809639
467.758000	6.964632
467.944000	6.750958
468.130000	6.558621
468.315000	6.593418
468.501000	6.620892
468.686000	6.426846
468.872000	6.334383
469.057000	6.270550
469.243000	6.024754
469.429000	5.915677
469.614000	5.721036
469.800000	5.547779
469.985000	5.661228
470.171000	5.627487
470.356000	5.377113
470.542000	5.403380
470.728000	5.300390
470.913000	5.251626
471.099000	5.323549
471.284000	5.102348
471.470000	4.968748
471.655000	4.987837
471.841000	4.877830
472.027000	4.641995
472.212000	4.802696
472.398000	4.819869
472.583000	4.594488
472.769000	4.535472
472.954000	4.534036
473.140000	4.320028
473.326000	4.167168
473.511000	4.397946
473.697000	4.362501
473.882000	4.131545
474.068000	4.006961
474.253000	3.898585
474.439000	3.932888
474.625000	3.901852
474.810000	3.840066
474.996000	3.726356
475.181000	3.539167
475.367000	3.667421
475.552000	3.854461
475.738000	3.398755
475.924000	3.344656
476.109000	3.433079
476.295000	3.269305
476.480000	3.175739
476.666000	3.104992
476.851000	3.122968
477.037000	3.078707
477.223000	2.922026
477.408000	2.816118
477.594000	2.701237
477.779000	2.767221
477.965000	2.752723
478.151000	2.611567
478.336000	2.694185
478.522000	2.597909
478.707000	2.478328
478.893000	2.482047
479.078000	2.271036
479.264000	2.242001
479.450000	2.276765
479.635000	2.339905
479.821000	2.243791
480.006000	2.243498
480.192000	2.146960
480.377000	2.136098
480.563000	2.112842
480.749000	1.892570
480.934000	1.870801
481.120000	1.973536
481.305000	1.986246
481.491000	1.963340
481.676000	1.976235
481.862000	1.878900
482.048000	1.689992
482.233000	1.741416
482.419000	1.679124
482.604000	1.559535
482.790000	1.548286
482.975000	1.549719
483.161000	1.666145
483.347000	1.617094
483.532000	1.527453
483.718000	1.261711
483.903000	1.322803
484.089000	1.368925
484.274000	1.213436
484.460000	1.301854
484.646000	1.314649
484.831000	1.182993
485.017000	1.221470
485.202000	1.234591
485.388000	1.475032
485.573000	1.430130
485.759000	1.192359
485.945000	1.306309
486.130000	1.151026
486.316000	1.126212
486.501000	1.208602
486.687000	1.008450
486.872000	0.931032
487.058000	1.095418
487.244000	1.083491
487.429000	0.893214
487.615000	1.035849
487.800000	1.102710
487.986000	0.966347
488.171000	1.063404
488.357000	0.990322
488.543000	0.970099
488.728000	1.010583
488.914000	0.889269
489.099000	0.777919
489.285000	0.756600
489.470000	0.939728
489.656000	0.957010
489.842000	0.888645
490.027000	0.968291
490.213000	0.793961
490.398000	0.505177
490.584000	0.750592
490.769000	0.751963
490.955000	0.791792
491.141000	0.751746
491.326000	0.710951
491.512000	0.868658
491.697000	0.790744
491.883000	0.621047
492.068000	0.549026
492.254000	0.585436
492.440000	0.664080
492.625000	0.552117
492.811000	0.508992
492.996000	0.611143
493.182000	0.584914
493.367000	0.394480
493.553000	0.313398
493.739000	0.442638
493.924000	0.578414
494.110000	0.529388
494.295000	0.416201
494.481000	0.505548
494.666000	0.492437
494.852000	0.626128
495.038000	0.462459
495.223000	0.332780
495.409000	0.386974
495.594000	0.351351
495.780000	0.382587
495.965000	0.311904
496.151000	0.515106
496.337000	0.545401
496.522000	0.306034
496.708000	0.415502
496.893000	0.541219
497.079000	0.365061
497.264000	0.295114
497.450000	0.324538
497.636000	0.451512
497.821000	0.277438
498.007000	0.468972
498.192000	0.494745
498.378000	0.328630
498.563000	0.252750
498.749000	0.283700
498.935000	0.296595
499.120000	0.376955
499.306000	0.229745
499.491000	0.157440
499.677000	0.263557
499.862000	0.329830
500.048000	0.351761
500.234000	0.265683
500.419000	0.219495
500.605000	0.367842
500.790000	0.294107
500.976000	0.127660
501.161000	0.044856
501.347000	0.215727
501.533000	0.290670
501.718000	0.191707
501.904000	0.161377
502.089000	0.251406
502.275000	0.322931
502.460000	0.175383
502.646000	0.223618
502.832000	0.277136
503.017000	0.250943
503.203000	0.061082
503.388000	0.003491
503.574000	0.184277
503.759000	0.239121
503.945000	0.267693
504.131000	0.163083
504.316000	0.113391
504.502000	0.141592
504.687000	0.108360
504.873000	-0.009954
505.058000	-0.027438
505.244000	-0.065082
505.430000	-0.026136
505.615000	0.079046
505.801000	0.137298
505.986000	0.007531
506.172000	0.076164
506.358000	0.115450
506.543000	0.092472
506.729000	0.261127
506.914000	0.202224
507.100000	0.284298
507.285000	0.080977
507.471000	-0.004614
507.657000	0.222004
507.842000	0.084831
508.028000	-0.069700
508.213000	-0.053561
508.399000	0.014440
508.584000	0.172631
508.770000	0.066154
508.956000	-0.011443
509.141000	0.018510
509.327000	0.112654
509.512000	0.044286
509.698000	0.034829
509.883000	0.104507
510.069000	0.040493
510.255000	0.080200
510.440000	0.102224
510.626000	-0.011504
510.811000	-0.036209
510.997000	0.070787
511.182000	0.287197
511.368000	0.180516
511.554000	-0.170740
511.739000	-0.086961
511.925000	0.158659
512.110000	0.124230
512.296000	0.208393
512.481000	0.223242
512.667000	0.134145
512.853000	-0.081656
513.038000	-0.003304
513.224000	-0.028090
513.409000	-0.116202
513.595000	-0.007447
513.780000	-0.160435
513.966000	-0.109174
514.152000	-0.102312
514.337000	-0.142249
514.523000	-0.081725
514.708000	0.017353
514.894000	0.064357
515.079000	-0.076211
515.265000	-0.101320
515.451000	-0.053029
515.636000	-0.134406
515.822000	-0.028186
516.007000	-0.141504
516.193000	0.017395
516.378000	0.105929
516.564000	-0.017123
516.750000	0.009117
516.935000	0.080988
517.121000	0.096172
517.306000	0.176476
517.492000	0.132418
517.677000	-0.119539
517.863000	-0.116794
518.049000	-0.008859
518.234000	-0.090461
518.420000	0.077002
518.605000	0.250031
518.791000	0.175183
518.976000	0.017505
519.162000	-0.100397
519.348000	0.020250
519.533000	0.025761
519.719000	0.226811
519.904000	0.104929
520.090000	0.050696
520.275000	0.228145
520.461000	0.177211
520.647000	-0.039435
520.832000	-0.226110
521.018000	-0.100541
521.203000	-0.035157
521.389000	-0.213557
521.574000	-0.143163
521.760000	0.025787
521.946000	0.014740
522.131000	-0.102158
522.317000	-0.088104
522.502000	-0.115848
522.688000	0.009172
522.873000	-0.026985
523.059000	-0.091035
523.245000	-0.089559
523.430000	-0.173219
523.616000	-0.123057
523.801000	-0.201278
523.987000	-0.130423
524.172000	-0.006143
524.358000	0.012013
524.544000	-0.054945
524.729000	0.063423
524.915000	0.131890
525.100000	-0.029824
525.286000	0.003629
525.471000	-0.004759
525.657000	0.028862
525.843000	-0.157667
526.028000	-0.027232
526.214000	-0.072124
526.399000	-0.184913
526.585000	-0.237029
526.770000	-0.249667
526.956000	-0.131777
527.142000	-0.202284
527.327000	-0.028810
527.513000	-0.109444
527.698000	-0.160528
527.884000	-0.114228
528.069000	-0.159370
528.255000	-0.047420
528.441000	-0.128498
528.626000	-0.100377
528.812000	0.140472
528.997000	-0.009136
529.183000	-0.116152
529.368000	-0.036412
529.554000	-0.059506
529.740000	-0.061115
529.925000	-0.118797
530.111000	-0.104495
530.296000	-0.023705
530.482000	0.051584
530.667000	-0.016525
530.853000	0.060495
531.039000	-0.028273
531.224000	-0.002051
531.410000	0.088765
531.595000	-0.028443
531.781000	0.022875
531.967000	-0.086114
532.152000	0.054137
532.338000	-0.039127
532.523000	-0.195118
532.709000	-0.212233
532.894000	-0.070993
533.080000	-0.047079
533.266000	-0.234674
533.451000	-0.264161
533.637000	-0.172852
533.822000	0.049453
534.008000	-0.121857
534.193000	-0.117745
534.379000	-0.006718
534.565000	-0.104849
534.750000	-0.152933
534.936000	0.078147
535.121000	-0.081136
535.307000	-0.042499
535.492000	-0.033246
535.678000	-0.227240
535.864000	-0.079158
536.049000	0.203143
536.235000	-0.022772
536.420000	-0.056238
536.606000	-0.083483
536.791000	-0.181741
536.977000	-0.198262
537.163000	0.062258
537.348000	0.039910
537.534000	0.112038
537.719000	-0.064509
537.905000	-0.206116
538.090000	0.047195
538.276000	0.121881
538.462000	0.092373
538.647000	0.081070
538.833000	-0.057697
539.018000	0.053248
539.204000	0.006070
539.389000	-0.129712
539.575000	0.198128
539.761000	0.112025
539.946000	-0.158535
540.132000	-0.002411
540.317000	-0.099152
540.503000	0.016619
540.688000	0.055047
540.874000	0.298091
541.060000	0.449958
541.245000	0.288861
541.431000	0.099706
541.616000	0.184767
541.802000	0.179621
541.987000	0.275876
542.173000	0.237775
542.359000	0.107980
542.544000	0.234150
542.730000	0.131475
542.915000	0.090607
543.101000	0.250121
543.286000	0.072894
543.472000	-0.020596
543.658000	0.133064
543.843000	0.127955
544.029000	0.344734
544.214000	0.226841
544.400000	-0.111907
544.585000	0.017535
544.771000	0.134878
544.957000	0.383102
545.142000	0.478997
545.328000	0.535543
545.513000	0.545774
545.699000	0.481374
545.884000	0.277591
546.070000	0.249872
546.261000	0.196751
546.451000	0.001121
546.642000	-0.212305
546.833000	-0.070140
547.023000	-0.176998
547.214000	-0.136298
547.405000	0.067007
547.595000	0.285713
547.786000	0.203569
547.977000	-0.012141
548.167000	-0.177335
548.358000	-0.111371
548.549000	0.225093
548.740000	0.037515
548.930000	-0.272656
549.121000	-0.142865
549.312000	-0.149194
549.502000	-0.263556
549.693000	-0.112751
549.884000	0.020471
550.074000	0.101942
550.265000	-0.171731
550.456000	-0.049463
550.646000	0.040211
550.837000	-0.037882
551.028000	-0.125921
551.218000	-0.008601
551.409000	-0.114658
551.600000	-0.081351
551.790000	0.044584
551.981000	-0.219753
552.172000	-0.206329
552.362000	0.125640
552.553000	0.185844
552.744000	-0.000794
552.934000	-0.054414
553.125000	-0.132099
553.316000	-0.209821
553.506000	0.200679
553.697000	0.025228
553.888000	0.001199
554.079000	0.171226
554.269000	0.117335
554.460000	-0.207561
554.651000	-0.241935
554.841000	-0.391071
555.032000	-0.268770
555.223000	-0.152126
555.413000	0.009240
555.604000	-0.002824
555.795000	-0.095865
555.985000	-0.069716
556.176000	-0.136346
556.367000	-0.399242
556.557000	-0.250409
556.748000	-0.171602
556.939000	-0.222089
557.129000	-0.301008
557.320000	-0.094174
557.511000	-0.114257
557.701000	-0.130257
557.892000	-0.071888
558.083000	0.143215
558.273000	0.027593
558.464000	-0.252412
558.655000	-0.215704
558.845000	-0.114003
559.036000	-0.041264
559.227000	-0.104047
559.418000	0.029609
559.608000	0.098521
559.799000	-0.241744
559.990000	-0.312959
560.180000	-0.212543
560.371000	-0.368375
560.562000	-0.283119
560.752000	-0.057321
560.943000	-0.243123
561.134000	-0.461982
561.324000	-0.220051
561.515000	0.039351
561.706000	-0.159590
561.896000	-0.357795
562.087000	-0.259230
562.278000	-0.265136
562.468000	-0.397699
562.659000	-0.312652
562.850000	0.035206
563.040000	0.081214
563.231000	-0.413192
563.422000	-0.224274
563.612000	-0.274459
563.803000	-0.224113
563.994000	-0.276614
564.185000	-0.359353
564.375000	-0.105908
564.566000	-0.129550
564.757000	-0.169638
564.947000	-0.256734
565.138000	-0.121407
565.329000	-0.206016
565.519000	-0.369611
565.710000	-0.257449
565.901000	-0.081793
566.091000	0.078179
566.282000	-0.140635
566.473000	-0.142163
566.663000	-0.136114
566.854000	-0.332880
567.045000	-0.195624
567.235000	-0.115717
567.426000	-0.105938
567.617000	-0.076450
567.807000	-0.167720
567.998000	-0.155755
568.189000	-0.204136
568.379000	-0.143731
568.570000	-0.058647
568.761000	-0.083550
568.951000	-0.139157
569.142000	-0.237500
569.333000	-0.245194
569.524000	-0.355484
569.714000	-0.430224
569.905000	-0.498388
570.096000	-0.073481
570.286000	0.004969
570.477000	0.111680
570.668000	-0.105483
570.858000	-0.105477
571.049000	-0.199969
571.240000	-0.340536
571.430000	-0.165685
571.621000	-0.206655
571.812000	-0.049666
572.002000	-0.023369
572.193000	-0.220894
572.384000	-0.147451
572.574000	-0.094866
572.765000	-0.169847
572.956000	-0.195536
573.146000	0.001125
573.337000	-0.113071
573.528000	-0.157725
573.718000	-0.023112
573.909000	0.058815
574.100000	-0.026706
574.290000	-0.202245
574.481000	-0.174125
574.672000	-0.141084
574.863000	-0.020968
575.053000	-0.184315
575.244000	-0.101462
575.435000	-0.236761
575.625000	-0.235717
575.816000	-0.235425
576.007000	-0.139000
576.197000	-0.110063
576.388000	-0.078777
576.579000	0.041009
576.769000	-0.007975
576.960000	-0.288683
577.155000	-0.430564
577.350000	-0.164871
577.545000	-0.054735
577.740000	-0.199979
577.935000	0.205299
578.130000	0.119402
578.326000	-0.216986
578.521000	0.029656
578.716000	0.072199
578.911000	-0.226306
579.106000	-0.090961
579.301000	0.031051
579.496000	-0.129090
579.691000	-0.417164
579.886000	-0.205759
580.081000	-0.068948
580.276000	-0.053068
580.471000	-0.157780
580.666000	-0.323027
580.861000	-0.307237
581.057000	-0.277809
581.252000	-0.164563
581.447000	-0.193763
581.642000	-0.206285
581.837000	-0.186868
582.032000	-0.168987
582.227000	0.013109
582.422000	-0.007575
582.617000	-0.197780
582.812000	-0.301549
583.007000	-0.231335
583.202000	-0.287188
583.397000	-0.036368
583.592000	0.138430
583.788000	-0.129195
583.983000	-0.108799
584.178000	0.001012
584.373000	-0.207520
584.568000	-0.237293
584.763000	-0.276159
584.958000	-0.321491
585.153000	-0.222406
585.348000	-0.207175
585.543000	-0.032604
585.738000	-0.069545
585.933000	-0.313202
586.128000	-0.052742
586.324000	-0.042775
586.519000	-0.059573
586.714000	0.009431
586.909000	0.093807
587.104000	0.122897
587.299000	-0.046250
587.494000	-0.081586
587.689000	-0.113837
587.884000	-0.061664
588.079000	-0.136212
588.274000	-0.136463
588.469000	-0.109087
588.664000	-0.015944
588.859000	-0.022761
589.055000	-0.024488
589.250000	-0.077241
589.445000	-0.179539
589.640000	-0.205255
589.835000	0.045456
590.030000	0.141110
590.225000	0.161640
590.420000	-0.041749
590.615000	-0.153103
590.810000	-0.117009
591.005000	-0.057370
591.200000	-0.112381
591.395000	-0.203423
591.591000	-0.096734
591.786000	0.016452
591.981000	-0.115846
592.176000	-0.043746
592.371000	0.001034
592.566000	-0.024792
592.761000	0.176621
592.956000	0.120016
593.151000	0.180459
593.346000	0.058128
593.541000	0.068438
593.736000	0.046112
593.931000	-0.125563
594.126000	-0.044116
594.322000	0.032304
594.517000	-0.052788
594.712000	-0.219582
594.907000	-0.227347
595.102000	-0.074020
595.297000	0.072576
595.492000	0.114690
595.687000	-0.021723
595.882000	-0.102359
596.077000	0.011590
596.272000	0.174874
596.467000	0.250453
596.662000	0.095989
596.857000	0.087547
597.053000	0.126591
597.248000	0.145976
597.443000	0.197489
597.638000	0.134106
597.833000	-0.061080
598.028000	0.194356
598.223000	0.294236
598.418000	0.170164
598.613000	0.091834
598.808000	0.221925
599.003000	0.216815
599.198000	0.051059
599.393000	0.120648
599.589000	0.260565
599.784000	0.108525
599.979000	0.200152
600.174000	0.399504
600.369000	0.166365
600.564000	0.261923
600.759000	0.494562
600.954000	0.589024
601.149000	0.455565
601.344000	0.138289
601.539000	0.315581
601.734000	0.242965
601.929000	0.051756
602.124000	0.145979
602.320000	0.405675
602.515000	0.672482
602.710000	0.630231
602.905000	0.288346
603.100000	0.260655
603.295000	0.352058
603.490000	0.464311
603.685000	0.504518
603.880000	0.528874
604.075000	0.402053
604.270000	0.413913
604.465000	0.490599
604.660000	0.291001
604.856000	0.433795
605.051000	0.673437
605.246000	0.665542
605.441000	0.432754
605.636000	0.390619
605.831000	0.571727
606.026000	0.538370
606.221000	0.513312
606.416000	0.676313
606.611000	0.889359
606.806000	0.901462
607.001000	1.074426
607.196000	0.875723
607.391000	0.678818
607.587000	0.921399
607.782000	0.935622
607.977000	0.727676
608.172000	1.124112
608.367000	1.144546
608.562000	0.930731
608.757000	0.976990
608.952000	0.964333
609.147000	1.401261
609.342000	1.315670
609.537000	1.129146
609.732000	1.194638
609.927000	1.164223
610.122000	1.293588
610.318000	1.641723
610.513000	1.792651
610.708000	1.665022
610.903000	1.762770
611.098000	1.885233
611.293000	1.846171
611.488000	1.844537
611.683000	1.902527
611.878000	1.823784
612.073000	1.846972
612.268000	1.873571
612.463000	1.978233
612.658000	1.915709
612.854000	1.862743
613.049000	1.886384
613.244000	2.087130
613.439000	2.139297
613.634000	1.852853
613.829000	2.013623
614.024000	1.941913
614.219000	1.933983
614.414000	2.298742
614.609000	2.123981
614.804000	1.978893
614.999000	2.055589
615.194000	2.187630
615.389000	2.284377
615.585000	2.148011
615.780000	2.388761
615.975000	2.391597
616.170000	2.468681
616.365000	2.767137
616.560000	2.901453
616.755000	2.822881
616.950000	2.748335
617.145000	2.933656
617.340000	2.868332
617.535000	2.564636
617.730000	2.915073
617.925000	2.867096
618.120000	2.830893
618.316000	3.206969
618.511000	3.172724
618.706000	3.048277
618.901000	3.284453
619.096000	3.399529
619.291000	3.380790
619.486000	3.527907
619.681000	3.293262
619.876000	3.293824
620.071000	3.514439
620.266000	3.824566
620.461000	3.996399
620.656000	3.999865
620.852000	4.072392
621.047000	3.954745
621.242000	3.868127
621.437000	4.357612
621.632000	4.535398
621.827000	4.394969
622.022000	4.213534
622.217000	4.450505
622.412000	4.677121
622.607000	4.798723
622.802000	4.601299
622.997000	4.635576
623.192000	4.908720
623.387000	4.976643
623.583000	4.832157
623.778000	5.279249
623.973000	5.323486
624.168000	5.368777
624.363000	5.533847
624.558000	5.674038
624.753000	5.417651
624.948000	5.783020
625.143000	5.828304
625.338000	5.801072
625.533000	5.858447
625.728000	6.093545
625.923000	6.336702
626.119000	6.264578
626.314000	6.117498
626.509000	6.219316
626.704000	6.375159
626.899000	6.516037
627.094000	6.610608
627.289000	6.719866
627.484000	6.840455
627.679000	6.922077
627.874000	7.054912
628.069000	7.429035
628.264000	7.420213
628.459000	7.412361
628.654000	7.385363
628.850000	7.288561
629.045000	7.565622
629.240000	7.611332
629.435000	7.631845
629.630000	7.799368
629.825000	7.856551
630.020000	8.013475
630.215000	7.840537
630.410000	8.021548
630.605000	8.045262
630.800000	8.116917
630.995000	8.223212
631.190000	8.540147
631.385000	8.418198
631.581000	8.259933
631.776000	8.250100
631.971000	8.010317
632.166000	8.042502
632.361000	7.865609
632.556000	7.837487
632.751000	7.976200
632.946000	7.784697
633.141000	7.633387
633.336000	7.584004
633.531000	7.578817
633.726000	7.365347
633.921000	7.099233
634.117000	6.892183
634.312000	6.640778
634.507000	6.548492
634.702000	6.471652
634.897000	6.407700
635.092000	6.346791
635.287000	6.261599
635.482000	5.978699
635.677000	5.982861
635.872000	5.916479
636.067000	5.757672
636.262000	5.341654
636.457000	4.836284
636.652000	4.740340
636.848000	4.584382
637.043000	4.492793
637.238000	4.309943
637.433000	3.980308
637.628000	3.928069
637.823000	4.067649
638.018000	4.016408
638.213000	3.681504
638.408000	3.461543
638.603000	3.231395
638.798000	3.066924
638.993000	3.036170
639.188000	2.943279
639.383000	2.789840
639.579000	3.103026
639.774000	2.817657
639.969000	2.481015
640.164000	2.318543
640.359000	2.302599
640.554000	2.427942
640.749000	2.330449
640.944000	2.305346
641.139000	2.177926
641.334000	1.931319
641.529000	1.405238
641.724000	1.493070
641.919000	1.647799
642.115000	1.862145
642.310000	1.768451
642.505000	1.602152
642.700000	1.492846
642.895000	1.300428
643.090000	1.450039
643.285000	1.635434
643.480000	1.465282
643.675000	1.417149
643.870000	1.726192
644.065000	1.453334
644.260000	1.011591
644.455000	1.096241
644.650000	0.989917
644.846000	0.989940
645.041000	0.766784
645.236000	0.561998
645.431000	0.567563
645.626000	0.381793
645.821000	0.614528
646.016000	0.723574
646.211000	1.102211
646.406000	0.924866
646.601000	0.833138
646.796000	0.629857
646.991000	0.321670
647.186000	0.446927
647.381000	0.674898
647.577000	0.701933
647.772000	0.733160
647.967000	0.580753
648.162000	0.528291
648.357000	0.488051
648.552000	0.670864
648.747000	0.620657
648.942000	0.599356
649.137000	0.499617
649.332000	0.270234
649.527000	0.289483
649.722000	0.528924
649.917000	0.617839
650.113000	0.309274
650.308000	0.117963
650.503000	0.139733
650.698000	0.346935
650.893000	0.293619
651.088000	0.408316
651.283000	0.387233
651.478000	0.028322
651.673000	0.269767
651.868000	0.155439
652.063000	0.368798
652.258000	0.469560
652.453000	0.622301
652.648000	0.253570
652.844000	0.190071
653.039000	0.232101
653.234000	-0.192415
653.429000	-0.327985
653.624000	-0.106627
653.819000	0.154135
654.014000	0.124613
654.209000	-0.062717
654.404000	0.070545
654.599000	-0.070230
654.794000	-0.084921
654.989000	0.214417
655.184000	0.167570
655.380000	-0.149601
655.575000	-0.179344
655.770000	-0.085355
655.965000	0.053608
656.160000	-0.075488
656.355000	0.080935
656.550000	0.051300
656.745000	0.076254
656.940000	-0.045890
657.135000	0.026430
657.330000	0.023946
657.525000	-0.185718
657.720000	0.001500
657.915000	0.101430
658.111000	-0.010997
658.306000	0.294142
658.501000	0.039109
658.696000	-0.203985
658.891000	0.104296
659.086000	0.029071
659.281000	0.021588
659.476000	-0.244840
659.671000	-0.636927
659.866000	-0.295217
660.061000	0.001510
660.256000	0.059412
660.451000	0.024189
660.646000	-0.152391
660.842000	-0.043951
661.037000	-0.248646
661.232000	-0.276839
661.427000	-0.092038
661.622000	-0.206200
661.817000	-0.325171
662.012000	-0.087336
662.207000	-0.252534
662.402000	-0.365236
662.597000	-0.128456
662.792000	-0.451727
662.987000	-0.464078
663.182000	-0.171848
663.378000	-0.174537
663.573000	-0.479364
663.768000	-0.498792
663.963000	-0.320455
664.158000	-0.330375
664.353000	0.229696
664.548000	0.452569
664.743000	-0.001026
664.938000	-0.357604
665.133000	-0.342749
665.328000	0.094177
665.523000	0.042798
665.718000	-0.168633
665.913000	-0.205039
666.109000	-0.166676
666.304000	0.024838
666.499000	-0.122560
666.694000	0.011928
666.889000	0.317868
667.084000	-0.071279
667.279000	-0.185632
667.474000	-0.136310
667.669000	-0.058256
667.864000	-0.120816
668.059000	-0.149685
668.254000	-0.105487
668.449000	-0.301658
668.644000	-0.210359
668.840000	0.108700
669.035000	-0.192066
669.230000	-0.560303
669.425000	-0.148184
669.620000	-0.282159
669.815000	-0.306911
670.010000	-0.288187
670.205000	-0.151332
670.400000	-0.148431
670.595000	-0.101367
670.790000	-0.268031
670.985000	-0.244497
671.180000	0.033377
671.376000	-0.374904
671.571000	-0.439509
671.766000	-0.328664
671.961000	-0.440695
672.156000	-0.465253
672.351000	-0.219873
672.546000	-0.305903
672.741000	-0.198509
672.936000	-0.150680
673.131000	0.408797
673.326000	0.068770
673.521000	-0.417818
673.716000	-0.538796
673.911000	-0.662945
674.107000	-0.081946
674.302000	0.193137
674.497000	-0.033487
674.692000	-0.355102
674.887000	-0.437663
675.082000	-0.283526
675.277000	0.056023
675.472000	-0.052829
675.667000	-0.287459
675.862000	-0.377653
676.057000	-0.246840
676.252000	-0.184427
676.447000	-0.286371
676.643000	-0.124431
676.838000	0.141692
677.033000	-0.100094
677.228000	0.131220
677.423000	0.078890
677.618000	-0.319181
677.813000	-0.506963
678.008000	-0.253465
678.203000	-0.142690
678.398000	-0.382127
678.593000	-0.193076
678.788000	-0.098805
678.983000	-0.349576
679.178000	-0.193563
679.374000	-0.280432
679.569000	-0.247446
679.764000	-0.315559
679.959000	-0.485167
680.154000	-0.488080
680.349000	-0.684663
680.544000	-0.616048
680.739000	-0.396240
680.934000	-0.487042
681.129000	-0.502570
681.324000	-0.534391
681.519000	-0.288525
681.714000	-0.297166
681.909000	-0.413365
682.105000	-0.585586
682.300000	-0.195763
682.495000	-0.029750
682.690000	0.016056
682.885000	-0.113053
683.080000	-0.334920
683.275000	-0.332210
683.470000	0.007494
683.665000	0.238599
683.860000	0.461816
684.055000	0.215985
684.250000	-0.290966
684.445000	-0.394667
684.641000	0.048176
684.836000	-0.207559
685.031000	-0.260823
685.226000	-0.281626
685.421000	0.036914
685.616000	-0.256051
685.811000	-0.409372
686.006000	-0.150932
686.201000	-0.204059
686.396000	-0.556080
686.591000	-0.427066
686.786000	-0.033769
686.981000	-0.173010
687.176000	-0.039794
687.372000	-0.221194
687.567000	0.079119
687.762000	-0.045932
687.957000	-0.141369
688.152000	-0.306055
688.347000	-0.240734
688.542000	-0.556505
688.737000	-0.892294
688.932000	-0.884794
689.127000	-0.425558
689.322000	-0.103825
689.517000	-0.330119
689.712000	-0.473613
689.908000	-0.398310
690.103000	-0.462863
690.298000	-0.311057
690.493000	-0.369738
690.688000	-0.653787
690.883000	-0.417366
691.078000	0.069176
691.273000	0.087551
691.468000	-0.265006
691.663000	-0.222910
691.858000	-0.047423
692.053000	-0.112085
692.248000	-0.038222
692.443000	-0.096784
692.639000	-0.205089
692.834000	0.004954
693.029000	0.577996
693.224000	0.478037
693.419000	-0.244224
693.614000	-0.422584
693.809000	-0.491606
694.004000	-0.598925
694.199000	-0.558101
694.394000	-0.208428
694.589000	-0.541734
694.784000	-0.573739
694.979000	-0.208868
695.174000	-0.300851
695.370000	0.105781
695.565000	-0.086472
695.760000	-0.339719
695.955000	0.090684
696.150000	0.097056
696.345000	-0.380179
696.540000	-0.176707
696.740000	-0.304080
696.940000	-0.132060
697.140000	0.005130
697.340000	-0.226114
697.539000	-0.120187
697.739000	-0.216680
697.939000	-0.146054
698.139000	-0.529435
698.339000	-0.867600
698.539000	-0.608652
698.739000	-0.594091
698.939000	-0.466548
699.138000	-0.542273
699.338000	0.157840
699.538000	0.210604
699.738000	-0.243264
699.938000	-0.387455
700.138000	-0.443837
700.338000	-0.487855
700.538000	-0.245193
700.737000	-0.185811
700.937000	-0.737099
701.137000	-0.702044
701.337000	-0.024471
701.537000	-0.067609
701.737000	-0.319083
701.937000	-0.386156
702.137000	-0.273375
702.337000	-0.433348
702.536000	-0.660673
702.736000	-0.604790
702.936000	-0.672461
703.136000	-0.198919
703.336000	-0.188830
703.536000	-0.357221
703.736000	-0.721766
703.936000	-0.673239
704.135000	-0.652755
704.335000	-0.159605
704.535000	-0.453786
704.735000	-0.680700
704.935000	-0.112647
705.135000	-0.160643
705.335000	-0.426413
705.535000	-0.174897
705.735000	-0.130639
705.934000	-0.120372
706.134000	-0.355114
706.334000	-0.475290
706.534000	-0.551091
706.734000	-0.493437
706.934000	-0.575417
707.134000	-0.623416
707.334000	-0.340457
707.533000	-0.282752
707.733000	-0.337410
707.933000	-0.475044
708.133000	-0.131644
708.333000	-0.156451
708.533000	-0.391507
708.733000	-0.011737
708.933000	-0.288145
709.132000	-0.382171
709.332000	-0.452168
709.532000	-0.578274
709.732000	-0.344931
709.932000	-0.731864
710.132000	-0.703595
710.332000	-0.936075
710.532000	-0.363091
710.732000	-0.071143
710.931000	-0.332946
711.131000	-0.442861
711.331000	-0.274897
711.531000	-0.436929
711.731000	-0.406339
711.931000	-0.347054
712.131000	-0.410048
712.331000	-0.223413
712.530000	-0.275936
712.730000	-0.506038
712.930000	-0.333013
713.130000	-0.323559
713.330000	-0.536625
713.530000	-0.396301
713.730000	0.311776
713.930000	-0.090372
714.129000	-0.605643
714.329000	-0.718122
714.529000	-0.368408
714.729000	0.041415
714.929000	-0.072836
715.129000	-0.519995
715.329000	-0.427407
715.529000	-0.393215
715.729000	0.267630
715.928000	0.023737
716.128000	-0.289341
716.328000	-0.192745
716.528000	-0.362803
716.728000	-0.290601
716.928000	-0.420763
717.128000	-0.291279
717.328000	-0.305721
717.527000	-0.443905
717.727000	-0.389885
717.927000	-0.343795
718.127000	-0.402295
718.327000	-0.826491
718.527000	-0.778643
718.727000	-0.322848
718.927000	-0.422219
719.127000	-0.725140
719.326000	-0.531953
719.526000	-0.133416
719.726000	-0.287961
719.926000	-0.816233
720.126000	-0.731558
720.326000	-0.429136
720.526000	-0.580400
720.726000	-0.489689
720.925000	-0.160620
721.125000	-0.636688
721.325000	-0.331685
721.525000	-0.351084
721.725000	-0.525941
721.925000	-0.527422
722.125000	-0.523735
722.325000	0.043267
722.524000	-0.323243
722.724000	-0.754422
722.924000	-0.825543
723.124000	-0.586549
723.324000	-0.215489
723.524000	-0.196897
723.724000	-0.723610
723.924000	-0.582776
724.124000	-0.345104
724.323000	-0.012854
724.523000	-0.129941
724.723000	0.157476
724.923000	-0.092393
725.123000	-0.175884
725.323000	-0.058479
725.523000	-0.283063
725.723000	-0.491800
725.922000	-0.477135
726.122000	-0.325305
726.322000	-0.448405
726.522000	-0.567363
726.722000	0.223782
726.922000	-0.138909
727.122000	-0.304060
727.322000	0.055982
727.521000	-0.178351
727.721000	-0.413429
727.921000	-0.321058
728.121000	-0.367161
728.321000	-0.768835
728.521000	-0.562060
728.721000	-0.319068
728.921000	-0.005419
729.121000	0.711854
729.320000	0.142063
729.520000	-0.420792
729.720000	-0.557575
729.920000	-0.462561
730.120000	-0.367862
730.320000	-0.341419
730.520000	-0.630751
730.720000	-0.522970
730.919000	-0.456239
731.119000	-0.131154
731.319000	-0.615147
731.519000	-0.764503
731.719000	-0.359715
731.919000	-0.604046
732.119000	-1.066525
732.319000	-0.923477
732.519000	-0.342035
732.718000	-0.643743
732.918000	-0.612558
733.118000	-0.411246
733.318000	-0.061426
733.518000	-0.444375
733.718000	-1.032192
733.918000	-0.956854
734.118000	-0.712795
734.317000	-0.346616
734.517000	-0.678651
734.717000	-0.581283
734.917000	-0.013718
735.117000	-0.187405
735.317000	-0.211585
735.517000	0.277753
735.717000	0.493799
735.916000	-0.480876
736.116000	-0.679297
736.316000	-0.442593
736.516000	-0.315923
736.716000	-0.373256
736.916000	-0.825823
737.116000	-0.619705
737.316000	-0.079922
737.516000	-0.113103
737.715000	-0.208177
737.915000	-0.795067
738.115000	-0.772718
738.315000	-0.420663
738.515000	-0.739958
738.715000	-0.531526
738.915000	0.019217
739.115000	-0.491273
739.314000	-0.541000
739.514000	-0.005874
739.714000	0.065621
739.914000	-0.162000
740.114000	-0.390542
740.314000	-0.175113
740.514000	0.269427
740.714000	-0.499022
740.913000	-0.972256
741.113000	-0.739286
741.313000	-0.381155
741.513000	-0.459187
741.713000	-0.366107
741.913000	-0.230006
742.113000	-0.371579
742.313000	-0.936963
742.513000	-0.597041
742.712000	-0.469139
742.912000	-0.759305
743.112000	-0.705404
743.312000	-1.028539
743.512000	-0.607876
743.712000	-0.421717
743.912000	-1.035838
744.112000	-1.119807
744.311000	-1.105248
744.511000	-0.622772
744.711000	-0.293176
744.911000	-0.762288
745.111000	-0.758807
745.311000	-0.170328
745.511000	-0.508137
745.711000	-0.659778
745.911000	-0.335660
746.110000	-0.799020
746.310000	-0.884377
746.510000	-0.726002
746.710000	-0.289218
746.910000	-0.091697
747.110000	-0.632108
747.310000	-1.066180
747.510000	-0.726170
747.709000	-0.332569
747.909000	-0.419730
748.109000	-0.115770
748.309000	-0.348934
748.509000	-0.674261
748.709000	-0.832864
748.909000	-0.603112
749.109000	-0.541206
749.308000	0.067373
749.508000	-0.423323
749.708000	-0.622689
749.908000	-0.191853
750.108000	-0.178480
750.308000	-0.953348
750.508000	-0.207617
750.708000	-0.703514
750.908000	-1.108180
751.107000	-0.354544
751.307000	0.181289
751.507000	-0.374491
751.707000	-0.312778
751.907000	-0.374934
752.107000	-0.309870
752.307000	-0.776806
752.507000	-0.669212
752.706000	-0.668757
752.906000	0.289265
753.106000	-0.490486
753.306000	-1.159831
753.506000	-0.165729
753.706000	-0.470181
753.906000	-0.315755
754.106000	-0.132464
754.305000	-0.166521
754.505000	-0.079596
754.705000	-0.363066
754.905000	-0.476009
755.105000	-0.246678
755.305000	-1.060624
755.505000	-0.827742
755.705000	-0.267728
755.905000	-0.401813
756.104000	-0.970322
756.304000	-1.280065
756.504000	-1.600401
756.704000	-0.426130
756.904000	-0.216434
757.104000	-0.554764
757.304000	-0.530371
757.504000	-0.092279
757.703000	-0.408159
757.903000	-0.007037
758.103000	0.133974
758.303000	-0.355576
758.503000	-0.528694
758.703000	-0.595915
758.903000	-0.814544
759.103000	-0.383956
759.303000	-0.344865
759.502000	-0.474275
759.702000	-0.140586
759.902000	-0.466200
760.102000	-0.663755
760.302000	-0.588188
760.502000	-0.172723
760.702000	-0.193687
760.902000	-0.469155
761.101000	-0.761967
761.301000	-1.081345
761.501000	-0.727039
761.701000	-0.885280
761.901000	-0.721787
762.101000	-0.317971
762.301000	-0.475910
762.501000	-0.829312
762.700000	-0.907235
762.900000	-0.849314
763.100000	-0.685950
763.300000	-0.401329
763.500000	-0.598860
763.703000	-0.740233
763.905000	-1.036214
764.108000	-0.344494
764.311000	-0.558540
764.513000	-0.682413
764.716000	-0.448538
764.919000	-0.492221
765.121000	-0.998832
765.324000	-1.045063
765.527000	-0.969152
765.729000	-0.855044
765.932000	0.041353
766.135000	-0.018495
766.337000	-0.502877
766.540000	-0.641035
766.743000	-0.227735
766.945000	-0.732361
767.148000	-1.207224
767.351000	-1.080518
767.553000	-0.167875
767.756000	-0.632413
767.958000	-1.080077
768.161000	-0.649494
768.364000	-0.885099
768.566000	-1.181973
768.769000	-0.532658
768.972000	-0.197625
769.174000	-0.802988
769.377000	-1.394933
769.580000	-1.431672
769.782000	-0.480182
769.985000	-0.899128
770.188000	-1.924661
770.390000	-1.144372
770.593000	0.377955
770.796000	-0.007951
770.998000	-0.536432
771.201000	-0.866931
771.404000	-0.532058
771.606000	-0.734341
771.809000	-0.585451
772.012000	-0.649591
772.214000	-1.452698
772.417000	-1.452854
772.620000	-0.339514
772.822000	-0.641665
773.025000	-0.912551
773.228000	-0.948886
773.430000	-0.962031
773.633000	-0.616311
773.836000	-0.489546
774.038000	-0.351663
774.241000	-0.433057
774.444000	-0.720475
774.646000	0.143512
774.849000	-0.201137
775.052000	-0.516786
775.254000	-0.470951
775.457000	-0.698761
775.659000	-0.542045
775.862000	-0.753411
776.065000	-0.648859
776.267000	-0.049454
776.470000	0.222357
776.673000	-0.546809
776.875000	-0.037985
777.078000	-0.180144
777.281000	-0.983845
777.483000	-0.378322
777.686000	-0.211635
777.889000	-0.223832
778.091000	0.075668
778.294000	-1.153799
778.497000	-1.089232
778.699000	-0.867755
778.902000	-0.924988
779.105000	-0.623535
779.307000	0.202908
779.510000	-0.746870
779.713000	-0.415597
779.915000	-0.733963
780.118000	0.363680
780.321000	0.522974
780.523000	-0.492346
780.726000	-0.878505
780.929000	-0.982297
781.131000	-1.032885
781.334000	-1.467662
781.537000	-1.477942
781.739000	-0.465909
781.942000	-0.991939
782.145000	-1.469495
782.347000	-1.314921
782.550000	-1.097923
782.753000	-1.257645
782.955000	-1.060695
783.158000	-1.010008
783.361000	-0.623560
783.563000	-0.548371
783.766000	-0.776252
783.968000	0.904709
784.171000	0.712657
784.374000	-0.527895
784.576000	-0.641638
784.779000	-0.248923
784.982000	0.200794
785.184000	-0.436988
785.387000	-0.200912
785.590000	0.438700
785.792000	0.318397
785.995000	-0.009001
786.198000	-0.163566
786.400000	-0.500529
786.603000	-0.748161
786.806000	-0.732924
787.008000	-0.383874
787.211000	-0.307430
787.414000	-1.004843
787.616000	-0.779998
787.819000	-0.709808
788.022000	-1.550047
788.224000	-0.817705
788.427000	-1.252244
788.630000	-0.755039
788.832000	-0.497100
789.035000	-1.108467
789.238000	-1.880466
789.440000	-1.519002
789.643000	-0.168576
789.846000	-0.721483
790.048000	-0.342934
790.251000	-0.216221
790.454000	-0.535474
790.656000	0.104281
790.859000	-0.686098
791.062000	-1.090024
791.264000	-0.230702
791.467000	-1.107203
791.669000	-1.668626
791.872000	-0.775443
792.075000	-1.174008
792.277000	-0.869475
792.480000	-0.601864
792.683000	-1.089088
792.885000	-1.260052
793.088000	-1.189638
793.291000	-1.527694
793.493000	-1.509927
793.696000	-0.571584
793.899000	-0.167687
794.101000	-0.560713
794.304000	-0.769099
794.507000	-0.438359
794.709000	-0.342508
794.912000	-0.810291
795.115000	-1.181506
795.317000	-0.874381
795.520000	-0.598075
795.723000	-0.755179
795.925000	-1.291455
796.128000	-1.592203
796.331000	-1.068250
796.533000	-1.565874
796.736000	-0.948225
796.939000	-0.722490
797.141000	-0.810123
797.344000	-0.110122
797.547000	-0.031477
797.749000	-0.303760
797.952000	-0.766134
798.155000	-1.389536
798.357000	-1.629201
798.560000	-1.267687
798.763000	-0.583814
798.965000	-0.786386
799.168000	-0.781405
799.371000	-0.585645
799.573000	-0.916479
799.776000	-1.591236
799.978000	-1.493933
800.181000	-0.746189
800.384000	0.719336
800.586000	-0.025118
800.789000	-1.494598
800.992000	-1.441930
801.194000	-1.459906
801.397000	-1.560072
801.600000	-1.424046
801.802000	0.011922
802.005000	-0.167439
802.208000	-1.652192
802.410000	-0.677087
802.613000	-0.507048
802.816000	-0.741123
803.018000	-1.392550
803.221000	-1.236266
803.424000	0.163763
803.626000	-0.200466
803.829000	-0.521044
804.032000	0.355918
804.234000	1.035357
804.437000	-0.639535
804.640000	-0.861193
804.842000	-0.901560
805.045000	-1.299642
805.248000	-0.923204
805.450000	-0.899130
805.653000	-0.967017
805.856000	-0.981492
806.058000	0.105928
806.261000	-1.018055
806.464000	-1.214449
806.666000	-0.566701
806.869000	-0.783026
807.072000	-2.098346
807.274000	-2.422880
807.477000	-1.196569
807.679000	-0.683419
807.882000	-1.366808
808.085000	-1.144557
808.287000	-0.226901
808.490000	-1.340003
808.693000	-1.148697
808.895000	-0.692880
809.098000	-0.781472
809.301000	-0.695534
809.503000	-0.989614
809.706000	-0.052027
809.909000	0.216201
810.111000	0.021162
810.314000	-0.500892
810.517000	-1.035930
810.719000	-1.188956
810.922000	-1.046180
811.125000	-0.052442
811.327000	0.194487
811.530000	-0.375623
811.735000	-0.688980
811.940000	-1.145902
812.146000	-1.125780
812.351000	-0.427397
812.556000	-0.587264
812.761000	-1.183277
812.967000	-0.003362
813.172000	-0.078918
813.377000	-0.677093
813.582000	0.064275
813.788000	-0.412159
813.993000	-1.413454
814.198000	-0.641099
814.403000	-1.567015
814.609000	-0.584915
814.814000	-0.647682
815.019000	0.296669
815.224000	-0.114836
815.429000	-1.340600
815.635000	-0.868848
815.840000	-0.852464
816.045000	-0.804132
816.250000	-0.169105
816.456000	-1.356902
816.661000	-2.468363
816.866000	-1.999074
817.071000	-1.778179
817.277000	-2.346700
817.482000	-1.482730
817.687000	-0.640868
817.892000	-0.769123
818.097000	-0.316103
818.303000	0.300027
818.508000	0.762863
818.713000	7.472455
818.918000	3.781864
819.124000	0.184824
819.329000	-1.156904
819.534000	-1.160352
819.739000	-1.160448
819.945000	-1.238565
820.150000	-1.062964
820.355000	-0.799688
820.560000	-0.469031
820.766000	-0.589163
820.971000	-0.785788
821.176000	-2.189687
821.381000	-2.744387
821.586000	-1.622824
821.792000	-0.189404
821.997000	-0.765756
822.202000	-0.915346
822.407000	-1.459291
822.613000	-1.677408
822.818000	-0.959950
823.023000	-0.651384
823.228000	-1.014561
823.434000	-0.419094
823.639000	0.062432
823.844000	-0.847891
824.049000	0.129081
824.255000	0.129499
824.460000	-0.740440
824.665000	-1.143819
824.870000	-0.234538
825.075000	-0.427321
825.281000	-0.380342
825.486000	0.840937
825.691000	-1.530758
825.896000	-2.664094
826.102000	-1.066690
826.307000	-0.981320
826.512000	-1.289121
826.717000	-0.879778
826.923000	-0.971112
827.128000	-0.775427
827.333000	-1.636533
827.538000	-0.623492
827.744000	0.106171
827.949000	-1.183664
828.154000	-0.857216
828.359000	-0.004013
828.564000	-0.780422
828.770000	-1.006391
828.975000	0.107565
829.180000	-0.534431
829.385000	-1.941162
829.591000	-1.662660
829.796000	-0.991880
830.001000	-0.797906
830.206000	-1.462276
830.412000	-1.533100
830.617000	-1.422889
830.822000	-0.253943
831.027000	-1.001048
831.232000	-1.425013
831.438000	-1.424557
831.643000	-0.877385
831.848000	-1.122094
832.053000	-1.009928
832.259000	-1.064176
832.464000	-2.810338
832.669000	-2.564474
832.874000	-2.027797
833.080000	-1.854908
833.285000	-0.111432
833.490000	-0.497513
833.695000	-1.882276
833.901000	-1.316419
834.106000	-1.557351
834.311000	-1.281688
834.516000	-0.966567
834.721000	-1.521805
834.927000	-0.302527
835.132000	-0.535439
835.337000	1.070257
835.542000	-0.372248
835.748000	-2.117920
835.953000	-0.116085
836.158000	-0.306589
836.363000	-0.701020
836.569000	-0.253599
836.774000	-1.388172
836.979000	-1.753222
837.184000	-2.030660
837.390000	-1.874719
837.595000	-1.079365
837.800000	-0.921400
838.005000	-0.996226
838.210000	-1.008194
838.416000	-1.301602
838.621000	-1.316715
838.826000	-1.571201
839.031000	-1.287675
839.237000	-1.861342
839.442000	-2.346875
839.647000	-2.355122
839.852000	-1.857759
840.058000	-1.781554
840.263000	-1.837919
840.468000	-2.626198
840.673000	-1.565867
840.878000	-1.066367
841.084000	-1.564687
841.289000	-0.919040
841.494000	1.448737
841.699000	1.307692
841.905000	0.555647
842.110000	0.460640
842.315000	-1.883316
842.520000	-1.157800
842.726000	-1.443333
842.931000	-2.117792
843.136000	-1.130895
843.341000	-2.635165
843.547000	-1.597268
843.752000	-1.312655
843.957000	-1.900982
844.162000	-1.922620
844.367000	-1.496945
844.573000	-0.728839
844.778000	-0.359658
844.983000	-0.512881
845.188000	-0.413430
845.394000	-2.142472
845.599000	-1.893180
845.804000	-1.435683
846.009000	-0.537236
846.215000	-2.182369
846.420000	-2.057538
846.625000	-0.621633
846.830000	0.282257
847.036000	-1.134498
847.241000	-2.035988
847.446000	-0.176677
847.651000	-0.799716
847.856000	-1.969303
848.062000	-1.653547
848.267000	-0.005362
848.472000	-1.256263
848.677000	-2.729953
848.883000	-0.907173
849.088000	0.579183
849.293000	-0.892674
849.498000	-1.627667
849.704000	-0.442916
849.909000	-1.129348
850.114000	-2.335521
850.319000	-1.324225
850.524000	-1.276257
850.730000	-0.908450
850.935000	-1.121295
851.140000	0.078306
851.345000	-0.201330
851.551000	-0.300099
851.756000	-0.174825
851.961000	-1.489964
852.166000	-1.773610
852.372000	-1.140095
852.577000	-0.834180
852.782000	-1.545726
852.987000	0.080367
853.193000	-0.423448
853.398000	-0.798165
853.603000	-2.258336
853.808000	-2.678485
854.013000	-1.430634
854.219000	-0.369961
854.424000	1.339365
854.629000	1.298359
854.834000	-0.979532
855.040000	-0.777957
855.245000	-0.449825
855.450000	-2.897164
855.655000	-4.081909
855.861000	-3.675276
856.066000	-2.802901
856.271000	-2.822475
856.476000	-0.504778
856.682000	-1.386655
856.887000	-3.901651
857.092000	-2.527561
857.297000	0.070154
857.502000	-0.464537
857.708000	-1.445320
857.913000	-0.343552
858.118000	-0.702726
858.323000	-0.922127
858.529000	-1.075701
858.734000	-1.591520
858.939000	-1.112984
859.144000	-1.883147
859.350000	-2.837633
859.555000	-2.673895
859.760000	-0.605854
859.965000	0.309148
860.171000	-1.938944
860.376000	-0.976701
860.581000	-2.638088
860.786000	-4.811428
860.991000	-4.269380
861.197000	-3.044941
861.402000	-1.280156
861.607000	-1.877901
861.812000	-3.279406
862.018000	-3.405839
862.223000	-1.929373
862.428000	-0.678606
862.633000	0.190227
862.839000	-0.699673
863.044000	-2.036696
863.249000	-2.844302
863.454000	-0.887027
863.659000	-1.489532
863.865000	-2.233685
864.070000	-2.105239
864.275000	-2.680514
864.480000	-2.743458
864.686000	-4.262644
864.891000	-3.485587
865.096000	-1.114916
865.301000	-0.553377
865.507000	-0.487912
865.712000	-0.539416
865.917000	-1.130720
866.122000	-0.561696
866.328000	-3.720548
866.533000	-3.334657
866.738000	-0.303537
866.943000	-0.496473
867.148000	0.414881
867.354000	-2.186363
867.559000	-3.711158
867.764000	-1.966162
867.969000	-0.651551
868.175000	-2.308411
868.380000	-2.996781
868.585000	-3.359189
868.790000	-1.248305
868.996000	-1.654887
869.201000	-2.802888
869.406000	-4.182356
869.611000	-3.403202
869.817000	-2.706404
870.022000	1.859918
870.227000	-0.264258
870.432000	-2.589197
870.637000	-1.669025
870.843000	-2.830058
871.048000	-2.645636
871.253000	-0.100384
871.458000	-1.240618
871.664000	-3.561248
871.869000	-3.828170
872.074000	-2.511742
872.279000	-1.543484
872.485000	-2.297703
872.690000	-2.441832
872.895000	-2.220974
873.100000	-2.801658
873.306000	-3.007075
873.511000	-1.488682
873.716000	0.890481
873.921000	-1.780208
874.126000	-2.621890
874.332000	-1.859710
874.537000	-1.156190
874.742000	-0.580176
874.947000	-0.602455
875.153000	0.572100
875.358000	-0.990489
875.563000	-1.870971
875.768000	-4.594466
875.974000	-5.037515
876.179000	-1.444988
876.384000	-0.821585
876.589000	-2.429632
876.794000	-2.226958
877.000000	-3.051229
877.205000	-4.053566
877.410000	-0.957505
877.615000	-3.098389
877.821000	-5.640696
878.026000	-3.293757
878.231000	-3.563269
878.436000	-4.318920
878.642000	-3.321342
878.847000	-1.311320
879.052000	-0.407105
879.257000	-2.781373
879.463000	-3.442303
879.668000	-2.701248
879.873000	-0.860006
880.078000	-3.145431
880.283000	-4.828634
880.489000	-5.192705
880.694000	-4.548298
880.899000	-2.479898
881.104000	-0.814028
881.310000	0.861890
881.515000	-0.595673
881.720000	0.536088
881.925000	2.073166
882.131000	4.023860
882.336000	1.095420
882.541000	-3.347716
882.746000	-3.095807
882.952000	-3.650771
883.157000	-3.368597
883.362000	-3.553228
883.567000	-4.536715
883.772000	-4.328752
883.978000	-3.241014
884.183000	-1.697187
884.388000	-1.966320
884.593000	-4.107260
884.799000	0.242415
885.004000	-0.264393
885.209000	-1.749457
885.414000	-1.627847
885.620000	-4.713913
885.825000	-1.346457
886.030000	-2.116407
886.235000	-2.953844
886.440000	-2.099634
886.646000	-4.632635
886.851000	-4.536183
887.056000	-0.273908
887.261000	-1.284070
887.467000	-4.114159
887.672000	-1.687020
887.877000	-2.795094
888.082000	-5.410658
888.288000	-5.659971
888.493000	-7.680559
888.698000	-5.823086
888.903000	-2.241966
889.109000	-3.524278
889.314000	-0.505170
889.519000	-1.662695
889.724000	-0.602791
889.929000	-2.136966
890.135000	-2.365913
890.340000	-2.583450
890.545000	-4.030743
890.750000	-4.990736
890.956000	-3.475513
891.161000	-0.837532
891.366000	-3.580888
891.571000	-2.757505
891.777000	-2.230263
891.982000	-0.466485
892.187000	-1.283241
892.392000	-0.010160
892.598000	-0.240128
892.803000	-1.144249
893.008000	-3.666209
893.213000	-3.502458
893.418000	-3.113403
893.624000	-4.246532
893.829000	-6.380354
894.034000	-3.189161
894.239000	-1.633845
894.445000	-4.529688
894.650000	-4.788810
894.855000	-4.426761
895.060000	-4.051967
895.266000	-3.919392
895.471000	-5.058049
895.676000	-1.654776
895.881000	-1.535285
896.087000	-3.247728
896.292000	-4.534392
896.497000	0.124469
896.702000	-1.897286
896.907000	-3.411747
897.113000	1.154093
897.318000	0.693189
897.523000	-0.119456
897.728000	-2.790766
897.934000	-3.053429
898.139000	-2.625999
898.344000	-0.505938
898.549000	-1.283111
898.755000	-3.251088
898.960000	-4.162792
899.165000	-5.725715
899.370000	-1.606836
899.575000	1.195573
899.781000	-3.641935
899.986000	-3.473247
900.191000	-2.419043
900.396000	-3.017389
900.602000	-1.922866
900.807000	-2.080110
901.012000	-1.949068
901.217000	-0.562400
901.423000	-3.073931
901.628000	-4.272691
901.833000	0.396187
902.038000	-0.275964
902.244000	-4.315471
902.449000	-3.722440
902.654000	-4.208074
902.859000	-2.773083
903.064000	-0.101431
903.270000	0.287424
903.475000	-3.817281
903.680000	-6.567166
903.885000	-6.710028
904.091000	-5.319223
904.296000	-6.375559
904.501000	-5.606100
904.706000	-4.765492
904.912000	-0.105390
905.117000	-2.222462
905.322000	-5.284325
905.527000	-4.572669
905.733000	-3.763054
905.938000	-3.409202
906.143000	-3.895763
906.348000	-6.160499
906.553000	-1.681105
906.759000	-0.173135
906.964000	-2.332819
907.169000	-4.225319
907.374000	-6.931629
907.580000	-5.083396
907.785000	-3.914615
907.990000	25.848569
908.195000	16.077639
908.401000	-2.018503
908.606000	-8.682903
908.811000	-10.319164
909.016000	-3.131209
909.221000	-2.132197
909.427000	-3.057541
909.632000	-5.370381
909.837000	-4.480165
910.042000	-6.629453
910.248000	-8.636146
910.453000	-3.841305
910.658000	-4.326363
910.863000	-4.496969
911.069000	-5.778783
911.274000	-0.934794
911.479000	0.555778
911.684000	-7.168881
911.890000	-4.675283
912.095000	-4.501560
912.300000	-6.919797
912.506000	-6.091470
912.711000	-5.288416
912.917000	-2.800524
913.123000	-2.252693
913.328000	-3.189500
913.534000	-3.554045
913.740000	6.325106
913.946000	2.322513
914.151000	-5.328009
914.357000	-7.143095
914.563000	-2.430216
914.768000	-5.834201
914.974000	-7.548657
915.180000	-6.341387
915.385000	-4.808217
915.591000	-8.270921
915.797000	-3.210353
916.002000	0.341422
916.208000	-4.126054
916.414000	-7.487685
916.620000	-8.184397
916.825000	-3.751552
917.031000	-4.638746
917.237000	-10.105003
917.442000	-5.971832
917.648000	-6.635370
917.854000	-7.740262
918.059000	-1.753949
918.265000	-0.966769
918.471000	-4.169024
918.676000	-7.990645
918.882000	-9.310720
919.088000	-7.804174
919.294000	-13.323268
919.499000	-9.078139
919.705000	-1.744341
919.911000	-3.428085
920.116000	-2.459436
920.322000	-8.600816
920.528000	-6.621608
920.733000	-8.588970
920.939000	-10.013975
921.145000	-8.739032
921.350000	-6.812712
921.556000	-5.681330
921.762000	-7.079278
921.968000	-7.327906
922.173000	-8.066876
922.379000	-10.506248
922.585000	-6.047125
922.790000	-7.040953
922.996000	-7.378869
923.202000	-9.187036
923.407000	-10.349660
923.613000	-7.669239
923.819000	-3.931875
924.024000	-4.339655
924.230000	-3.255954
924.436000	-5.172479
924.642000	4.508386
924.847000	0.825499
925.053000	-6.279152
925.259000	-11.013430
925.464000	-4.225838
925.670000	-5.172959
925.876000	-8.671681
926.081000	-9.328553
926.287000	-5.219768
926.493000	-3.496268
926.698000	-4.905018
926.904000	-2.706004
927.110000	-5.371731
927.316000	-5.342220
927.521000	2.086993
927.727000	-4.193953
927.933000	-6.468651
928.138000	-5.795460
928.344000	-12.194925
928.550000	-7.128778
928.755000	-2.178676
928.961000	-7.858577
929.167000	-7.795438
929.372000	-0.301014
929.578000	-1.597688
929.784000	-7.786235
929.990000	-11.579380
930.195000	-7.100722
930.401000	-6.636030
930.607000	-5.383877
930.812000	-4.388778
931.018000	-7.270929
931.224000	-12.639893
931.429000	-9.067482
931.635000	-12.253803
931.841000	-12.193840
932.046000	-6.217856
932.252000	-1.777585
932.458000	4.795272
932.664000	-1.258584
932.869000	-7.682918
933.075000	-10.471177
933.281000	-9.295832
933.486000	-2.709256
933.692000	-6.187490
933.898000	-10.666703
934.103000	-3.197657
934.309000	-6.040614
934.515000	-5.065098
934.720000	-2.386214
934.926000	0.992399
935.132000	-0.435374
935.338000	-3.878306
935.543000	-11.746034
935.749000	-11.715397
935.955000	-12.688778
936.160000	-12.549590
936.366000	-2.837177
936.572000	-3.847662
936.777000	-2.652578
936.983000	0.645925
937.189000	-5.253336
937.394000	-10.694704
937.600000	-0.416209
937.806000	4.471898
938.012000	-5.551957
938.217000	2.351733
938.423000	-0.832178
938.629000	-7.794800
938.834000	-15.991402
939.040000	-15.761111
939.246000	-10.545650
939.451000	-13.506260
939.657000	-7.340627
939.863000	-11.532880
940.068000	-3.388508
940.274000	-8.087579
940.480000	-5.738375
940.686000	-4.771049
940.891000	-9.515000
941.097000	18.788770
941.303000	6.382119
941.508000	-7.037757
941.714000	-4.881916
941.920000	-16.986450
942.125000	-4.691768
942.331000	-3.310752
942.537000	1.551325
942.742000	1.661489
942.948000	-9.668241
943.154000	-12.956998
943.360000	-25.217198
943.565000	-11.594316
943.771000	3.363620
943.977000	5.175089
944.182000	-15.170967
944.388000	-17.947313
944.594000	-1.804998
944.799000	5.806840
945.005000	-4.033754
945.211000	1.719920
945.416000	-1.329688
945.622000	-14.464730
945.828000	-13.112459
946.034000	-3.822271
946.239000	-2.096514
946.445000	-8.539977
946.651000	-19.577848
946.856000	-18.315236
947.062000	-2.674977
947.268000	-1.775414
947.473000	-17.457460
947.679000	-20.862108
947.885000	-6.761945
948.090000	-1.602042
948.296000	11.805977
948.502000	-1.501416
948.708000	-11.821706
948.913000	-14.409885
949.119000	-1.957494
949.325000	-8.452370
949.530000	-22.518917
949.736000	-29.872307
949.942000	-19.392785
950.147000	-17.403728
950.353000	-16.622342
950.559000	-10.609716
950.764000	12.969926
950.970000	7.259417
951.176000	-10.472311
951.382000	-18.240418
951.587000	-5.405580
951.793000	1.753811
951.999000	2.061353
952.204000	-13.361916
952.410000	-26.995894
952.616000	-13.469899
952.821000	-8.129961
953.027000	-16.798574
953.233000	-19.359473
953.438000	-20.636579
953.644000	0.409374
953.850000	-6.986758
954.056000	-13.960380
954.261000	-10.344433
954.467000	-0.278354
954.673000	4.583225
954.878000	-8.059819
955.084000	-6.906984
955.290000	-21.995328
955.495000	-23.581778
955.701000	-18.847766
955.907000	0.190265
956.112000	-4.091122
956.318000	5.139150
956.524000	6.867552
956.730000	-10.584461
956.935000	-11.709711
957.141000	-14.887557
957.347000	-5.435495
957.552000	-12.522809
957.758000	-25.503378
957.964000	-32.314357
958.169000	2.186265
958.375000	0.323971
958.581000	-16.077355
958.786000	-25.073956
958.992000	-29.947254
959.198000	-10.163879
959.404000	-4.005200
959.609000	-12.045523
959.815000	-15.244987
960.021000	1.636595
960.226000	-8.176796
960.432000	-29.467535
960.638000	-18.548137
960.843000	-13.999710
961.049000	-15.511030
961.255000	-2.741426
961.460000	-15.890225
961.666000	-36.479013
961.872000	-22.389524
962.078000	-19.982141
962.283000	-31.020319
962.489000	-29.555787
962.695000	-17.584361
962.900000	-12.437543
963.106000	-10.884583
963.312000	-17.151574
963.517000	-20.569252
963.723000	-24.441525
963.929000	-1.357856
964.134000	5.709133
964.340000	-20.905238
964.546000	-20.665991
964.752000	-22.534118
964.957000	-28.395526
965.163000	-1.713670
965.369000	-4.934359
965.574000	-4.215995
965.780000	-9.609404
966.000000	-15.165637
966.220000	-15.411398
966.440000	-14.090165
966.661000	-0.376337
966.881000	-21.454252
967.101000	-40.763953
967.321000	-39.293911
967.541000	-12.971671
967.761000	-22.149151
967.981000	-16.495786
968.202000	-13.752036
968.422000	-0.728441
968.642000	-1.056290
968.862000	-5.459231
969.082000	-15.683197
969.302000	-6.905146
969.522000	-11.954584
969.743000	2.784492
969.963000	-15.498089
970.183000	-28.748738
970.403000	-27.710447
970.623000	-25.895644
970.843000	-0.247958
971.063000	-1.510709
971.284000	-24.137247
971.504000	-37.188893
971.724000	-12.755948
971.944000	-28.366752
972.164000	-39.884297
972.384000	-28.928802
972.604000	-42.475704
972.825000	-48.770688
973.045000	-33.758740
973.265000	21.683224
973.485000	11.975469
973.705000	-10.635034
973.925000	-17.741823
974.145000	-51.970529
974.365000	-17.561255
974.586000	-12.961905
974.806000	-36.924734
975.026000	-7.061068
975.246000	-15.544681
975.466000	-33.905960
975.686000	-15.812357
975.906000	-25.643840
976.127000	-52.429529
976.347000	-45.922857
976.567000	-8.622094
976.787000	-6.722014
977.007000	-24.158367
977.227000	-30.251447
977.447000	-32.551778
977.668000	-56.608900
977.888000	-39.605041
978.108000	-39.622227
978.328000	-24.755323
978.548000	5.130822
978.768000	10.776688
978.988000	-3.478975
979.209000	-20.779066
979.429000	-24.768755
979.649000	-11.681075
979.869000	-36.840419
980.089000	-51.564964
980.309000	-52.830922
980.529000	-58.356114
980.750000	-32.940446
980.970000	-48.132701
981.190000	-34.794651
981.410000	-33.396571
981.630000	-41.482057
981.850000	-24.457534
982.070000	-16.982577
982.291000	-53.299342
982.511000	-51.465980
982.731000	-14.780808
982.951000	-27.379717
983.171000	-36.359610
983.391000	-34.753479
983.611000	-2.920586
983.832000	-33.112062
984.052000	-59.456839
984.272000	-31.425681
984.492000	-20.505320
984.712000	-38.776650
984.932000	-61.447115
985.152000	-60.147155
985.373000	-46.875610
985.593000	-29.244570
985.813000	-39.460091
986.033000	-52.593745
986.253000	-3.646863
986.473000	11.133462
986.693000	-32.699516
986.914000	-46.025060
987.134000	0.196676
987.354000	-29.479522
987.574000	188.872143
987.794000	109.517459
988.014000	-46.887847
988.234000	-33.797285
988.455000	-13.243641
988.675000	-16.156988
988.895000	-23.349853
989.115000	-50.853576
989.335000	-36.398765
989.555000	-5.211146
989.775000	-47.670108
989.995000	-44.529905
990.216000	-34.389971
990.436000	-29.802395
990.656000	4.155657
990.876000	-36.288672
991.096000	-23.631059
991.316000	16.511787
991.536000	-26.672771
991.757000	-42.495842
991.977000	-89.865582
992.197000	-25.841602
992.417000	-36.710727
992.637000	-79.135655
992.857000	-83.018777
993.077000	-88.077492
993.298000	-48.222498
993.518000	-47.733256
993.738000	-94.372592
993.958000	-51.318978
994.178000	-57.249284
994.398000	-48.461719
994.618000	-97.225507
994.839000	-140.898736
995.059000	-44.334277
995.279000	16.524590
995.499000	-26.939547
995.719000	-14.981776
995.939000	-36.530288
996.159000	-32.884964
996.380000	-19.499018
996.600000	-77.572498
996.820000	-34.483907
997.040000	19.047828
997.260000	-50.458031
997.480000	-50.599424
997.700000	-109.349655
997.921000	-74.986940
998.141000	11.343828
998.361000	-17.714925
998.581000	-78.101759
998.801000	-106.078677
999.021000	-77.421672
999.241000	-42.920547
999.462000	-61.622971
999.682000	-119.808336
999.902000	-75.796515
1000.122000	-91.986691
1000.342000	-146.080678
1000.562000	-67.162997
1000.782000	-67.484522
1001.003000	-1092.965456
