Wavelength	Irradiance
(nm)	(mW/cm2/nm)

294.396000	0.000000
294.577000	0.000000
294.757000	0.000000
294.938000	-0.000000
295.118000	0.000000
295.299000	0.000000
295.479000	0.000000
295.660000	-0.000000
295.840000	-0.000000
296.021000	-0.000000
296.202000	-0.000000
296.382000	-0.000000
296.563000	-0.000000
296.743000	-0.000000
296.924000	0.000000
297.104000	0.000000
297.285000	-0.000000
297.465000	-0.000000
297.646000	-0.000000
297.826000	-0.000000
298.007000	0.000000
298.187000	0.000000
298.368000	-0.000000
298.548000	0.000000
298.729000	0.000000
298.909000	-0.000000
299.090000	-0.000000
299.270000	-0.000000
299.451000	-0.000000
299.631000	-0.000000
299.812000	-0.000000
299.992000	0.000000
300.173000	0.000000
300.353000	-0.000000
300.534000	0.000000
300.714000	0.000000
300.895000	0.000000
301.075000	-0.000000
301.256000	0.000000
301.436000	-0.000000
301.617000	-0.000000
301.797000	-0.000000
301.978000	0.000000
302.159000	0.000000
302.339000	0.000000
302.520000	-0.000000
302.700000	-0.000000
302.881000	0.000000
303.061000	0.000000
303.242000	0.000000
303.422000	0.000000
303.603000	-0.000000
303.783000	-0.000000
303.964000	0.000000
304.144000	-0.000000
304.325000	-0.000000
304.505000	-0.000000
304.686000	0.000000
304.866000	0.000000
305.047000	-0.000000
305.227000	-0.000000
305.408000	-0.000000
305.588000	-0.000000
305.769000	-0.000000
305.949000	-0.000000
306.130000	-0.000000
306.310000	-0.000000
306.491000	-0.000000
306.671000	0.000000
306.852000	-0.000000
307.032000	-0.000000
307.213000	-0.000000
307.393000	-0.000000
307.574000	0.000000
307.755000	0.000000
307.935000	0.000000
308.116000	0.000000
308.296000	-0.000000
308.477000	0.000000
308.657000	0.000000
308.838000	0.000000
309.018000	0.000000
309.199000	-0.000000
309.379000	-0.000000
309.560000	0.000000
309.740000	-0.000000
309.921000	0.000000
310.101000	0.000000
310.282000	-0.000000
310.462000	-0.000000
310.643000	-0.000000
310.823000	-0.000000
311.004000	-0.000000
311.184000	-0.000000
311.365000	0.000000
311.545000	0.000000
311.726000	0.000000
311.906000	0.000000
312.087000	0.000000
312.267000	-0.000000
312.448000	-0.000000
312.628000	-0.000000
312.809000	-0.000000
312.989000	-0.000000
313.170000	-0.000000
313.344000	-0.000000
313.518000	-0.000000
313.691000	-0.000000
313.865000	-0.000000
314.039000	-0.000000
314.213000	-0.000000
314.387000	-0.000000
314.560000	-0.000000
314.734000	-0.000000
314.908000	-0.000000
315.082000	-0.000000
315.255000	0.000000
315.429000	0.000000
315.603000	0.000000
315.777000	-0.000000
315.951000	0.000000
316.124000	-0.000000
316.298000	-0.000000
316.472000	-0.000000
316.646000	-0.000000
316.820000	-0.000000
316.993000	0.000000
317.167000	-0.000000
317.341000	-0.000000
317.515000	-0.000000
317.688000	-0.000000
317.862000	-0.000000
318.036000	-0.000000
318.210000	-0.000000
318.384000	-0.000000
318.557000	-0.000000
318.731000	-0.000000
318.905000	0.000000
319.079000	0.000000
319.253000	-0.000000
319.426000	0.000000
319.600000	0.000000
319.774000	-0.000000
319.948000	-0.000000
320.122000	0.000000
320.295000	0.000000
320.469000	-0.000000
320.643000	-0.000000
320.817000	-0.000000
320.990000	-0.000000
321.164000	-0.000000
321.338000	-0.000000
321.512000	-0.000000
321.686000	-0.000000
321.859000	-0.000000
322.033000	0.000000
322.207000	-0.000000
322.381000	-0.000000
322.555000	0.000000
322.728000	0.000000
322.902000	-0.000000
323.076000	-0.000000
323.250000	-0.000000
323.423000	-0.000000
323.597000	-0.000000
323.771000	-0.000000
323.945000	-0.000000
324.119000	-0.000000
324.292000	0.000000
324.466000	-0.000000
324.640000	0.000000
324.814000	0.000000
324.988000	-0.000000
325.161000	-0.000000
325.335000	-0.000000
325.509000	-0.000000
325.683000	-0.000000
325.856000	-0.000000
326.030000	-0.000000
326.204000	-0.000000
326.378000	-0.000000
326.552000	-0.000000
326.725000	-0.000000
326.899000	-0.000000
327.073000	-0.000000
327.247000	-0.000000
327.421000	0.000000
327.594000	0.000000
327.768000	-0.000000
327.942000	-0.000000
328.116000	0.000000
328.289000	0.000000
328.463000	0.000000
328.637000	0.000000
328.811000	-0.000000
328.985000	-0.000000
329.158000	-0.000000
329.332000	-0.000000
329.506000	0.000000
329.680000	-0.000000
329.854000	-0.000000
330.027000	0.000000
330.201000	0.000000
330.375000	0.000000
330.549000	0.000000
330.723000	-0.000000
330.896000	-0.000000
331.070000	-0.000000
331.244000	-0.000000
331.418000	-0.000000
331.591000	-0.000000
331.765000	-0.000000
331.939000	-0.000000
332.113000	-0.000000
332.287000	-0.000000
332.460000	0.000000
332.634000	0.000000
332.808000	-0.000000
332.982000	-0.000000
333.156000	-0.000000
333.329000	-0.000000
333.503000	-0.000000
333.677000	-0.000000
333.851000	-0.000000
334.024000	-0.000000
334.198000	-0.000000
334.372000	-0.000000
334.546000	-0.000000
334.720000	-0.000000
334.893000	-0.000000
335.067000	-0.000000
335.241000	-0.000000
335.415000	-0.000000
335.589000	-0.000000
335.762000	-0.000000
335.936000	-0.000000
336.110000	-0.000000
336.284000	-0.000000
336.458000	-0.000000
336.631000	-0.000000
336.805000	-0.000000
336.979000	-0.000000
337.153000	-0.000000
337.326000	-0.000000
337.500000	-0.000000
337.674000	-0.000000
337.848000	-0.000000
338.022000	-0.000000
338.195000	-0.000000
338.369000	-0.000000
338.543000	-0.000000
338.717000	-0.000000
338.891000	0.000000
339.064000	0.000000
339.238000	-0.000000
339.412000	-0.000000
339.586000	-0.000000
339.759000	-0.000000
339.933000	-0.000000
340.107000	0.000000
340.281000	-0.000000
340.455000	-0.000000
340.628000	-0.000000
340.802000	-0.000000
340.976000	-0.000000
341.150000	-0.000000
341.324000	-0.000000
341.497000	-0.000000
341.671000	-0.000000
341.845000	-0.000000
342.019000	-0.000000
342.192000	-0.000000
342.366000	-0.000000
342.540000	-0.000000
342.714000	-0.000000
342.888000	-0.000000
343.061000	0.000000
343.235000	-0.000000
343.409000	-0.000000
343.583000	-0.000000
343.757000	-0.000000
343.930000	-0.000000
344.104000	-0.000000
344.278000	0.000000
344.452000	0.000000
344.626000	-0.000000
344.799000	-0.000000
344.973000	-0.000000
345.147000	-0.000000
345.321000	-0.000000
345.494000	-0.000000
345.668000	0.000000
345.842000	0.000000
346.016000	-0.000000
346.190000	0.000000
346.363000	0.000000
346.537000	-0.000000
346.711000	-0.000000
346.885000	-0.000000
347.059000	-0.000000
347.232000	0.000000
347.406000	0.000000
347.580000	-0.000000
347.754000	-0.000000
347.927000	0.000000
348.101000	0.000000
348.275000	-0.000000
348.449000	-0.000000
348.623000	-0.000000
348.796000	0.000000
348.970000	0.000000
349.144000	-0.000000
349.318000	-0.000000
349.492000	-0.000000
349.665000	-0.000000
349.839000	-0.000000
350.013000	-0.000000
350.187000	-0.000000
350.361000	-0.000000
350.534000	-0.000000
350.708000	-0.000000
350.882000	-0.000000
351.056000	0.000000
351.229000	0.000000
351.403000	-0.000000
351.577000	-0.000000
351.751000	-0.000000
351.925000	-0.000000
352.098000	-0.000000
352.272000	-0.000000
352.446000	-0.000000
352.620000	-0.000000
352.794000	-0.000000
352.967000	-0.000000
353.141000	0.000000
353.315000	0.000000
353.489000	-0.000000
353.662000	-0.000000
353.836000	-0.000000
354.010000	-0.000000
354.184000	0.000000
354.358000	-0.000000
354.531000	-0.000000
354.705000	-0.000000
354.879000	-0.000000
355.053000	-0.000000
355.227000	0.000000
355.400000	-0.000000
355.574000	0.000000
355.748000	0.000000
355.922000	-0.000000
356.095000	-0.000000
356.269000	0.000000
356.443000	-0.000000
356.617000	-0.000000
356.791000	-0.000000
356.964000	-0.000000
357.138000	-0.000000
357.312000	-0.000000
357.486000	-0.000000
357.660000	-0.000000
357.833000	-0.000000
358.007000	-0.000000
358.181000	-0.000000
358.355000	-0.000000
358.529000	-0.000000
358.702000	-0.000000
358.876000	-0.000000
359.050000	-0.000000
359.224000	-0.000000
359.397000	0.000000
359.571000	0.000000
359.745000	-0.000000
359.919000	0.000000
360.093000	0.024625
360.266000	0.050002
360.440000	0.116770
360.614000	0.167116
360.788000	0.042668
360.962000	-0.133117
361.135000	-0.019869
361.309000	-0.165194
361.483000	-0.298034
361.657000	-0.254872
361.830000	-0.183593
362.004000	-0.032247
362.178000	-0.325700
362.352000	-0.221676
362.526000	-0.051613
362.699000	-0.020965
362.873000	-0.344127
363.047000	-0.372548
363.221000	-0.327876
363.395000	-0.171271
363.568000	-0.181764
363.742000	-0.180323
363.916000	-0.147580
364.090000	-0.307737
364.263000	-0.316972
364.437000	-0.359155
364.611000	-0.019774
364.785000	0.015524
364.959000	-0.208582
365.132000	-0.182166
365.306000	-0.176749
365.480000	-0.074958
365.656000	-0.212458
365.831000	-0.223136
366.007000	-0.163522
366.183000	-0.126837
366.358000	-0.278986
366.534000	-0.191232
366.710000	-0.316819
366.886000	-0.224410
367.061000	-0.023140
367.237000	0.121569
367.413000	-0.095395
367.588000	-0.314122
367.764000	-0.345626
367.940000	-0.380248
368.115000	-0.264256
368.291000	-0.293497
368.467000	-0.197039
368.643000	0.131239
368.818000	-0.251243
368.994000	-0.376850
369.170000	-0.272100
369.345000	-0.230270
369.521000	-0.216759
369.697000	-0.095032
369.872000	-0.193314
370.048000	-0.288721
370.224000	-0.187525
370.399000	-0.404000
370.575000	-0.345705
370.751000	-0.393085
370.927000	-0.288713
371.102000	-0.336786
371.278000	-0.346011
371.454000	-0.222390
371.629000	0.038190
371.805000	-0.024082
371.981000	0.068723
372.156000	0.261278
372.332000	0.074783
372.508000	0.049013
372.683000	0.011036
372.859000	-0.113589
373.035000	-0.169610
373.211000	0.291714
373.386000	0.074334
373.562000	-0.376854
373.738000	-0.432681
373.913000	-0.548943
374.089000	-0.405945
374.265000	-0.062687
374.440000	-0.010771
374.616000	0.044367
374.792000	-0.123052
374.968000	0.177462
375.143000	0.002973
375.319000	-0.216080
375.495000	-0.350919
375.670000	-0.225946
375.846000	-0.059481
376.022000	-0.246723
376.197000	-0.203864
376.373000	-0.358388
376.549000	-0.434512
376.724000	-0.469282
376.900000	-0.337859
377.076000	-0.189400
377.252000	0.073586
377.427000	0.187368
377.603000	-0.178468
377.779000	-0.162522
377.954000	-0.307225
378.130000	-0.164915
378.306000	-0.076507
378.481000	-0.179014
378.657000	-0.262038
378.833000	-0.300877
379.009000	-0.151093
379.184000	0.002908
379.360000	-0.036421
379.536000	-0.108056
379.711000	-0.176999
379.887000	-0.282899
380.063000	-0.292988
380.238000	-0.326690
380.414000	-0.083632
380.590000	-0.296212
380.765000	-0.313767
380.941000	-0.078022
381.117000	-0.061968
381.293000	-0.147186
381.468000	-0.276001
381.644000	-0.215216
381.820000	-0.090683
381.995000	0.031748
382.171000	0.208524
382.347000	0.155611
382.522000	-0.266799
382.698000	0.073202
382.874000	0.075694
383.050000	-0.324422
383.225000	0.055160
383.401000	0.228445
383.577000	-0.094827
383.752000	-0.243244
383.928000	-0.154820
384.104000	-0.071269
384.279000	-0.201251
384.455000	-0.128574
384.631000	-0.123601
384.806000	-0.336290
384.982000	-0.141829
385.158000	-0.234254
385.334000	-0.081851
385.509000	-0.107957
385.685000	-0.410625
385.861000	-0.216980
386.036000	-0.330150
386.212000	-0.520067
386.388000	-0.327366
386.563000	-0.229666
386.739000	-0.299220
386.915000	-0.593121
387.090000	-0.246576
387.266000	0.002848
387.442000	0.088210
387.618000	-0.045938
387.793000	-0.331059
387.969000	-0.462830
388.145000	-0.358317
388.320000	-0.339892
388.496000	-0.327874
388.672000	-0.538614
388.847000	-0.112121
389.023000	-0.058863
389.199000	-0.379569
389.375000	-0.180584
389.550000	-0.282850
389.726000	-0.156861
389.902000	-0.354959
390.077000	-0.210219
390.253000	-0.167972
390.429000	-0.245873
390.604000	-0.134689
390.780000	-0.014947
390.956000	-0.200858
391.131000	-0.303345
391.307000	0.022848
391.483000	-0.160381
391.659000	-0.344726
391.834000	-0.122606
392.010000	-0.252641
392.186000	-0.267945
392.361000	-0.170559
392.537000	-0.335597
392.713000	0.049637
392.888000	0.299499
393.064000	-0.019608
393.240000	-0.269609
393.416000	-0.376214
393.591000	-0.381410
393.767000	-0.484554
393.943000	-0.353269
394.118000	0.063719
394.294000	0.183223
394.470000	-0.009490
394.645000	0.099697
394.821000	0.346693
394.997000	-0.031277
395.172000	-0.132407
395.348000	-0.236579
395.524000	-0.474207
395.700000	-0.311163
395.875000	-0.107495
396.051000	-0.171910
396.227000	-0.226185
396.402000	-0.200749
396.578000	-0.086713
396.754000	-0.292839
396.929000	-0.265223
397.105000	0.024119
397.281000	-0.104799
397.457000	-0.261592
397.632000	-0.228218
397.808000	-0.431138
397.984000	-0.539364
398.159000	-0.452204
398.335000	-0.237365
398.511000	0.206570
398.686000	-0.028193
398.862000	-0.296262
399.038000	-0.358870
399.213000	-0.109560
399.389000	-0.352731
399.565000	-0.107704
399.741000	0.108053
399.916000	0.019169
400.092000	0.285185
400.268000	-0.097861
400.443000	-0.259740
400.619000	0.127622
400.795000	0.004972
400.970000	-0.217047
401.146000	-0.260116
401.322000	0.052186
401.497000	0.427326
401.673000	0.099852
401.849000	-0.247975
402.025000	-0.004472
402.200000	-0.114793
402.376000	-0.246145
402.552000	0.158099
402.727000	-0.006801
402.903000	-0.327396
403.079000	-0.247995
403.254000	0.054142
403.430000	0.070077
403.606000	-0.058067
403.782000	-0.160474
403.957000	-0.354792
404.133000	-0.461087
404.309000	-0.231527
404.484000	-0.016095
404.660000	-0.067602
404.841000	-0.201058
405.023000	0.035150
405.204000	-0.051130
405.385000	-0.346882
405.566000	-0.338318
405.748000	-0.167266
405.929000	0.002608
406.110000	-0.051324
406.292000	-0.178421
406.473000	-0.125366
406.654000	-0.311568
406.835000	-0.109575
407.017000	-0.144075
407.198000	-0.126357
407.379000	-0.132894
407.560000	-0.119495
407.742000	-0.196991
407.923000	-0.179419
408.104000	-0.299315
408.286000	-0.187475
408.467000	-0.092234
408.648000	-0.266427
408.829000	-0.369468
409.011000	-0.247314
409.192000	-0.345824
409.373000	-0.185320
409.555000	-0.129677
409.736000	-0.126503
409.917000	-0.189419
410.098000	-0.123835
410.280000	-0.063636
410.461000	-0.070354
410.642000	-0.084170
410.823000	0.116518
411.005000	0.093835
411.186000	-0.100295
411.367000	-0.237577
411.549000	-0.253400
411.730000	-0.022615
411.911000	0.116531
412.092000	-0.067982
412.274000	-0.144191
412.455000	-0.056304
412.636000	0.000226
412.818000	-0.195895
412.999000	-0.297564
413.180000	-0.240796
413.361000	-0.189691
413.543000	-0.199922
413.724000	-0.268945
413.905000	-0.302601
414.087000	-0.294243
414.268000	-0.235438
414.449000	-0.284880
414.630000	-0.377664
414.812000	-0.490704
414.993000	-0.097121
415.174000	0.068836
415.355000	-0.146762
415.537000	-0.394439
415.718000	-0.086337
415.899000	-0.174595
416.081000	-0.303898
416.262000	-0.063558
416.443000	-0.155534
416.624000	-0.159552
416.806000	-0.096266
416.987000	0.075135
417.168000	0.002409
417.350000	-0.183712
417.531000	-0.250079
417.712000	-0.213062
417.893000	0.015446
418.075000	0.110753
418.256000	-0.162807
418.437000	-0.034700
418.618000	0.117643
418.800000	0.130485
418.981000	-0.114283
419.162000	-0.021250
419.344000	0.214109
419.525000	0.082761
419.706000	-0.051973
419.887000	0.106559
420.069000	0.256037
420.250000	0.171441
420.431000	0.106161
420.613000	0.069733
420.794000	-0.141254
420.975000	0.224230
421.156000	0.073593
421.338000	0.000216
421.519000	0.006683
421.700000	-0.021407
421.882000	-0.008432
422.063000	0.192158
422.244000	0.656816
422.425000	0.403004
422.607000	0.006747
422.788000	-0.023614
422.969000	-0.109507
423.150000	-0.090249
423.332000	-0.109318
423.513000	0.107943
423.694000	0.173486
423.876000	0.259332
424.057000	0.287448
424.238000	0.329714
424.419000	0.330674
424.601000	0.154556
424.782000	0.191317
424.963000	0.428776
425.145000	0.309018
425.326000	0.363596
425.507000	0.433911
425.688000	0.349800
425.870000	0.173539
426.051000	0.056160
426.232000	0.122852
426.413000	0.145217
426.595000	0.224112
426.776000	0.239072
426.957000	0.279004
427.139000	0.368208
427.320000	0.426035
427.501000	0.484114
427.682000	0.462314
427.864000	0.576433
428.045000	0.794556
428.226000	0.693135
428.408000	0.330071
428.589000	0.523146
428.770000	0.578013
428.951000	0.441438
429.133000	0.262013
429.314000	0.475933
429.495000	0.474353
429.677000	0.531759
429.858000	0.588122
430.039000	0.702665
430.220000	0.861781
430.402000	0.921198
430.583000	0.654999
430.764000	0.693019
430.945000	0.872193
431.127000	0.991471
431.308000	0.830234
431.489000	1.013680
431.671000	1.148243
431.852000	1.038632
432.033000	0.938928
432.214000	1.070625
432.396000	1.148132
432.577000	0.976932
432.758000	0.845692
432.940000	0.936037
433.121000	1.108869
433.302000	1.198160
433.483000	1.400320
433.665000	1.493902
433.846000	1.430325
434.027000	1.354293
434.208000	1.293905
434.390000	1.271364
434.571000	1.599809
434.752000	2.036592
434.934000	1.925839
435.115000	1.832880
435.296000	1.954984
435.477000	1.785445
435.659000	1.563549
435.840000	1.741194
436.026000	1.783233
436.211000	1.730039
436.397000	1.496846
436.582000	1.688850
436.768000	1.975130
436.953000	1.925589
437.139000	2.059640
437.325000	2.423024
437.510000	2.396369
437.696000	2.545438
437.881000	2.557542
438.067000	2.252358
438.252000	2.358313
438.438000	2.344623
438.624000	2.404847
438.809000	2.582628
438.995000	2.715161
439.180000	2.690887
439.366000	2.686098
439.551000	2.728106
439.737000	2.841287
439.923000	2.951977
440.108000	2.942158
440.294000	3.083060
440.479000	3.290285
440.665000	3.356780
440.850000	3.369209
441.036000	3.441118
441.222000	3.494774
441.407000	3.387406
441.593000	3.574518
441.778000	3.821690
441.964000	3.964323
442.149000	3.682091
442.335000	3.779148
442.521000	3.988535
442.706000	4.227219
442.892000	4.216193
443.077000	4.193866
443.263000	4.440076
443.448000	4.446719
443.634000	4.381349
443.820000	4.830013
444.005000	4.792855
444.191000	4.579355
444.376000	4.710490
444.562000	5.179977
444.747000	5.295536
444.933000	5.280414
445.119000	5.228419
445.304000	5.243008
445.490000	5.492013
445.675000	5.575465
445.861000	5.573441
446.046000	5.686596
446.232000	5.848749
446.418000	6.008306
446.603000	6.153161
446.789000	6.256478
446.974000	6.316498
447.160000	6.213686
447.345000	6.431208
447.531000	6.458904
447.717000	6.829962
447.902000	7.086628
448.088000	7.218029
448.273000	7.195728
448.459000	7.199465
448.644000	7.249479
448.830000	7.309915
449.016000	7.385265
449.201000	7.628027
449.387000	7.887843
449.572000	8.002743
449.758000	8.043656
449.943000	8.136474
450.129000	8.201603
450.315000	8.323992
450.500000	8.507781
450.686000	8.716844
450.871000	8.699393
451.057000	8.942250
451.243000	9.082722
451.428000	9.264357
451.614000	9.359993
451.799000	9.380118
451.985000	9.750378
452.170000	9.957434
452.356000	9.886171
452.542000	9.973213
452.727000	10.153951
452.913000	10.201840
453.098000	10.565251
453.284000	10.740625
453.469000	10.683680
453.655000	11.036588
453.841000	10.951656
454.026000	10.732757
454.212000	10.919633
454.397000	11.074191
454.583000	11.026012
454.768000	10.967745
454.954000	11.276511
455.140000	11.353173
455.325000	11.256898
455.511000	11.206449
455.696000	11.321705
455.882000	11.544119
456.067000	11.748676
456.253000	11.559452
456.439000	11.400330
456.624000	11.427742
456.810000	11.502412
456.995000	11.525145
457.181000	11.422881
457.366000	11.600623
457.552000	11.492506
457.738000	11.609444
457.923000	11.729601
458.109000	11.875945
458.294000	11.687389
458.480000	11.664287
458.665000	11.535194
458.851000	11.297951
459.037000	11.033812
459.222000	11.085839
459.408000	11.020753
459.593000	10.971072
459.779000	11.016550
459.964000	11.067542
460.150000	11.157513
460.336000	11.035496
460.521000	10.632978
460.707000	10.338477
460.892000	10.109959
461.078000	10.238098
461.263000	10.209632
461.449000	9.929487
461.635000	9.852809
461.820000	9.777599
462.006000	9.673795
462.191000	9.521253
462.377000	9.163895
462.562000	9.425476
462.748000	9.463355
462.934000	8.919456
463.119000	8.551595
463.305000	8.561131
463.490000	8.314521
463.676000	8.235420
463.861000	8.124653
464.047000	7.984958
464.233000	7.927422
464.418000	7.712858
464.604000	7.446633
464.789000	7.556641
464.975000	7.406594
465.160000	7.134561
465.346000	7.081728
465.532000	6.881422
465.717000	6.661668
465.903000	6.738382
466.088000	6.632766
466.274000	6.402036
466.459000	6.250717
466.645000	6.512011
466.831000	6.326495
467.016000	6.251383
467.202000	6.045983
467.387000	5.807819
467.573000	5.570777
467.758000	5.682473
467.944000	5.518359
468.130000	5.318235
468.315000	5.344312
468.501000	5.411158
468.686000	5.208519
468.872000	5.126236
469.057000	5.082028
469.243000	4.963746
469.429000	4.833082
469.614000	4.683332
469.800000	4.530488
469.985000	4.639374
470.171000	4.615517
470.356000	4.460477
470.542000	4.449601
470.728000	4.399814
470.913000	4.297936
471.099000	4.309689
471.284000	4.197440
471.470000	4.085087
471.655000	3.970530
471.841000	3.854610
472.027000	3.745903
472.212000	3.951560
472.398000	3.964534
472.583000	3.798214
472.769000	3.742875
472.954000	3.650106
473.140000	3.479314
473.326000	3.418365
473.511000	3.617085
473.697000	3.534733
473.882000	3.298255
474.068000	3.204258
474.253000	3.095582
474.439000	3.141490
474.625000	3.191390
474.810000	3.165827
474.996000	3.110140
475.181000	2.899588
475.367000	2.997315
475.552000	3.172088
475.738000	2.824292
475.924000	2.776619
476.109000	2.832776
476.295000	2.659094
476.480000	2.679861
476.666000	2.562876
476.851000	2.496089
477.037000	2.527234
477.223000	2.420680
477.408000	2.282105
477.594000	2.168663
477.779000	2.266588
477.965000	2.218166
478.151000	2.088134
478.336000	2.157369
478.522000	2.050676
478.707000	2.009524
478.893000	2.064552
479.078000	1.878829
479.264000	1.803620
479.450000	1.832328
479.635000	1.915328
479.821000	1.805059
480.006000	1.836600
480.192000	1.762524
480.377000	1.733409
480.563000	1.726771
480.749000	1.526954
480.934000	1.489125
481.120000	1.590214
481.305000	1.669867
481.491000	1.630646
481.676000	1.639261
481.862000	1.624884
482.048000	1.396057
482.233000	1.410805
482.419000	1.382760
482.604000	1.278854
482.790000	1.234448
482.975000	1.232297
483.161000	1.356710
483.347000	1.352896
483.532000	1.272807
483.718000	1.030200
483.903000	1.038239
484.089000	1.065322
484.274000	0.952044
484.460000	1.069068
484.646000	1.085603
484.831000	0.958014
485.017000	0.964853
485.202000	0.987584
485.388000	1.222578
485.573000	1.174440
485.759000	0.958009
485.945000	1.084309
486.130000	0.913298
486.316000	0.902191
486.501000	0.948786
486.687000	0.761578
486.872000	0.682304
487.058000	0.806867
487.244000	0.813902
487.429000	0.664907
487.615000	0.836133
487.800000	0.865321
487.986000	0.740295
488.171000	0.824977
488.357000	0.786518
488.543000	0.765884
488.728000	0.800068
488.914000	0.724587
489.099000	0.638500
489.285000	0.654193
489.470000	0.783038
489.656000	0.772338
489.842000	0.791857
490.027000	0.834287
490.213000	0.628804
490.398000	0.350634
490.584000	0.567293
490.769000	0.591322
490.955000	0.673466
491.141000	0.668788
491.326000	0.598070
491.512000	0.729717
491.697000	0.623535
491.883000	0.466692
492.068000	0.409616
492.254000	0.438964
492.440000	0.518149
492.625000	0.426309
492.811000	0.420704
492.996000	0.521172
493.182000	0.466002
493.367000	0.285827
493.553000	0.218021
493.739000	0.291781
493.924000	0.402586
494.110000	0.420189
494.295000	0.269917
494.481000	0.350335
494.666000	0.371012
494.852000	0.508483
495.038000	0.382184
495.223000	0.276130
495.409000	0.323976
495.594000	0.269669
495.780000	0.326793
495.965000	0.247337
496.151000	0.389231
496.337000	0.431018
496.522000	0.205422
496.708000	0.313856
496.893000	0.460536
497.079000	0.264790
497.264000	0.206797
497.450000	0.270604
497.636000	0.354858
497.821000	0.181700
498.007000	0.358601
498.192000	0.406659
498.378000	0.273791
498.563000	0.222556
498.749000	0.233681
498.935000	0.231773
499.120000	0.299442
499.306000	0.158554
499.491000	0.102371
499.677000	0.210717
499.862000	0.306318
500.048000	0.339551
500.234000	0.251729
500.419000	0.199293
500.605000	0.299127
500.790000	0.225691
500.976000	0.107652
501.161000	0.025076
501.347000	0.169916
501.533000	0.280673
501.718000	0.171482
501.904000	0.139098
502.089000	0.244058
502.275000	0.280849
502.460000	0.158747
502.646000	0.210298
502.832000	0.216640
503.017000	0.184305
503.203000	0.015784
503.388000	-0.046839
503.574000	0.181398
503.759000	0.232895
503.945000	0.242680
504.131000	0.140976
504.316000	0.087724
504.502000	0.115915
504.687000	0.100540
504.873000	0.011142
505.058000	-0.056333
505.244000	-0.042200
505.430000	-0.002986
505.615000	0.113466
505.801000	0.165698
505.986000	-0.009257
506.172000	0.042545
506.358000	0.045789
506.543000	0.045764
506.729000	0.259801
506.914000	0.219369
507.100000	0.335637
507.285000	0.114287
507.471000	-0.042592
507.657000	0.196470
507.842000	0.055492
508.028000	-0.105839
508.213000	-0.063281
508.399000	-0.022091
508.584000	0.135382
508.770000	0.070033
508.956000	-0.009377
509.141000	0.041444
509.327000	0.105176
509.512000	0.028686
509.698000	0.036666
509.883000	0.137045
510.069000	0.076767
510.255000	0.046464
510.440000	0.081692
510.626000	0.006551
510.811000	-0.027042
510.997000	0.080185
511.182000	0.302292
511.368000	0.195399
511.554000	-0.132745
511.739000	-0.067049
511.925000	0.093031
512.110000	0.062549
512.296000	0.207041
512.481000	0.189170
512.667000	0.062697
512.853000	-0.094463
513.038000	0.021039
513.224000	-0.025542
513.409000	-0.136372
513.595000	0.001770
513.780000	-0.141346
513.966000	-0.057589
514.152000	-0.064014
514.337000	-0.139474
514.523000	-0.078491
514.708000	0.014622
514.894000	0.032385
515.079000	-0.113789
515.265000	-0.098076
515.451000	-0.064283
515.636000	-0.130243
515.822000	-0.015958
516.007000	-0.104631
516.193000	0.013046
516.378000	0.109870
516.564000	-0.006283
516.750000	0.043674
516.935000	0.101742
517.121000	0.098498
517.306000	0.177652
517.492000	0.131056
517.677000	-0.141884
517.863000	-0.164513
518.049000	-0.020833
518.234000	-0.061161
518.420000	0.058328
518.605000	0.219827
518.791000	0.179358
518.976000	0.040682
519.162000	-0.072640
519.348000	0.021198
519.533000	-0.004686
519.719000	0.208811
519.904000	0.126465
520.090000	0.085809
520.275000	0.215232
520.461000	0.163809
520.647000	-0.019278
520.832000	-0.202882
521.018000	-0.108387
521.203000	-0.045054
521.389000	-0.214456
521.574000	-0.127449
521.760000	0.038981
521.946000	0.032610
522.131000	-0.087521
522.317000	-0.067931
522.502000	-0.100313
522.688000	-0.012808
522.873000	-0.027426
523.059000	-0.063172
523.245000	-0.059868
523.430000	-0.175285
523.616000	-0.123266
523.801000	-0.164084
523.987000	-0.099214
524.172000	0.001792
524.358000	0.036015
524.544000	-0.027496
524.729000	0.050465
524.915000	0.123780
525.100000	-0.012845
525.286000	0.011561
525.471000	0.032822
525.657000	0.070451
525.843000	-0.135668
526.028000	-0.012938
526.214000	-0.058770
526.399000	-0.149239
526.585000	-0.226449
526.770000	-0.262545
526.956000	-0.115058
527.142000	-0.144660
527.327000	-0.036083
527.513000	-0.121911
527.698000	-0.141865
527.884000	-0.119177
528.069000	-0.143750
528.255000	-0.044556
528.441000	-0.137477
528.626000	-0.096313
528.812000	0.169701
528.997000	0.040138
529.183000	-0.118031
529.368000	-0.065059
529.554000	-0.046786
529.740000	-0.073824
529.925000	-0.120935
530.111000	-0.104231
530.296000	-0.040304
530.482000	0.074551
530.667000	-0.026890
530.853000	0.042584
531.039000	-0.057640
531.224000	0.017265
531.410000	0.130047
531.595000	-0.001539
531.781000	0.029254
531.967000	-0.099606
532.152000	0.041589
532.338000	-0.039597
532.523000	-0.154010
532.709000	-0.140669
532.894000	-0.059236
533.080000	-0.054051
533.266000	-0.208141
533.451000	-0.203643
533.637000	-0.103827
533.822000	0.070968
534.008000	-0.072321
534.193000	-0.037093
534.379000	0.071425
534.565000	-0.044530
534.750000	-0.118289
534.936000	0.149730
535.121000	-0.034142
535.307000	0.003800
535.492000	0.030994
535.678000	-0.162094
535.864000	-0.087770
536.049000	0.232393
536.235000	0.035239
536.420000	-0.018349
536.606000	-0.074163
536.791000	-0.216705
536.977000	-0.191005
537.163000	0.060403
537.348000	0.038044
537.534000	0.084029
537.719000	-0.041833
537.905000	-0.197322
538.090000	-0.046012
538.276000	0.048493
538.462000	0.000194
538.647000	0.019656
538.833000	-0.068291
539.018000	0.055242
539.204000	0.021837
539.389000	-0.152321
539.575000	0.180598
539.761000	0.127707
539.946000	-0.155933
540.132000	-0.070132
540.317000	-0.156990
540.503000	0.002222
540.688000	0.010365
540.874000	0.206095
541.060000	0.369055
541.245000	0.163998
541.431000	-0.026512
541.616000	0.033179
541.802000	-0.022482
541.987000	0.078809
542.173000	0.114408
542.359000	0.010602
542.544000	0.047951
542.730000	-0.120668
542.915000	-0.085444
543.101000	0.108905
543.286000	-0.060536
543.472000	-0.214778
543.658000	-0.065176
543.843000	-0.035734
544.029000	0.146578
544.214000	0.049064
544.400000	-0.274088
544.585000	-0.125518
544.771000	-0.068203
544.957000	0.096633
545.142000	0.218943
545.328000	0.275420
545.513000	0.293166
545.699000	0.270634
545.884000	0.127941
546.070000	0.050030
546.261000	0.043691
546.451000	-0.113165
546.642000	-0.318676
546.833000	-0.161692
547.023000	-0.244779
547.214000	-0.256751
547.405000	-0.037111
547.595000	0.239884
547.786000	0.121618
547.977000	-0.070602
548.167000	-0.216859
548.358000	-0.166643
548.549000	0.225763
548.740000	0.073914
548.930000	-0.238798
549.121000	-0.176757
549.312000	-0.235903
549.502000	-0.304100
549.693000	-0.197990
549.884000	-0.044837
550.074000	0.052231
550.265000	-0.196953
550.456000	-0.072475
550.646000	0.018446
550.837000	-0.015719
551.028000	-0.120674
551.218000	-0.002053
551.409000	-0.187596
551.600000	-0.162538
551.790000	0.032452
551.981000	-0.193090
552.172000	-0.172698
552.362000	0.103943
552.553000	0.136901
552.744000	-0.048381
552.934000	-0.129514
553.125000	-0.162240
553.316000	-0.178600
553.506000	0.218999
553.697000	-0.004438
553.888000	-0.069722
554.079000	0.198596
554.269000	0.182444
554.460000	-0.170726
554.651000	-0.206067
554.841000	-0.368239
555.032000	-0.267729
555.223000	-0.159827
555.413000	-0.058352
555.604000	-0.044479
555.795000	-0.054034
555.985000	-0.013950
556.176000	-0.153170
556.367000	-0.374938
556.557000	-0.193894
556.748000	-0.118366
556.939000	-0.201078
557.129000	-0.314497
557.320000	-0.096847
557.511000	-0.117937
557.701000	-0.174384
557.892000	-0.075578
558.083000	0.201400
558.273000	0.057046
558.464000	-0.191507
558.655000	-0.200803
558.845000	-0.075227
559.036000	0.004956
559.227000	-0.013934
559.418000	0.111438
559.608000	0.198900
559.799000	-0.136766
559.990000	-0.251166
560.180000	-0.140922
560.371000	-0.343770
560.562000	-0.286783
560.752000	-0.103374
560.943000	-0.287177
561.134000	-0.483766
561.324000	-0.213313
561.515000	0.089242
561.706000	-0.060734
561.896000	-0.301606
562.087000	-0.196092
562.278000	-0.214706
562.468000	-0.390316
562.659000	-0.281967
562.850000	0.067911
563.040000	0.107585
563.231000	-0.310395
563.422000	-0.153407
563.612000	-0.258446
563.803000	-0.199821
563.994000	-0.272943
564.185000	-0.325643
564.375000	-0.043731
564.566000	-0.124564
564.757000	-0.175895
564.947000	-0.275218
565.138000	-0.092044
565.329000	-0.158623
565.519000	-0.326516
565.710000	-0.230105
565.901000	0.007145
566.091000	0.094663
566.282000	-0.098582
566.473000	-0.095986
566.663000	-0.109604
566.854000	-0.307452
567.045000	-0.136164
567.235000	-0.092957
567.426000	-0.097466
567.617000	-0.033730
567.807000	-0.099422
567.998000	-0.090179
568.189000	-0.185059
568.379000	-0.150782
568.570000	-0.062795
568.761000	-0.107582
568.951000	-0.188137
569.142000	-0.206353
569.333000	-0.192877
569.524000	-0.337557
569.714000	-0.409103
569.905000	-0.482087
570.096000	-0.060054
570.286000	0.047042
570.477000	0.155863
570.668000	-0.008663
570.858000	-0.046424
571.049000	-0.205629
571.240000	-0.303173
571.430000	-0.066129
571.621000	-0.123193
571.812000	-0.034898
572.002000	-0.008575
572.193000	-0.192953
572.384000	-0.109491
572.574000	-0.056876
572.765000	-0.111571
572.956000	-0.154924
573.146000	0.076813
573.337000	-0.074039
573.528000	-0.080451
573.718000	0.050232
573.909000	0.087075
574.100000	-0.021421
574.290000	-0.176641
574.481000	-0.159030
574.672000	-0.137668
574.863000	-0.004077
575.053000	-0.186120
575.244000	-0.089527
575.435000	-0.206846
575.625000	-0.193182
575.816000	-0.182330
576.007000	-0.120776
576.197000	-0.093329
576.388000	-0.046377
576.579000	0.065838
576.769000	0.027700
576.960000	-0.240660
577.155000	-0.389597
577.350000	-0.153417
577.545000	-0.027097
577.740000	-0.181998
577.935000	0.186220
578.130000	0.104791
578.326000	-0.214573
578.521000	0.058568
578.716000	0.083195
578.911000	-0.229829
579.106000	-0.092701
579.301000	0.064013
579.496000	-0.114698
579.691000	-0.372911
579.886000	-0.208359
580.081000	-0.069210
580.276000	-0.048675
580.471000	-0.170841
580.666000	-0.276246
580.861000	-0.268020
581.057000	-0.286494
581.252000	-0.152331
581.447000	-0.194604
581.642000	-0.203061
581.837000	-0.194669
582.032000	-0.188042
582.227000	0.082709
582.422000	0.120718
582.617000	-0.141765
582.812000	-0.269041
583.007000	-0.231022
583.202000	-0.310182
583.397000	-0.031524
583.592000	0.217909
583.788000	-0.104365
583.983000	-0.102295
584.178000	0.025779
584.373000	-0.156761
584.568000	-0.172096
584.763000	-0.195781
584.958000	-0.285910
585.153000	-0.182063
585.348000	-0.174128
585.543000	-0.019411
585.738000	-0.074277
585.933000	-0.295811
586.128000	-0.091906
586.324000	-0.056781
586.519000	-0.029253
586.714000	0.080756
586.909000	0.130109
587.104000	0.132518
587.299000	-0.049035
587.494000	-0.056835
587.689000	-0.098327
587.884000	-0.055142
588.079000	-0.118395
588.274000	-0.120593
588.469000	-0.114423
588.664000	0.025923
588.859000	0.049740
589.055000	-0.013689
589.250000	-0.045454
589.445000	-0.162760
589.640000	-0.146980
589.835000	0.095895
590.030000	0.223424
590.225000	0.231439
590.420000	0.010181
590.615000	-0.091708
590.810000	-0.057678
591.005000	0.020240
591.200000	-0.081995
591.395000	-0.150134
591.591000	-0.055828
591.786000	0.082172
591.981000	-0.005815
592.176000	0.062490
592.371000	0.100706
592.566000	0.066486
592.761000	0.301455
592.956000	0.227530
593.151000	0.233682
593.346000	0.143504
593.541000	0.244169
593.736000	0.267168
593.931000	0.107440
594.126000	0.174468
594.322000	0.208908
594.517000	0.109598
594.712000	0.020470
594.907000	0.038850
595.102000	0.161103
595.297000	0.329935
595.492000	0.438743
595.687000	0.298600
595.882000	0.216957
596.077000	0.330062
596.272000	0.483624
596.467000	0.532959
596.662000	0.418620
596.857000	0.455299
597.053000	0.530323
597.248000	0.594009
597.443000	0.638153
597.638000	0.575536
597.833000	0.406222
598.028000	0.618802
598.223000	0.750605
598.418000	0.741562
598.613000	0.675021
598.808000	0.775282
599.003000	0.790680
599.198000	0.629219
599.393000	0.710234
599.589000	0.885460
599.784000	0.706395
599.979000	0.820427
600.174000	1.084818
600.369000	0.937134
600.564000	1.028594
600.759000	1.275638
600.954000	1.401449
601.149000	1.302641
601.344000	0.954332
601.539000	1.155775
601.734000	1.181641
601.929000	0.971381
602.124000	1.067279
602.320000	1.348531
602.515000	1.647242
602.710000	1.663373
602.905000	1.370430
603.100000	1.325872
603.295000	1.470454
603.490000	1.651259
603.685000	1.711124
603.880000	1.685510
604.075000	1.533849
604.270000	1.597034
604.465000	1.756237
604.660000	1.605672
604.856000	1.805556
605.051000	2.070492
605.246000	2.103053
605.441000	1.903156
605.636000	1.832963
605.831000	1.988803
606.026000	1.987977
606.221000	2.046586
606.416000	2.335457
606.611000	2.542473
606.806000	2.585354
607.001000	2.767564
607.196000	2.595396
607.391000	2.510448
607.587000	2.775297
607.782000	2.802810
607.977000	2.666446
608.172000	3.141138
608.367000	3.247374
608.562000	2.984355
608.757000	3.039888
608.952000	3.103593
609.147000	3.582607
609.342000	3.642616
609.537000	3.487802
609.732000	3.532669
609.927000	3.451500
610.122000	3.575412
610.318000	4.007654
610.513000	4.230783
610.708000	4.042582
610.903000	4.137037
611.098000	4.297544
611.293000	4.285526
611.488000	4.446636
611.683000	4.533734
611.878000	4.563774
612.073000	4.730378
612.268000	4.830413
612.463000	4.958442
612.658000	5.082366
612.854000	5.186115
613.049000	5.221702
613.244000	5.504229
613.439000	5.670583
613.634000	5.491145
613.829000	5.788722
614.024000	5.717674
614.219000	5.877435
614.414000	6.408043
614.609000	6.200755
614.804000	6.124137
614.999000	6.286082
615.194000	6.528624
615.389000	6.717925
615.585000	6.640394
615.780000	7.007913
615.975000	7.240410
616.170000	7.412451
616.365000	7.672747
616.560000	7.908262
616.755000	8.009330
616.950000	8.078538
617.145000	8.269731
617.340000	8.298068
617.535000	8.136691
617.730000	8.618494
617.925000	8.625658
618.120000	8.774185
618.316000	9.366445
618.511000	9.429985
618.706000	9.433454
618.901000	9.650947
619.096000	10.028274
619.291000	10.175836
619.486000	10.330320
619.681000	10.206852
619.876000	10.377806
620.071000	10.763317
620.266000	11.270955
620.461000	11.643641
620.656000	11.786153
620.852000	11.826994
621.047000	11.953586
621.242000	12.088130
621.437000	12.658574
621.632000	12.980478
621.827000	12.950031
622.022000	12.835751
622.217000	13.232308
622.412000	13.703000
622.607000	13.940000
622.802000	13.977864
622.997000	14.203898
623.192000	14.533635
623.387000	14.735335
623.583000	14.728946
623.778000	15.415865
623.973000	15.642366
624.168000	15.855756
624.363000	16.131107
624.558000	16.494702
624.753000	16.468784
624.948000	16.911696
625.143000	17.228386
625.338000	17.459096
625.533000	17.543738
625.728000	17.940192
625.923000	18.449808
626.119000	18.584234
626.314000	18.684205
626.509000	18.998288
626.704000	19.320356
626.899000	19.699074
627.094000	19.894359
627.289000	20.147368
627.484000	20.429486
627.679000	20.866164
627.874000	21.192000
628.069000	21.723468
628.264000	21.841087
628.459000	22.056984
628.654000	22.303258
628.850000	22.472746
629.045000	22.863421
629.240000	23.064311
629.435000	23.247842
629.630000	23.582016
629.825000	23.819481
630.020000	24.012992
630.215000	23.947606
630.410000	24.404855
630.605000	24.637426
630.800000	24.666180
630.995000	25.092475
631.190000	25.415151
631.385000	25.106269
631.581000	25.018222
631.776000	25.167744
631.971000	24.968584
632.166000	25.010577
632.361000	24.839151
632.556000	25.064016
632.751000	25.099290
632.946000	24.573138
633.141000	24.229375
633.336000	24.198332
633.531000	24.055005
633.726000	23.569542
633.921000	23.104605
634.117000	22.653993
634.312000	22.256888
634.507000	21.979240
634.702000	21.644028
634.897000	21.302342
635.092000	20.881273
635.287000	20.570013
635.482000	19.839537
635.677000	19.428843
635.872000	19.058163
636.067000	18.780748
636.262000	18.032878
636.457000	17.157692
636.652000	16.633840
636.848000	16.103816
637.043000	15.778227
637.238000	15.323197
637.433000	14.449716
637.628000	14.015872
637.823000	13.827459
638.018000	13.387534
638.213000	12.694768
638.408000	12.323625
638.603000	11.750103
638.798000	11.244434
638.993000	10.921334
639.188000	10.620375
639.383000	10.185270
639.579000	10.129121
639.774000	9.532967
639.969000	9.014132
640.164000	8.583286
640.359000	8.264354
640.554000	8.175373
640.749000	7.981816
640.944000	7.698679
641.139000	7.353414
641.334000	6.963396
641.529000	6.364439
641.724000	6.361409
641.919000	6.249674
642.115000	6.272877
642.310000	6.095079
642.505000	5.760801
642.700000	5.531236
642.895000	5.154151
643.090000	5.097833
643.285000	5.180553
643.480000	4.956606
643.675000	4.711168
643.870000	4.912673
644.065000	4.745961
644.260000	4.075592
644.455000	3.934228
644.650000	3.772516
644.846000	3.800261
645.041000	3.444803
645.236000	3.034735
645.431000	3.030769
645.626000	2.740500
645.821000	2.880826
646.016000	2.928177
646.211000	3.234561
646.406000	3.039707
646.601000	2.824807
646.796000	2.617913
646.991000	2.253081
647.186000	2.364252
647.381000	2.541931
647.577000	2.401628
647.772000	2.421356
647.967000	2.263437
648.162000	2.161400
648.357000	2.113724
648.552000	2.140978
648.747000	2.055083
648.942000	2.028270
649.137000	1.873645
649.332000	1.647272
649.527000	1.638106
649.722000	1.758928
649.917000	1.752769
650.113000	1.436776
650.308000	1.277404
650.503000	1.302192
650.698000	1.408136
650.893000	1.329605
651.088000	1.401535
651.283000	1.461563
651.478000	1.077024
651.673000	1.186916
651.868000	1.029617
652.063000	1.257367
652.258000	1.318372
652.453000	1.400421
652.648000	1.093951
652.844000	0.966151
653.039000	0.979232
653.234000	0.564360
653.429000	0.387525
653.624000	0.556350
653.819000	0.781634
654.014000	0.718578
654.209000	0.562027
654.404000	0.693818
654.599000	0.577299
654.794000	0.556143
654.989000	0.814874
655.184000	0.755098
655.380000	0.413509
655.575000	0.355757
655.770000	0.382400
655.965000	0.512793
656.160000	0.472505
656.355000	0.625922
656.550000	0.526156
656.745000	0.584659
656.940000	0.468751
657.135000	0.488999
657.330000	0.463007
657.525000	0.259481
657.720000	0.429141
657.915000	0.533672
658.111000	0.431823
658.306000	0.656859
658.501000	0.459483
658.696000	0.149397
658.891000	0.377613
659.086000	0.295595
659.281000	0.334149
659.476000	0.129333
659.671000	-0.193248
659.866000	-0.002640
660.061000	0.282122
660.256000	0.358614
660.451000	0.256044
660.646000	0.126866
660.842000	0.262572
661.037000	0.068100
661.232000	0.041627
661.427000	0.233339
661.622000	0.080090
661.817000	-0.073569
662.012000	0.103965
662.207000	-0.076768
662.402000	-0.088847
662.597000	0.092476
662.792000	-0.234394
662.987000	-0.222329
663.182000	0.047891
663.378000	0.065792
663.573000	-0.247399
663.768000	-0.240929
663.963000	0.009242
664.158000	-0.017574
664.353000	0.407053
664.548000	0.589287
664.743000	0.245739
664.938000	-0.134380
665.133000	-0.137588
665.328000	0.351534
665.523000	0.277026
665.718000	0.024367
665.913000	0.009340
666.109000	0.063711
666.304000	0.169338
666.499000	-0.032881
666.694000	0.169713
666.889000	0.538725
667.084000	0.179369
667.279000	0.012436
667.474000	0.073141
667.669000	0.124704
667.864000	0.042832
668.059000	0.012474
668.254000	0.088646
668.449000	-0.109484
668.644000	-0.057692
668.840000	0.195408
669.035000	-0.051593
669.230000	-0.367278
669.425000	0.061612
669.620000	-0.027279
669.815000	-0.116586
670.010000	-0.153358
670.205000	-0.011996
670.400000	0.052503
670.595000	0.120417
670.790000	-0.024362
670.985000	-0.079956
671.180000	0.167196
671.376000	-0.123422
671.571000	-0.288002
671.766000	-0.266918
671.961000	-0.298104
672.156000	-0.342048
672.351000	-0.155343
672.546000	-0.118234
672.741000	-0.024591
672.936000	0.031481
673.131000	0.578504
673.326000	0.213430
673.521000	-0.260039
673.716000	-0.325904
673.911000	-0.439138
674.107000	0.088370
674.302000	0.349634
674.497000	0.038122
674.692000	-0.264525
674.887000	-0.331863
675.082000	-0.189787
675.277000	0.060601
675.472000	-0.012390
675.667000	-0.111047
675.862000	-0.247994
676.057000	-0.127106
676.252000	-0.044374
676.447000	-0.169290
676.643000	-0.009273
676.838000	0.237389
677.033000	0.000321
677.228000	0.292994
677.423000	0.183755
677.618000	-0.225556
677.813000	-0.386672
678.008000	-0.125854
678.203000	-0.028825
678.398000	-0.249513
678.593000	-0.032133
678.788000	-0.002931
678.983000	-0.308644
679.178000	-0.165625
679.374000	-0.175642
679.569000	-0.071519
679.764000	-0.176543
679.959000	-0.459324
680.154000	-0.400307
680.349000	-0.517028
680.544000	-0.440646
680.739000	-0.345393
680.934000	-0.385292
681.129000	-0.406201
681.324000	-0.542380
681.519000	-0.152372
681.714000	-0.139142
681.909000	-0.268327
682.105000	-0.465324
682.300000	-0.096498
682.495000	0.033707
682.690000	0.043818
682.885000	-0.059922
683.080000	-0.241359
683.275000	-0.211254
683.470000	0.084402
683.665000	0.307010
683.860000	0.594486
684.055000	0.307715
684.250000	-0.246480
684.445000	-0.333857
684.641000	0.220419
684.836000	0.000339
685.031000	-0.135809
685.226000	-0.146218
685.421000	0.229343
685.616000	-0.057763
685.811000	-0.246338
686.006000	0.082562
686.201000	-0.040822
686.396000	-0.412879
686.591000	-0.410257
686.786000	0.000346
686.981000	-0.068779
687.176000	0.003811
687.372000	-0.006590
687.567000	0.229374
687.762000	0.143014
687.957000	0.024705
688.152000	-0.215842
688.347000	-0.139380
688.542000	-0.346340
688.737000	-0.759230
688.932000	-0.806102
689.127000	-0.329702
689.322000	0.028522
689.517000	-0.235519
689.712000	-0.398866
689.908000	-0.257810
690.103000	-0.272484
690.298000	-0.212282
690.493000	-0.237710
690.688000	-0.472806
690.883000	-0.381617
691.078000	0.043210
691.273000	0.132501
691.468000	-0.203611
691.663000	-0.229529
691.858000	-0.006826
692.053000	-0.053528
692.248000	0.061494
692.443000	0.043512
692.639000	-0.042881
692.834000	0.058160
693.029000	0.607474
693.224000	0.541371
693.419000	-0.123203
693.614000	-0.283647
693.809000	-0.404102
694.004000	-0.455974
694.199000	-0.437606
694.394000	-0.201052
694.589000	-0.512877
694.784000	-0.440003
694.979000	-0.190466
695.174000	-0.216703
695.370000	0.294203
695.565000	0.096097
695.760000	-0.217359
695.955000	0.163137
696.150000	0.266799
696.345000	-0.218799
696.540000	-0.040562
696.740000	-0.241341
696.940000	-0.070336
697.140000	0.030299
697.340000	-0.186983
697.539000	0.086605
697.739000	-0.059635
697.939000	-0.037157
698.139000	-0.345281
698.339000	-0.840609
698.539000	-0.519756
698.739000	-0.524932
698.939000	-0.390580
699.138000	-0.414037
699.338000	0.132995
699.538000	0.289444
699.738000	-0.144574
699.938000	-0.324134
700.138000	-0.320858
700.338000	-0.390821
700.538000	-0.130341
700.737000	-0.068801
700.937000	-0.578281
701.137000	-0.579170
701.337000	-0.049769
701.537000	-0.015079
701.737000	-0.161804
701.937000	-0.131207
702.137000	-0.297649
702.337000	-0.464863
702.536000	-0.578477
702.736000	-0.505270
702.936000	-0.591715
703.136000	-0.034772
703.336000	-0.066012
703.536000	-0.265957
703.736000	-0.635866
703.936000	-0.607113
704.135000	-0.579387
704.335000	-0.168528
704.535000	-0.421092
704.735000	-0.598965
704.935000	-0.050759
705.135000	-0.181486
705.335000	-0.404253
705.535000	-0.094877
705.735000	-0.090892
705.934000	-0.190022
706.134000	-0.364694
706.334000	-0.401360
706.534000	-0.509492
706.734000	-0.438136
706.934000	-0.493922
707.134000	-0.466138
707.334000	-0.195403
707.533000	-0.227791
707.733000	-0.319637
707.933000	-0.512171
708.133000	-0.147586
708.333000	-0.039802
708.533000	-0.362104
708.733000	-0.011679
708.933000	-0.193075
709.132000	-0.326726
709.332000	-0.294915
709.532000	-0.400981
709.732000	-0.254650
709.932000	-0.713834
710.132000	-0.741776
710.332000	-0.846834
710.532000	-0.198413
710.732000	0.069574
710.931000	-0.321255
711.131000	-0.334773
711.331000	-0.171402
711.531000	-0.433944
711.731000	-0.389848
711.931000	-0.283510
712.131000	-0.328379
712.331000	-0.164036
712.530000	-0.282916
712.730000	-0.555383
712.930000	-0.390572
713.130000	-0.239129
713.330000	-0.392426
713.530000	-0.302562
713.730000	0.270313
713.930000	0.000415
714.129000	-0.493033
714.329000	-0.619413
714.529000	-0.273931
714.729000	0.067062
714.929000	-0.070396
715.129000	-0.458542
715.329000	-0.346209
715.529000	-0.288921
715.729000	0.393851
715.928000	0.084339
716.128000	-0.301877
716.328000	-0.121699
716.528000	-0.244097
716.728000	-0.201987
716.928000	-0.400219
717.128000	-0.202458
717.328000	-0.253137
717.527000	-0.426921
717.727000	-0.355338
717.927000	-0.250259
718.127000	-0.314171
718.327000	-0.770454
718.527000	-0.697701
718.727000	-0.187049
718.927000	-0.332519
719.127000	-0.680997
719.326000	-0.341038
719.526000	0.090227
719.726000	-0.115270
719.926000	-0.649042
720.126000	-0.662052
720.326000	-0.408183
720.526000	-0.545923
720.726000	-0.439697
720.925000	-0.094558
721.125000	-0.532616
721.325000	-0.302561
721.525000	-0.298955
721.725000	-0.468226
721.925000	-0.504359
722.125000	-0.386895
722.325000	0.035248
722.524000	-0.313827
722.724000	-0.725016
722.924000	-0.694382
723.124000	-0.476477
723.324000	-0.161617
723.524000	-0.030248
723.724000	-0.530485
723.924000	-0.325421
724.124000	-0.219812
724.323000	-0.021613
724.523000	-0.012780
724.723000	0.256593
724.923000	-0.003976
725.123000	-0.061471
725.323000	0.031455
725.523000	-0.288073
725.723000	-0.482869
725.922000	-0.425706
726.122000	-0.275087
726.322000	-0.449614
726.522000	-0.503579
726.722000	0.227664
726.922000	-0.155383
727.122000	-0.272084
727.322000	0.192804
727.521000	-0.017489
727.721000	-0.269011
727.921000	-0.300463
728.121000	-0.327328
728.321000	-0.665308
728.521000	-0.427988
728.721000	-0.333847
728.921000	0.013999
729.121000	0.751336
729.320000	0.213288
729.520000	-0.312036
729.720000	-0.489465
729.920000	-0.355060
730.120000	-0.295056
730.320000	-0.227417
730.520000	-0.546664
730.720000	-0.562107
730.919000	-0.420244
731.119000	-0.146141
731.319000	-0.536419
731.519000	-0.573050
731.719000	-0.210752
731.919000	-0.486505
732.119000	-0.979686
732.319000	-1.028922
732.519000	-0.415206
732.718000	-0.665478
732.918000	-0.633651
733.118000	-0.342904
733.318000	0.005119
733.518000	-0.353226
733.718000	-0.945576
733.918000	-0.852868
734.118000	-0.652130
734.317000	-0.336520
734.517000	-0.523010
734.717000	-0.483262
734.917000	-0.046600
735.117000	-0.145603
735.317000	-0.310446
735.517000	0.179972
735.717000	0.521616
735.916000	-0.354904
736.116000	-0.548699
736.316000	-0.256750
736.516000	-0.213813
736.716000	-0.285387
736.916000	-0.779283
737.116000	-0.634058
737.316000	0.106220
737.516000	0.043824
737.715000	-0.033250
737.915000	-0.674471
738.115000	-0.729813
738.315000	-0.347994
738.515000	-0.701177
738.715000	-0.447319
738.915000	0.102841
739.115000	-0.409604
739.314000	-0.487276
739.514000	0.029860
739.714000	0.079011
739.914000	-0.058570
740.114000	-0.231268
740.314000	-0.048854
740.514000	0.395879
740.714000	-0.346638
740.913000	-0.898400
741.113000	-0.675974
741.313000	-0.258154
741.513000	-0.333701
741.713000	-0.249573
741.913000	-0.160301
742.113000	-0.375808
742.313000	-0.969933
742.513000	-0.558144
742.712000	-0.418575
742.912000	-0.731815
743.112000	-0.567060
743.312000	-0.862409
743.512000	-0.406486
743.712000	-0.259781
743.912000	-0.970770
744.112000	-1.037889
744.311000	-0.999662
744.511000	-0.698306
744.711000	-0.231288
744.911000	-0.582402
745.111000	-0.603785
745.311000	-0.061581
745.511000	-0.388136
745.711000	-0.606353
745.911000	-0.373425
746.110000	-0.737334
746.310000	-0.825314
746.510000	-0.620126
746.710000	-0.282407
746.910000	-0.099114
747.110000	-0.608772
747.310000	-1.009729
747.510000	-0.628004
747.709000	-0.269061
747.909000	-0.428740
748.109000	-0.100501
748.309000	-0.399097
748.509000	-0.725265
748.709000	-0.829727
748.909000	-0.502823
749.109000	-0.418966
749.308000	0.188968
749.508000	-0.129143
749.708000	-0.469719
749.908000	-0.107589
750.108000	-0.200092
750.308000	-0.984364
750.508000	-0.163116
750.708000	-0.588835
750.908000	-0.951063
751.107000	-0.240830
751.307000	0.318352
751.507000	-0.274580
751.707000	-0.252248
751.907000	-0.335505
752.107000	-0.215030
752.307000	-0.775935
752.507000	-0.605579
752.706000	-0.555154
752.906000	0.373673
753.106000	-0.373852
753.306000	-1.058854
753.506000	-0.123092
753.706000	-0.427459
753.906000	-0.179685
754.106000	0.017485
754.305000	-0.185803
754.505000	-0.095693
754.705000	-0.255627
754.905000	-0.427056
755.105000	-0.210704
755.305000	-0.954349
755.505000	-0.733450
755.705000	-0.240578
755.905000	-0.333445
756.104000	-0.898602
756.304000	-1.276680
756.504000	-1.441470
756.704000	-0.406919
756.904000	-0.092508
757.104000	-0.429353
757.304000	-0.435579
757.504000	0.000585
757.703000	-0.461561
757.903000	-0.046326
758.103000	0.153365
758.303000	-0.235114
758.503000	-0.483877
758.703000	-0.603445
758.903000	-0.716281
759.103000	-0.254867
759.303000	-0.363541
759.502000	-0.442537
759.702000	0.012571
759.902000	-0.444627
760.102000	-0.451722
760.302000	-0.235396
760.502000	0.054903
760.702000	-0.096066
760.902000	-0.532211
761.101000	-0.879853
761.301000	-0.984803
761.501000	-0.528764
761.701000	-0.724930
761.901000	-0.397754
762.101000	-0.030095
762.301000	-0.214353
762.501000	-0.638669
762.700000	-0.771291
762.900000	-0.771566
763.100000	-0.314792
763.300000	-0.018008
763.500000	-0.328822
763.703000	-0.371090
763.905000	-0.764279
764.108000	-0.167878
764.311000	-0.323943
764.513000	-0.368078
764.716000	-0.212706
764.919000	-0.382630
765.121000	-0.942174
765.324000	-1.153046
765.527000	-0.759912
765.729000	-0.544407
765.932000	0.203773
766.135000	0.121212
766.337000	-0.304139
766.540000	-0.438914
766.743000	-0.102041
766.945000	-0.780764
767.148000	-1.257571
767.351000	-1.013490
767.553000	-0.018683
767.756000	-0.412119
767.958000	-0.908632
768.161000	-0.599611
768.364000	-0.847988
768.566000	-1.077075
768.769000	-0.559551
768.972000	-0.246845
769.174000	-0.639572
769.377000	-1.126223
769.580000	-1.049836
769.782000	-0.419176
769.985000	-0.953561
770.188000	-1.872737
770.390000	-1.040106
770.593000	0.397912
770.796000	0.133178
770.998000	-0.377226
771.201000	-0.809003
771.404000	-0.398094
771.606000	-0.693258
771.809000	-0.539618
772.012000	-0.574073
772.214000	-1.417250
772.417000	-1.377268
772.620000	-0.352755
772.822000	-0.684769
773.025000	-0.920137
773.228000	-0.841049
773.430000	-0.673826
773.633000	-0.492643
773.836000	-0.405345
774.038000	-0.155551
774.241000	-0.393185
774.444000	-0.769033
774.646000	0.143609
774.849000	-0.319928
775.052000	-0.435819
775.254000	-0.259004
775.457000	-0.695737
775.659000	-0.533148
775.862000	-0.724952
776.065000	-0.486154
776.267000	0.007556
776.470000	0.255967
776.673000	-0.461888
776.875000	0.028390
777.078000	-0.020049
777.281000	-0.845944
777.483000	-0.138539
777.686000	-0.041151
777.889000	-0.236700
778.091000	0.021720
778.294000	-0.936812
778.497000	-0.980048
778.699000	-0.763492
778.902000	-0.688716
779.105000	-0.407348
779.307000	0.395248
779.510000	-0.613615
779.713000	-0.254482
779.915000	-0.568253
780.118000	0.306830
780.321000	0.542422
780.523000	-0.342213
780.726000	-0.806930
780.929000	-0.949534
781.131000	-0.943847
781.334000	-1.385475
781.537000	-1.403756
781.739000	-0.345313
781.942000	-0.915565
782.145000	-1.485968
782.347000	-1.327257
782.550000	-0.885164
782.753000	-0.997353
782.955000	-0.868572
783.158000	-0.663639
783.361000	-0.584771
783.563000	-0.540947
783.766000	-0.703806
783.968000	1.279676
784.171000	1.145252
784.374000	-0.338954
784.576000	-0.471737
784.779000	-0.161421
784.982000	0.260206
785.184000	-0.364476
785.387000	0.053001
785.590000	0.769217
785.792000	0.502524
785.995000	0.098258
786.198000	-0.081890
786.400000	-0.436831
786.603000	-0.490886
786.806000	-0.459209
787.008000	-0.255593
787.211000	-0.264082
787.414000	-0.887589
787.616000	-0.769002
787.819000	-0.747895
788.022000	-1.261435
788.224000	-0.704756
788.427000	-1.280635
788.630000	-0.738429
788.832000	-0.476113
789.035000	-1.158821
789.238000	-1.565182
789.440000	-1.209637
789.643000	-0.115370
789.846000	-0.736902
790.048000	-0.357279
790.251000	-0.201650
790.454000	-0.411040
790.656000	0.359525
790.859000	-0.343160
791.062000	-0.907570
791.264000	-0.210470
791.467000	-1.122805
791.669000	-1.690996
791.872000	-0.465785
792.075000	-1.026072
792.277000	-0.876134
792.480000	-0.531397
792.683000	-1.013155
792.885000	-1.339230
793.088000	-1.097436
793.291000	-1.259744
793.493000	-1.254047
793.696000	-0.542914
793.899000	-0.303876
794.101000	-0.634074
794.304000	-0.643562
794.507000	-0.313788
794.709000	-0.266126
794.912000	-0.860064
795.115000	-0.991912
795.317000	-0.584896
795.520000	-0.317830
795.723000	-0.786703
795.925000	-1.165760
796.128000	-1.328359
796.331000	-0.756501
796.533000	-1.261635
796.736000	-0.662597
796.939000	-0.489616
797.141000	-0.832627
797.344000	-0.107619
797.547000	0.009181
797.749000	-0.216477
797.952000	-0.704809
798.155000	-1.088853
798.357000	-1.398988
798.560000	-1.118555
798.763000	-0.422732
798.965000	-0.667776
799.168000	-0.771583
799.371000	-0.653509
799.573000	-0.885905
799.776000	-1.220264
799.978000	-1.215932
800.181000	-0.514262
800.384000	1.084286
800.586000	0.259426
800.789000	-1.420631
800.992000	-1.221655
801.194000	-1.362406
801.397000	-1.339976
801.600000	-1.101515
801.802000	0.200811
802.005000	-0.086336
802.208000	-1.494644
802.410000	-0.619540
802.613000	-0.543283
802.816000	-0.789954
803.018000	-1.364735
803.221000	-1.208398
803.424000	0.266241
803.626000	-0.105422
803.829000	-0.621215
804.032000	0.312765
804.234000	0.900593
804.437000	-0.544832
804.640000	-0.624824
804.842000	-0.608335
805.045000	-1.034542
805.248000	-0.883127
805.450000	-0.927324
805.653000	-0.878789
805.856000	-0.950302
806.058000	0.146300
806.261000	-0.837059
806.464000	-1.029364
806.666000	-0.346100
806.869000	-0.715936
807.072000	-1.772646
807.274000	-2.141629
807.477000	-0.948799
807.679000	-0.645056
807.882000	-1.294002
808.085000	-1.014059
808.287000	-0.483762
808.490000	-1.418583
808.693000	-1.232673
808.895000	-0.906598
809.098000	-0.719826
809.301000	-0.600140
809.503000	-1.027209
809.706000	-0.368930
809.909000	0.152668
810.111000	0.295320
810.314000	-0.332160
810.517000	-0.985651
810.719000	-1.038906
810.922000	-0.679250
811.125000	0.306870
811.327000	0.347082
811.530000	-0.124518
811.735000	-0.548403
811.940000	-0.945673
812.146000	-0.988452
812.351000	-0.328863
812.556000	-0.602418
812.761000	-1.268215
812.967000	-0.018630
813.172000	-0.047995
813.377000	-0.716253
813.582000	0.030587
813.788000	-0.088421
813.993000	-1.168393
814.198000	-0.494995
814.403000	-1.426658
814.609000	-0.607576
814.814000	-0.349754
815.019000	0.481158
815.224000	0.160970
815.429000	-0.894740
815.635000	-0.423030
815.840000	-0.362846
816.045000	-0.313733
816.250000	0.062034
816.456000	-1.343659
816.661000	-2.107114
816.866000	-1.783548
817.071000	-1.854173
817.277000	-2.485079
817.482000	-1.507678
817.687000	-0.742516
817.892000	-0.622093
818.097000	-0.165642
818.303000	0.146888
818.508000	0.541698
818.713000	1.607734
818.918000	0.408225
819.124000	0.053384
819.329000	-0.892456
819.534000	-0.895115
819.739000	-1.084983
819.945000	-0.899413
820.150000	-0.702098
820.355000	-0.650090
820.560000	-0.328961
820.766000	-0.383170
820.971000	-0.374645
821.176000	-1.925122
821.381000	-2.456061
821.586000	-1.305013
821.792000	0.066075
821.997000	-0.660279
822.202000	-0.693486
822.407000	-1.522894
822.613000	-1.820620
822.818000	-1.070725
823.023000	-0.579269
823.228000	-0.682199
823.434000	-0.230156
823.639000	0.177678
823.844000	-0.662791
824.049000	-0.021039
824.255000	0.167745
824.460000	-0.534603
824.665000	-1.172399
824.870000	-0.111021
825.075000	-0.257130
825.281000	-0.021398
825.486000	0.907455
825.691000	-1.371750
825.896000	-2.511271
826.102000	-0.817893
826.307000	-0.762869
826.512000	-1.212107
826.717000	-0.951781
826.923000	-0.942985
827.128000	-0.645035
827.333000	-1.218275
827.538000	-0.360207
827.744000	0.071282
827.949000	-0.768615
828.154000	-0.701465
828.359000	-0.033944
828.564000	-0.528180
828.770000	-0.742981
828.975000	0.237962
829.180000	-0.391474
829.385000	-1.901910
829.591000	-1.467967
829.796000	-0.899106
830.001000	-0.840688
830.206000	-1.277682
830.412000	-1.083535
830.617000	-1.267379
830.822000	-0.290195
831.027000	-0.616655
831.232000	-1.205446
831.438000	-1.189411
831.643000	-0.821102
831.848000	-0.946151
832.053000	-0.764504
832.259000	-0.839646
832.464000	-2.565692
832.669000	-2.164264
832.874000	-1.688588
833.080000	-1.908216
833.285000	0.063752
833.490000	0.038779
833.695000	-1.371233
833.901000	-1.187921
834.106000	-1.620521
834.311000	-0.775672
834.516000	-0.088019
834.721000	-0.883871
834.927000	-0.166169
835.132000	-0.618225
835.337000	1.216319
835.542000	0.066314
835.748000	-1.698748
835.953000	-0.024742
836.158000	0.210174
836.363000	-0.418103
836.569000	-0.408135
836.774000	-1.335057
836.979000	-1.522146
837.184000	-1.964072
837.390000	-1.901137
837.595000	-1.185891
837.800000	-0.787507
838.005000	-0.361862
838.210000	-0.913796
838.416000	-1.390190
838.621000	-0.811432
838.826000	-1.257696
839.031000	-1.563522
839.237000	-1.712301
839.442000	-2.250560
839.647000	-2.535125
839.852000	-1.940181
840.058000	-1.753717
840.263000	-1.470693
840.468000	-1.791907
840.673000	-0.874494
840.878000	-0.875319
841.084000	-1.692477
841.289000	-1.261675
841.494000	1.612467
841.699000	1.518551
841.905000	0.683795
842.110000	0.830419
842.315000	-1.344963
842.520000	-0.685400
842.726000	-0.959558
842.931000	-1.747015
843.136000	-0.691446
843.341000	-2.209060
843.547000	-1.391805
843.752000	-1.117334
843.957000	-1.976109
844.162000	-1.735278
844.367000	-0.588537
844.573000	0.016295
844.778000	-0.338340
844.983000	-0.117006
845.188000	-0.058059
845.394000	-1.921229
845.599000	-1.616824
845.804000	-1.066022
846.009000	-0.452671
846.215000	-1.580284
846.420000	-1.233782
846.625000	-0.365679
846.830000	0.458885
847.036000	-0.687833
847.241000	-1.659954
847.446000	-0.229197
847.651000	-0.539102
847.856000	-1.666248
848.062000	-1.405426
848.267000	0.408147
848.472000	-0.814419
848.677000	-2.421755
848.883000	-0.705056
849.088000	0.810539
849.293000	-0.922021
849.498000	-1.509295
849.704000	-0.125994
849.909000	-0.749929
850.114000	-1.901266
850.319000	-0.703552
850.524000	-0.546277
850.730000	-0.533170
850.935000	-1.023438
851.140000	-0.177820
851.345000	-0.145172
851.551000	0.017997
851.756000	0.100336
851.961000	-1.103336
852.166000	-1.582435
852.372000	-1.057141
852.577000	-0.814897
852.782000	-1.308015
852.987000	-0.082041
853.193000	-0.283979
853.398000	-0.132787
853.603000	-1.497615
853.808000	-2.593970
854.013000	-1.575781
854.219000	0.001699
854.424000	2.014652
854.629000	1.403625
854.834000	-1.271868
855.040000	-0.760388
855.245000	-0.101852
855.450000	-2.424875
855.655000	-3.802519
855.861000	-3.304616
856.066000	-2.156059
856.271000	-2.194673
856.476000	-0.386140
856.682000	-1.290317
856.887000	-4.136347
857.092000	-2.319716
857.297000	0.428802
857.502000	-0.354770
857.708000	-0.998506
857.913000	-0.069784
858.118000	-0.864993
858.323000	-1.211650
858.529000	-1.065110
858.734000	-1.485056
858.939000	-1.307574
859.144000	-1.895920
859.350000	-2.863444
859.555000	-2.451332
859.760000	-0.274264
859.965000	0.498685
860.171000	-1.236394
860.376000	-0.573454
860.581000	-2.324144
860.786000	-4.725739
860.991000	-3.939336
861.197000	-2.942853
861.402000	-0.694090
861.607000	-1.221550
861.812000	-2.984789
862.018000	-3.129067
862.223000	-1.557024
862.428000	-0.418801
862.633000	0.269761
862.839000	-0.864415
863.044000	-1.958767
863.249000	-1.624328
863.454000	0.215112
863.659000	-1.436493
863.865000	-2.342243
864.070000	-2.132939
864.275000	-2.626982
864.480000	-2.619293
864.686000	-4.053242
864.891000	-3.304293
865.096000	-1.052124
865.301000	-0.276973
865.507000	-0.398863
865.712000	-0.418878
865.917000	-0.724133
866.122000	-0.159783
866.328000	-3.659236
866.533000	-3.392442
866.738000	-0.160782
866.943000	-0.059146
867.148000	0.863457
867.354000	-1.796279
867.559000	-3.285515
867.764000	-1.182250
867.969000	-0.102327
868.175000	-2.058363
868.380000	-2.545951
868.585000	-3.323039
868.790000	-1.131089
868.996000	-1.328678
869.201000	-2.857046
869.406000	-4.017967
869.611000	-3.363339
869.817000	-2.402147
870.022000	2.052439
870.227000	-0.468874
870.432000	-2.127850
870.637000	-0.471721
870.843000	-1.492713
871.048000	-1.775214
871.253000	0.305800
871.458000	-0.738953
871.664000	-2.476641
871.869000	-3.020862
872.074000	-2.454513
872.279000	-1.126010
872.485000	-1.444970
872.690000	-1.786652
872.895000	-2.355374
873.100000	-3.189920
873.306000	-2.977727
873.511000	-1.179839
873.716000	0.207323
873.921000	-2.088271
874.126000	-2.410227
874.332000	-1.629545
874.537000	-0.736807
874.742000	-0.826521
874.947000	-1.061232
875.153000	0.702456
875.358000	-0.418719
875.563000	-1.166185
875.768000	-3.658742
875.974000	-4.262901
876.179000	-0.871243
876.384000	-0.400964
876.589000	-2.152263
876.794000	-2.130745
877.000000	-2.804156
877.205000	-3.950550
877.410000	-0.575397
877.615000	-2.497184
877.821000	-4.944095
878.026000	-3.539472
878.231000	-3.805464
878.436000	-4.079095
878.642000	-2.908620
878.847000	-1.223408
879.052000	-0.168927
879.257000	-2.368260
879.463000	-3.484343
879.668000	-2.322776
879.873000	-0.221033
880.078000	-2.885445
880.283000	-5.221023
880.489000	-5.370865
880.694000	-3.963445
880.899000	-1.868956
881.104000	-0.124426
881.310000	1.627652
881.515000	0.205442
881.720000	1.044935
881.925000	2.482613
882.131000	4.298181
882.336000	1.368170
882.541000	-3.243471
882.746000	-2.580957
882.952000	-2.473692
883.157000	-2.741091
883.362000	-2.823814
883.567000	-3.755442
883.772000	-3.949456
883.978000	-3.024415
884.183000	-1.008655
884.388000	-1.457671
884.593000	-3.556666
884.799000	0.936500
885.004000	0.300341
885.209000	-1.296625
885.414000	-1.211251
885.620000	-3.828502
885.825000	-0.708806
886.030000	-1.062496
886.235000	-2.607973
886.440000	-2.020067
886.646000	-4.362160
886.851000	-4.663519
887.056000	-0.305544
887.261000	-0.726598
887.467000	-4.137901
887.672000	-1.159928
887.877000	-2.192015
888.082000	-4.608306
888.288000	-5.618797
888.493000	-7.540830
888.698000	-5.307320
888.903000	-1.993547
889.109000	-3.461993
889.314000	-0.170453
889.519000	-1.954201
889.724000	0.665787
889.929000	-0.603083
890.135000	-1.964568
890.340000	-2.212423
890.545000	-3.405986
890.750000	-4.464715
890.956000	-3.395573
891.161000	-0.757707
891.366000	-2.930846
891.571000	-1.879086
891.777000	-2.028009
891.982000	-0.411132
892.187000	-1.125806
892.392000	-0.174840
892.598000	0.301012
892.803000	-0.478059
893.008000	-3.481268
893.213000	-3.142540
893.418000	-3.255196
893.624000	-3.817287
893.829000	-5.578260
894.034000	-2.945545
894.239000	-1.677048
894.445000	-4.050335
894.650000	-3.917600
894.855000	-4.075828
895.060000	-3.671002
895.266000	-3.447956
895.471000	-4.744894
895.676000	-1.420085
895.881000	-0.933029
896.087000	-2.805869
896.292000	-4.206340
896.497000	0.539818
896.702000	-2.009129
896.907000	-4.311019
897.113000	1.425458
897.318000	1.582691
897.523000	0.319906
897.728000	-2.349712
897.934000	-3.229554
898.139000	-2.793529
898.344000	0.035287
898.549000	-1.190472
898.755000	-2.710624
898.960000	-3.507538
899.165000	-5.005123
899.370000	-1.499060
899.575000	1.574920
899.781000	-2.951919
899.986000	-3.378957
900.191000	-0.888965
900.396000	-1.849474
900.602000	-1.794009
900.807000	-2.074842
901.012000	-2.020880
901.217000	-0.571580
901.423000	-2.861587
901.628000	-4.832624
901.833000	-0.132548
902.038000	-0.578839
902.244000	-3.753835
902.449000	-2.985707
902.654000	-2.565814
902.859000	-1.797753
903.064000	0.316724
903.270000	-0.066367
903.475000	-4.401060
903.680000	-6.701363
903.885000	-5.663598
904.091000	-4.029852
904.296000	-5.395679
904.501000	-4.882157
904.706000	-4.039219
904.912000	-0.104873
905.117000	-1.812105
905.322000	-4.133217
905.527000	-3.640332
905.733000	-2.658204
905.938000	-2.197845
906.143000	-3.263975
906.348000	-6.685554
906.553000	-2.092291
906.759000	-0.482535
906.964000	-1.875814
907.169000	-2.642445
907.374000	-5.314572
907.580000	-3.522733
907.785000	-3.622011
907.990000	25.489469
908.195000	17.499279
908.401000	-0.463966
908.606000	-7.954288
908.811000	-9.277960
909.016000	-2.225483
909.221000	-1.800933
909.427000	-2.521457
909.632000	-5.170783
909.837000	-5.006401
910.042000	-6.347483
910.248000	-7.914159
910.453000	-3.081046
910.658000	-4.045301
910.863000	-4.490548
911.069000	-5.409114
911.274000	-0.037179
911.479000	1.043271
911.684000	-6.806403
911.890000	-4.513345
912.095000	-3.806941
912.300000	-6.322661
912.506000	-6.114982
912.711000	-5.849364
912.917000	-2.689945
913.123000	-1.921883
913.328000	-2.321371
913.534000	-2.038422
913.740000	6.832190
913.946000	3.567345
914.151000	-4.097930
914.357000	-5.807597
914.563000	-1.316367
914.768000	-4.832042
914.974000	-7.214912
915.180000	-6.605935
915.385000	-4.768603
915.591000	-7.608539
915.797000	-3.308293
916.002000	1.208872
916.208000	-2.485249
916.414000	-5.495897
916.620000	-6.021511
916.825000	-2.947552
917.031000	-3.512557
917.237000	-9.223236
917.442000	-5.658419
917.648000	-5.510975
917.854000	-6.609762
918.059000	-0.912136
918.265000	-0.428987
918.471000	-3.676963
918.676000	-6.996710
918.882000	-8.620020
919.088000	-7.006405
919.294000	-11.836982
919.499000	-7.960907
919.705000	-2.160997
919.911000	-3.369799
920.116000	-2.436906
920.322000	-8.476008
920.528000	-6.209959
920.733000	-7.286190
920.939000	-7.839200
921.145000	-6.830070
921.350000	-6.283489
921.556000	-4.790006
921.762000	-5.840936
921.968000	-6.177400
922.173000	-7.506549
922.379000	-9.414940
922.585000	-5.337577
922.790000	-6.057061
922.996000	-6.874835
923.202000	-7.570710
923.407000	-6.945419
923.613000	-6.056646
923.819000	-3.600998
924.024000	-3.242740
924.230000	-1.346986
924.436000	-3.340559
924.642000	6.781446
924.847000	2.210448
925.053000	-4.920491
925.259000	-10.208398
925.464000	-3.907899
925.670000	-3.204333
925.876000	-6.309820
926.081000	-7.945886
926.287000	-4.275894
926.493000	-1.991075
926.698000	-4.479813
926.904000	-3.247377
927.110000	-5.024526
927.316000	-5.167450
927.521000	1.727742
927.727000	-4.362460
927.933000	-5.885720
928.138000	-4.211691
928.344000	-11.775508
928.550000	-7.519658
928.755000	-2.057945
928.961000	-7.011462
929.167000	-7.183759
929.372000	0.851944
929.578000	-0.255968
929.784000	-6.670812
929.990000	-9.823117
930.195000	-6.319681
930.401000	-5.092032
930.607000	-3.154045
930.812000	-2.098348
931.018000	-6.334787
931.224000	-12.846215
931.429000	-9.572223
931.635000	-13.776623
931.841000	-13.561700
932.046000	-7.429557
932.252000	-1.262649
932.458000	6.341839
932.664000	0.439065
932.869000	-6.405520
933.075000	-10.366506
933.281000	-9.263249
933.486000	-2.899884
933.692000	-5.833400
933.898000	-8.541646
934.103000	-1.502813
934.309000	-5.852257
934.515000	-2.735198
934.720000	-1.250403
934.926000	2.307666
935.132000	1.833334
935.338000	-2.478953
935.543000	-9.350094
935.749000	-8.944959
935.955000	-12.616870
936.160000	-11.177053
936.366000	-2.175889
936.572000	-3.332438
936.777000	-0.690619
936.983000	2.725152
937.189000	-4.671735
937.394000	-11.179315
937.600000	-0.260773
937.806000	5.624809
938.012000	-5.787232
938.217000	6.868489
938.423000	4.490295
938.629000	-4.845741
938.834000	-12.873455
939.040000	-14.881376
939.246000	-9.476575
939.451000	-9.693071
939.657000	-5.771435
939.863000	-10.523540
940.068000	-3.702418
940.274000	-8.172727
940.480000	-5.312823
940.686000	-2.803959
940.891000	-5.984527
941.097000	21.132113
941.303000	8.764113
941.508000	-7.415105
941.714000	-5.108946
941.920000	-13.928457
942.125000	-2.704283
942.331000	-2.280429
942.537000	3.499826
942.742000	3.204974
942.948000	-7.589506
943.154000	-11.760944
943.360000	-22.076091
943.565000	-9.650696
943.771000	1.485761
943.977000	5.981283
944.182000	-12.358138
944.388000	-16.816329
944.594000	-2.964186
944.799000	5.907584
945.005000	-0.784341
945.211000	3.317687
945.416000	-0.914574
945.622000	-14.496232
945.828000	-12.071708
946.034000	-1.418873
946.239000	2.050267
946.445000	-3.883801
946.651000	-18.082318
946.856000	-16.008162
947.062000	1.903219
947.268000	4.654511
947.473000	-16.602004
947.679000	-20.911927
947.885000	-3.244838
948.090000	1.711272
948.296000	11.243536
948.502000	-3.150540
948.708000	-11.153843
948.913000	-13.521240
949.119000	-1.973451
949.325000	-6.818316
949.530000	-20.493209
949.736000	-26.615086
949.942000	-15.161408
950.147000	-12.910783
950.353000	-11.076281
950.559000	-6.521876
950.764000	13.327239
950.970000	8.907820
951.176000	-6.831264
951.382000	-13.799066
951.587000	-2.202066
951.793000	4.341432
951.999000	4.538301
952.204000	-8.212244
952.410000	-25.219459
952.616000	-12.826117
952.821000	-6.189773
953.027000	-14.355716
953.233000	-16.063242
953.438000	-16.975312
953.644000	2.533947
953.850000	-3.040112
954.056000	-8.975351
954.261000	-10.381074
954.467000	-1.204266
954.673000	7.845109
954.878000	-6.625543
955.084000	-5.955433
955.290000	-18.510399
955.495000	-21.159982
955.701000	-18.651192
955.907000	1.401224
956.112000	2.511362
956.318000	7.852135
956.524000	6.273397
956.730000	-6.626389
956.935000	-10.331026
957.141000	-15.750167
957.347000	-3.270682
957.552000	-7.262169
957.758000	-26.113224
957.964000	-33.445483
958.169000	4.652025
958.375000	3.794204
958.581000	-11.379779
958.786000	-20.390675
958.992000	-25.771588
959.198000	-10.140411
959.404000	-5.788831
959.609000	-12.506384
959.815000	-14.405912
960.021000	0.166690
960.226000	-4.265300
960.432000	-24.432630
960.638000	-17.308555
960.843000	-10.211996
961.049000	-13.271602
961.255000	-1.708912
961.460000	-13.406532
961.666000	-33.566422
961.872000	-17.837631
962.078000	-14.940157
962.283000	-23.907482
962.489000	-24.967832
962.695000	-15.034582
962.900000	-14.104694
963.106000	-15.077632
963.312000	-17.932702
963.517000	-19.228091
963.723000	-24.366536
963.929000	-1.331373
964.134000	9.604126
964.340000	-14.779935
964.546000	-19.668031
964.752000	-22.753446
964.957000	-27.647359
965.163000	-1.736218
965.369000	-5.134881
965.574000	-4.469878
965.780000	-12.738107
966.000000	-18.862004
966.220000	-13.367398
966.440000	-14.711026
966.661000	-1.445240
966.881000	-20.167102
967.101000	-38.966475
967.321000	-40.420420
967.541000	-15.226575
967.761000	-18.600021
967.981000	-14.640547
968.202000	-9.599493
968.422000	1.757639
968.642000	0.982020
968.862000	-1.552960
969.082000	-14.039629
969.302000	-2.228692
969.522000	-7.214666
969.743000	8.238853
969.963000	-14.580890
970.183000	-30.377950
970.403000	-28.734477
970.623000	-21.875276
970.843000	-1.012495
971.063000	-5.434355
971.284000	-24.465952
971.504000	-32.670182
971.724000	-11.987038
971.944000	-25.747300
972.164000	-35.672854
972.384000	-27.600124
972.604000	-45.067898
972.825000	-48.268123
973.045000	-37.092821
973.265000	21.400095
973.485000	10.002238
973.705000	-9.328463
973.925000	-16.647016
974.145000	-48.594649
974.365000	-14.678418
974.586000	-14.048878
974.806000	-32.156463
975.026000	-0.933949
975.246000	-13.869727
975.466000	-28.784098
975.686000	-10.701602
975.906000	-18.823887
976.127000	-46.690921
976.347000	-39.025900
976.567000	-5.701822
976.787000	-8.966253
977.007000	-23.237721
977.227000	-29.474282
977.447000	-32.812828
977.668000	-49.493693
977.888000	-31.585434
978.108000	-31.441229
978.328000	-19.603726
978.548000	8.767046
978.768000	12.707704
978.988000	-2.790428
979.209000	-17.929160
979.429000	-22.547468
979.649000	-6.593265
979.869000	-25.582299
980.089000	-38.413172
980.309000	-44.079660
980.529000	-53.580990
980.750000	-32.388912
980.970000	-39.106761
981.190000	-24.608500
981.410000	-27.932566
981.630000	-45.083118
981.850000	-25.820846
982.070000	-11.398829
982.291000	-45.355605
982.511000	-42.581645
982.731000	-4.488678
982.951000	-25.937458
983.171000	-21.609329
983.391000	-21.630853
983.611000	0.360393
983.832000	-29.759729
984.052000	-53.246450
984.272000	-22.018651
984.492000	-10.160425
984.712000	-25.934081
984.932000	-47.193036
985.152000	-48.946018
985.373000	-41.319190
985.593000	-18.014938
985.813000	-23.458930
986.033000	-38.778822
986.253000	6.008794
986.473000	12.101810
986.693000	-32.120071
986.914000	-40.501397
987.134000	11.511026
987.354000	-27.195192
987.574000	179.176528
987.794000	121.815947
988.014000	-35.137654
988.234000	-20.410428
988.455000	-2.850570
988.675000	-5.771200
988.895000	-22.300214
989.115000	-45.627787
989.335000	-24.066448
989.555000	-8.401766
989.775000	-47.410343
989.995000	-34.467860
990.216000	-24.608502
990.436000	-15.525170
990.656000	16.511548
990.876000	-21.947315
991.096000	-14.104299
991.316000	21.298655
991.536000	-13.275209
991.757000	-32.556856
991.977000	-71.808415
992.197000	-9.131528
992.417000	-14.639621
992.637000	-73.756526
992.857000	-85.702513
993.077000	-78.877617
993.298000	-46.745849
993.518000	-45.627834
993.738000	-88.477939
993.958000	-38.560868
994.178000	-44.337963
994.398000	-40.109077
994.618000	-77.433396
994.839000	-129.991139
995.059000	-32.199749
995.279000	37.352459
995.499000	-17.274654
995.719000	-5.510813
995.939000	-35.645720
996.159000	-48.195535
996.380000	-36.894715
996.600000	-69.380433
996.820000	-38.142066
997.040000	-5.403824
997.260000	-62.371733
997.480000	-30.274780
997.700000	-96.374289
997.921000	-77.347835
998.141000	23.344128
998.361000	6.868511
998.581000	-50.901225
998.801000	-86.245834
999.021000	-62.787088
999.241000	-46.321835
999.462000	-66.522938
999.682000	-111.397134
999.902000	-65.746904
1000.122000	-83.048290
1000.342000	-139.140239
1000.562000	-63.500817
1000.782000	-73.941836
1001.003000	-1037.875263
