Wavelength	Irradiance
(nm)	(mW/cm2/nm)

294.396000	0.000000
294.577000	0.000000
294.757000	0.000000
294.938000	-0.000000
295.118000	-0.000000
295.299000	0.000000
295.479000	-0.000000
295.660000	-0.000000
295.840000	-0.000000
296.021000	-0.000000
296.202000	-0.000000
296.382000	-0.000000
296.563000	-0.000000
296.743000	-0.000000
296.924000	0.000000
297.104000	-0.000000
297.285000	-0.000000
297.465000	-0.000000
297.646000	-0.000000
297.826000	-0.000000
298.007000	0.000000
298.187000	-0.000000
298.368000	-0.000000
298.548000	0.000000
298.729000	0.000000
298.909000	-0.000000
299.090000	-0.000000
299.270000	-0.000000
299.451000	-0.000000
299.631000	-0.000000
299.812000	-0.000000
299.992000	0.000000
300.173000	0.000000
300.353000	-0.000000
300.534000	0.000000
300.714000	0.000000
300.895000	0.000000
301.075000	-0.000000
301.256000	0.000000
301.436000	-0.000000
301.617000	-0.000000
301.797000	-0.000000
301.978000	0.000000
302.159000	0.000000
302.339000	0.000000
302.520000	-0.000000
302.700000	-0.000000
302.881000	0.000000
303.061000	0.000000
303.242000	0.000000
303.422000	0.000000
303.603000	-0.000000
303.783000	-0.000000
303.964000	-0.000000
304.144000	-0.000000
304.325000	-0.000000
304.505000	0.000000
304.686000	-0.000000
304.866000	-0.000000
305.047000	-0.000000
305.227000	-0.000000
305.408000	-0.000000
305.588000	-0.000000
305.769000	-0.000000
305.949000	-0.000000
306.130000	-0.000000
306.310000	-0.000000
306.491000	-0.000000
306.671000	0.000000
306.852000	-0.000000
307.032000	-0.000000
307.213000	-0.000000
307.393000	-0.000000
307.574000	0.000000
307.755000	0.000000
307.935000	0.000000
308.116000	-0.000000
308.296000	-0.000000
308.477000	0.000000
308.657000	0.000000
308.838000	0.000000
309.018000	0.000000
309.199000	-0.000000
309.379000	-0.000000
309.560000	0.000000
309.740000	-0.000000
309.921000	0.000000
310.101000	0.000000
310.282000	-0.000000
310.462000	-0.000000
310.643000	-0.000000
310.823000	-0.000000
311.004000	-0.000000
311.184000	-0.000000
311.365000	0.000000
311.545000	0.000000
311.726000	0.000000
311.906000	-0.000000
312.087000	0.000000
312.267000	-0.000000
312.448000	-0.000000
312.628000	-0.000000
312.809000	-0.000000
312.989000	-0.000000
313.170000	-0.000000
313.344000	-0.000000
313.518000	-0.000000
313.691000	-0.000000
313.865000	-0.000000
314.039000	-0.000000
314.213000	-0.000000
314.387000	-0.000000
314.560000	-0.000000
314.734000	-0.000000
314.908000	-0.000000
315.082000	-0.000000
315.255000	0.000000
315.429000	0.000000
315.603000	0.000000
315.777000	-0.000000
315.951000	0.000000
316.124000	-0.000000
316.298000	-0.000000
316.472000	-0.000000
316.646000	-0.000000
316.820000	-0.000000
316.993000	0.000000
317.167000	-0.000000
317.341000	-0.000000
317.515000	-0.000000
317.688000	-0.000000
317.862000	-0.000000
318.036000	-0.000000
318.210000	-0.000000
318.384000	-0.000000
318.557000	-0.000000
318.731000	-0.000000
318.905000	-0.000000
319.079000	0.000000
319.253000	-0.000000
319.426000	0.000000
319.600000	0.000000
319.774000	-0.000000
319.948000	-0.000000
320.122000	0.000000
320.295000	-0.000000
320.469000	-0.000000
320.643000	-0.000000
320.817000	-0.000000
320.990000	-0.000000
321.164000	-0.000000
321.338000	-0.000000
321.512000	-0.000000
321.686000	-0.000000
321.859000	-0.000000
322.033000	-0.000000
322.207000	-0.000000
322.381000	-0.000000
322.555000	0.000000
322.728000	-0.000000
322.902000	-0.000000
323.076000	-0.000000
323.250000	-0.000000
323.423000	-0.000000
323.597000	-0.000000
323.771000	-0.000000
323.945000	-0.000000
324.119000	-0.000000
324.292000	0.000000
324.466000	-0.000000
324.640000	0.000000
324.814000	0.000000
324.988000	-0.000000
325.161000	-0.000000
325.335000	-0.000000
325.509000	-0.000000
325.683000	-0.000000
325.856000	-0.000000
326.030000	-0.000000
326.204000	-0.000000
326.378000	-0.000000
326.552000	-0.000000
326.725000	-0.000000
326.899000	-0.000000
327.073000	-0.000000
327.247000	-0.000000
327.421000	0.000000
327.594000	-0.000000
327.768000	-0.000000
327.942000	-0.000000
328.116000	0.000000
328.289000	0.000000
328.463000	0.000000
328.637000	0.000000
328.811000	-0.000000
328.985000	-0.000000
329.158000	-0.000000
329.332000	-0.000000
329.506000	-0.000000
329.680000	-0.000000
329.854000	-0.000000
330.027000	-0.000000
330.201000	0.000000
330.375000	0.000000
330.549000	0.000000
330.723000	-0.000000
330.896000	-0.000000
331.070000	-0.000000
331.244000	-0.000000
331.418000	-0.000000
331.591000	-0.000000
331.765000	-0.000000
331.939000	-0.000000
332.113000	-0.000000
332.287000	-0.000000
332.460000	0.000000
332.634000	0.000000
332.808000	-0.000000
332.982000	-0.000000
333.156000	-0.000000
333.329000	-0.000000
333.503000	-0.000000
333.677000	-0.000000
333.851000	-0.000000
334.024000	-0.000000
334.198000	-0.000000
334.372000	-0.000000
334.546000	-0.000000
334.720000	-0.000000
334.893000	-0.000000
335.067000	-0.000000
335.241000	-0.000000
335.415000	-0.000000
335.589000	-0.000000
335.762000	-0.000000
335.936000	-0.000000
336.110000	-0.000000
336.284000	-0.000000
336.458000	-0.000000
336.631000	-0.000000
336.805000	-0.000000
336.979000	-0.000000
337.153000	-0.000000
337.326000	-0.000000
337.500000	-0.000000
337.674000	-0.000000
337.848000	-0.000000
338.022000	0.000000
338.195000	-0.000000
338.369000	-0.000000
338.543000	-0.000000
338.717000	-0.000000
338.891000	0.000000
339.064000	0.000000
339.238000	-0.000000
339.412000	-0.000000
339.586000	-0.000000
339.759000	-0.000000
339.933000	-0.000000
340.107000	0.000000
340.281000	-0.000000
340.455000	-0.000000
340.628000	-0.000000
340.802000	-0.000000
340.976000	-0.000000
341.150000	-0.000000
341.324000	-0.000000
341.497000	-0.000000
341.671000	-0.000000
341.845000	-0.000000
342.019000	-0.000000
342.192000	-0.000000
342.366000	-0.000000
342.540000	-0.000000
342.714000	-0.000000
342.888000	-0.000000
343.061000	-0.000000
343.235000	-0.000000
343.409000	-0.000000
343.583000	-0.000000
343.757000	-0.000000
343.930000	-0.000000
344.104000	-0.000000
344.278000	0.000000
344.452000	0.000000
344.626000	-0.000000
344.799000	-0.000000
344.973000	-0.000000
345.147000	-0.000000
345.321000	-0.000000
345.494000	-0.000000
345.668000	0.000000
345.842000	0.000000
346.016000	-0.000000
346.190000	0.000000
346.363000	0.000000
346.537000	-0.000000
346.711000	-0.000000
346.885000	-0.000000
347.059000	-0.000000
347.232000	0.000000
347.406000	0.000000
347.580000	-0.000000
347.754000	-0.000000
347.927000	-0.000000
348.101000	0.000000
348.275000	-0.000000
348.449000	-0.000000
348.623000	-0.000000
348.796000	0.000000
348.970000	0.000000
349.144000	-0.000000
349.318000	-0.000000
349.492000	-0.000000
349.665000	-0.000000
349.839000	-0.000000
350.013000	-0.000000
350.187000	-0.000000
350.361000	-0.000000
350.534000	-0.000000
350.708000	-0.000000
350.882000	-0.000000
351.056000	0.000000
351.229000	-0.000000
351.403000	-0.000000
351.577000	-0.000000
351.751000	-0.000000
351.925000	-0.000000
352.098000	-0.000000
352.272000	-0.000000
352.446000	-0.000000
352.620000	-0.000000
352.794000	-0.000000
352.967000	-0.000000
353.141000	0.000000
353.315000	0.000000
353.489000	-0.000000
353.662000	-0.000000
353.836000	-0.000000
354.010000	-0.000000
354.184000	-0.000000
354.358000	-0.000000
354.531000	-0.000000
354.705000	-0.000000
354.879000	-0.000000
355.053000	-0.000000
355.227000	-0.000000
355.400000	-0.000000
355.574000	0.000000
355.748000	0.000000
355.922000	-0.000000
356.095000	-0.000000
356.269000	-0.000000
356.443000	-0.000000
356.617000	-0.000000
356.791000	-0.000000
356.964000	-0.000000
357.138000	-0.000000
357.312000	-0.000000
357.486000	-0.000000
357.660000	0.000000
357.833000	0.000000
358.007000	-0.000000
358.181000	-0.000000
358.355000	-0.000000
358.529000	-0.000000
358.702000	-0.000000
358.876000	-0.000000
359.050000	-0.000000
359.224000	-0.000000
359.397000	0.000000
359.571000	-0.000000
359.745000	-0.000000
359.919000	-0.000000
360.093000	-0.025291
360.266000	0.037664
360.440000	0.082650
360.614000	0.136554
360.788000	-0.004021
360.962000	-0.254678
361.135000	-0.092423
361.309000	-0.191795
361.483000	-0.288244
361.657000	-0.220784
361.830000	-0.246455
362.004000	-0.037583
362.178000	-0.348423
362.352000	-0.273223
362.526000	-0.055149
362.699000	-0.066428
362.873000	-0.392151
363.047000	-0.339810
363.221000	-0.372027
363.395000	-0.195806
363.568000	-0.193977
363.742000	-0.258567
363.916000	-0.240957
364.090000	-0.332326
364.263000	-0.352842
364.437000	-0.363897
364.611000	-0.010513
364.785000	-0.025958
364.959000	-0.252089
365.132000	-0.288408
365.306000	-0.326188
365.480000	-0.121838
365.656000	-0.214710
365.831000	-0.229110
366.007000	-0.182278
366.183000	-0.138509
366.358000	-0.286099
366.534000	-0.194079
366.710000	-0.332544
366.886000	-0.264903
367.061000	-0.126358
367.237000	-0.044911
367.413000	-0.172177
367.588000	-0.290081
367.764000	-0.356894
367.940000	-0.389370
368.115000	-0.262423
368.291000	-0.316316
368.467000	-0.191588
368.643000	0.130453
368.818000	-0.281159
368.994000	-0.383045
369.170000	-0.306012
369.345000	-0.259349
369.521000	-0.288107
369.697000	-0.151943
369.872000	-0.214555
370.048000	-0.390543
370.224000	-0.301006
370.399000	-0.496601
370.575000	-0.380577
370.751000	-0.467113
370.927000	-0.428485
371.102000	-0.412694
371.278000	-0.397545
371.454000	-0.297772
371.629000	-0.021126
371.805000	-0.086046
371.981000	0.073925
372.156000	0.314838
372.332000	0.078242
372.508000	0.024371
372.683000	-0.053297
372.859000	-0.177296
373.035000	-0.218657
373.211000	0.232601
373.386000	-0.021395
373.562000	-0.500103
373.738000	-0.563104
373.913000	-0.615012
374.089000	-0.420395
374.265000	-0.041061
374.440000	0.008285
374.616000	0.047949
374.792000	-0.204283
374.968000	0.130479
375.143000	-0.050269
375.319000	-0.218545
375.495000	-0.309587
375.670000	-0.231062
375.846000	-0.138517
376.022000	-0.317803
376.197000	-0.233532
376.373000	-0.399875
376.549000	-0.420908
376.724000	-0.470593
376.900000	-0.375399
377.076000	-0.222792
377.252000	0.032996
377.427000	0.137561
377.603000	-0.225686
377.779000	-0.232174
377.954000	-0.376869
378.130000	-0.206078
378.306000	-0.128659
378.481000	-0.137622
378.657000	-0.231349
378.833000	-0.331514
379.009000	-0.125867
379.184000	0.007930
379.360000	-0.105334
379.536000	-0.128400
379.711000	-0.211110
379.887000	-0.331858
380.063000	-0.353471
380.238000	-0.400255
380.414000	-0.080224
380.590000	-0.290653
380.765000	-0.283420
380.941000	-0.061061
381.117000	-0.035781
381.293000	-0.162965
381.468000	-0.336112
381.644000	-0.210283
381.820000	-0.091982
381.995000	-0.007871
382.171000	0.267311
382.347000	0.225913
382.522000	-0.252922
382.698000	0.067211
382.874000	0.079595
383.050000	-0.375481
383.225000	0.020391
383.401000	0.243919
383.577000	-0.080827
383.752000	-0.247130
383.928000	-0.227966
384.104000	-0.084251
384.279000	-0.224319
384.455000	-0.177787
384.631000	-0.202819
384.806000	-0.386900
384.982000	-0.159655
385.158000	-0.245458
385.334000	-0.081594
385.509000	-0.177782
385.685000	-0.450667
385.861000	-0.271683
386.036000	-0.357770
386.212000	-0.564410
386.388000	-0.373182
386.563000	-0.329555
386.739000	-0.339236
386.915000	-0.521442
387.090000	-0.232285
387.266000	-0.054374
387.442000	0.051219
387.618000	-0.072371
387.793000	-0.355649
387.969000	-0.535528
388.145000	-0.487559
388.320000	-0.431020
388.496000	-0.367809
388.672000	-0.577688
388.847000	-0.197680
389.023000	-0.152684
389.199000	-0.379827
389.375000	-0.139067
389.550000	-0.347306
389.726000	-0.190058
389.902000	-0.358234
390.077000	-0.245047
390.253000	-0.169756
390.429000	-0.253821
390.604000	-0.178736
390.780000	-0.129206
390.956000	-0.209656
391.131000	-0.275495
391.307000	0.076831
391.483000	-0.131015
391.659000	-0.385267
391.834000	-0.136897
392.010000	-0.262907
392.186000	-0.302284
392.361000	-0.239636
392.537000	-0.374655
392.713000	0.105200
392.888000	0.244843
393.064000	-0.084885
393.240000	-0.233216
393.416000	-0.329218
393.591000	-0.423789
393.767000	-0.463919
393.943000	-0.363825
394.118000	-0.007324
394.294000	0.188834
394.470000	0.004380
394.645000	0.039297
394.821000	0.338154
394.997000	-0.033459
395.172000	-0.099848
395.348000	-0.227638
395.524000	-0.479832
395.700000	-0.380986
395.875000	-0.182430
396.051000	-0.124808
396.227000	-0.157535
396.402000	-0.175807
396.578000	-0.071013
396.754000	-0.269537
396.929000	-0.305641
397.105000	-0.010030
397.281000	-0.073049
397.457000	-0.235647
397.632000	-0.210554
397.808000	-0.487785
397.984000	-0.589045
398.159000	-0.461491
398.335000	-0.283697
398.511000	0.194949
398.686000	-0.052595
398.862000	-0.328971
399.038000	-0.412618
399.213000	-0.141564
399.389000	-0.461680
399.565000	-0.159092
399.741000	0.133601
399.916000	0.007100
400.092000	0.219010
400.268000	-0.169563
400.443000	-0.293537
400.619000	0.072186
400.795000	-0.041198
400.970000	-0.306997
401.146000	-0.316642
401.322000	0.060923
401.497000	0.471451
401.673000	0.112422
401.849000	-0.225518
402.025000	-0.018361
402.200000	-0.164795
402.376000	-0.254827
402.552000	0.204987
402.727000	-0.035177
402.903000	-0.324353
403.079000	-0.240267
403.254000	0.035157
403.430000	0.018160
403.606000	-0.121731
403.782000	-0.141142
403.957000	-0.332136
404.133000	-0.428537
404.309000	-0.240188
404.484000	-0.015396
404.660000	-0.023860
404.841000	-0.155884
405.023000	0.046091
405.204000	-0.040624
405.385000	-0.384174
405.566000	-0.362833
405.748000	-0.157122
405.929000	0.021339
406.110000	-0.066089
406.292000	-0.174012
406.473000	-0.087919
406.654000	-0.282732
406.835000	-0.063082
407.017000	-0.152221
407.198000	-0.136714
407.379000	-0.114303
407.560000	-0.136763
407.742000	-0.190727
407.923000	-0.099392
408.104000	-0.193661
408.286000	-0.120967
408.467000	-0.045770
408.648000	-0.335295
408.829000	-0.389570
409.011000	-0.204051
409.192000	-0.386003
409.373000	-0.179521
409.555000	-0.034797
409.736000	0.009678
409.917000	-0.173461
410.098000	-0.197126
410.280000	-0.069795
410.461000	-0.086064
410.642000	-0.034215
410.823000	0.165542
411.005000	0.097260
411.186000	-0.108291
411.367000	-0.207165
411.549000	-0.209757
411.730000	0.053453
411.911000	0.165560
412.092000	-0.085944
412.274000	-0.090712
412.455000	-0.017637
412.636000	-0.012222
412.818000	-0.206941
412.999000	-0.267338
413.180000	-0.174346
413.361000	-0.174995
413.543000	-0.249621
413.724000	-0.300124
413.905000	-0.281291
414.087000	-0.265695
414.268000	-0.230769
414.449000	-0.220509
414.630000	-0.339428
414.812000	-0.392295
414.993000	-0.019911
415.174000	0.120850
415.355000	-0.092200
415.537000	-0.320606
415.718000	-0.054599
415.899000	-0.118167
416.081000	-0.218172
416.262000	-0.064657
416.443000	-0.159264
416.624000	-0.093236
416.806000	0.011841
416.987000	0.117660
417.168000	0.043365
417.350000	-0.143204
417.531000	-0.158014
417.712000	-0.113604
417.893000	0.063960
418.075000	0.175557
418.256000	-0.029996
418.437000	0.035355
418.618000	0.189186
418.800000	0.254023
418.981000	-0.019443
419.162000	0.070833
419.344000	0.252782
419.525000	0.147276
419.706000	0.074372
419.887000	0.235689
420.069000	0.401941
420.250000	0.266589
420.431000	0.227024
420.613000	0.233313
420.794000	0.003918
420.975000	0.352823
421.156000	0.190348
421.338000	0.148791
421.519000	0.143586
421.700000	0.024651
421.882000	0.105071
422.063000	0.317028
422.244000	0.825258
422.425000	0.593197
422.607000	0.191966
422.788000	0.191076
422.969000	0.114885
423.150000	0.109849
423.332000	0.039947
423.513000	0.314133
423.694000	0.409349
423.876000	0.415881
424.057000	0.514426
424.238000	0.544971
424.419000	0.567428
424.601000	0.481277
424.782000	0.452125
424.963000	0.675790
425.145000	0.607670
425.326000	0.615382
425.507000	0.663427
425.688000	0.633136
425.870000	0.482269
426.051000	0.383434
426.232000	0.427293
426.413000	0.510314
426.595000	0.608396
426.776000	0.535813
426.957000	0.613332
427.139000	0.662387
427.320000	0.704222
427.501000	0.876223
427.682000	0.918583
427.864000	0.959499
428.045000	1.141511
428.226000	1.075218
428.408000	0.756493
428.589000	0.947756
428.770000	1.025807
428.951000	0.889763
429.133000	0.763507
429.314000	0.952723
429.495000	1.005944
429.677000	1.112386
429.858000	1.129039
430.039000	1.259256
430.220000	1.406436
430.402000	1.450871
430.583000	1.214679
430.764000	1.281689
430.945000	1.469294
431.127000	1.555807
431.308000	1.462279
431.489000	1.738649
431.671000	1.807344
431.852000	1.731549
432.033000	1.652735
432.214000	1.807197
432.396000	1.863311
432.577000	1.730130
432.758000	1.653146
432.940000	1.773611
433.121000	1.975233
433.302000	2.065035
433.483000	2.288672
433.665000	2.482312
433.846000	2.416006
434.027000	2.257505
434.208000	2.201794
434.390000	2.250257
434.571000	2.740548
434.752000	3.266141
434.934000	3.208418
435.115000	3.223922
435.296000	3.347658
435.477000	3.218404
435.659000	2.884185
435.840000	3.088094
436.026000	3.142971
436.211000	3.159201
436.397000	2.934071
436.582000	3.078767
436.768000	3.416540
436.953000	3.363006
437.139000	3.455707
437.325000	3.843725
437.510000	3.840747
437.696000	4.101847
437.881000	4.177594
438.067000	3.893988
438.252000	4.014806
438.438000	4.064868
438.624000	4.182882
438.809000	4.388531
438.995000	4.531714
439.180000	4.608351
439.366000	4.622606
439.551000	4.730621
439.737000	4.920465
439.923000	5.109945
440.108000	5.062862
440.294000	5.286429
440.479000	5.538906
440.665000	5.699751
440.850000	5.668101
441.036000	5.744084
441.222000	5.927883
441.407000	5.952065
441.593000	6.205710
441.778000	6.400378
441.964000	6.567628
442.149000	6.384666
442.335000	6.463516
442.521000	6.708035
442.706000	7.060247
442.892000	7.143686
443.077000	7.271210
443.263000	7.483996
443.448000	7.550730
443.634000	7.654276
443.820000	8.079837
444.005000	8.153958
444.191000	8.070922
444.376000	8.241048
444.562000	8.682938
444.747000	8.990415
444.933000	9.018822
445.119000	8.949999
445.304000	9.056768
445.490000	9.475644
445.675000	9.637267
445.861000	9.629188
446.046000	9.879761
446.232000	10.162041
446.418000	10.412705
446.603000	10.552594
446.789000	10.693283
446.974000	10.889328
447.160000	10.899328
447.345000	11.191203
447.531000	11.232507
447.717000	11.781783
447.902000	12.176560
448.088000	12.301569
448.273000	12.336009
448.459000	12.524867
448.644000	12.733142
448.830000	12.865198
449.016000	13.049935
449.201000	13.452875
449.387000	13.736528
449.572000	13.939190
449.758000	14.018674
449.943000	14.173999
450.129000	14.373746
450.315000	14.611315
450.500000	14.990363
450.686000	15.314126
450.871000	15.499235
451.057000	15.863744
451.243000	16.063900
451.428000	16.184957
451.614000	16.411172
451.799000	16.665769
451.985000	17.114317
452.170000	17.326826
452.356000	17.320998
452.542000	17.623482
452.727000	17.800635
452.913000	18.021217
453.098000	18.432555
453.284000	18.803370
453.469000	18.832207
453.655000	19.168435
453.841000	19.315878
454.026000	19.211691
454.212000	19.374274
454.397000	19.561662
454.583000	19.743177
454.768000	19.904487
454.954000	20.084435
455.140000	20.232550
455.325000	20.177680
455.511000	20.343100
455.696000	20.492937
455.882000	20.616320
456.067000	20.986615
456.253000	20.927202
456.439000	20.841593
456.624000	20.926665
456.810000	20.955428
456.995000	20.966432
457.181000	20.867982
457.366000	21.006239
457.552000	20.909346
457.738000	20.999067
457.923000	21.095866
458.109000	21.322796
458.294000	21.190073
458.480000	21.162612
458.665000	21.003490
458.851000	20.674179
459.037000	20.354381
459.222000	20.372819
459.408000	20.322445
459.593000	20.220131
459.779000	20.205856
459.964000	20.171922
460.150000	20.159171
460.336000	20.043810
460.521000	19.478180
460.707000	19.140480
460.892000	18.738539
461.078000	18.725998
461.263000	18.635990
461.449000	18.439506
461.635000	18.309220
461.820000	18.079045
462.006000	17.830064
462.191000	17.456921
462.377000	17.092694
462.562000	17.310413
462.748000	17.196455
462.934000	16.437261
463.119000	16.000179
463.305000	16.017819
463.490000	15.571991
463.676000	15.409741
463.861000	15.268223
464.047000	14.846295
464.233000	14.558087
464.418000	14.380248
464.604000	14.096056
464.789000	14.070011
464.975000	13.827681
465.160000	13.430772
465.346000	13.195020
465.532000	12.921053
465.717000	12.569039
465.903000	12.665894
466.088000	12.448953
466.274000	11.912885
466.459000	11.746221
466.645000	11.858851
466.831000	11.491141
467.016000	11.328878
467.202000	11.115565
467.387000	10.794952
467.573000	10.431482
467.758000	10.545744
467.944000	10.317441
468.130000	10.076498
468.315000	10.014307
468.501000	9.897360
468.686000	9.614283
468.872000	9.392084
469.057000	9.361899
469.243000	9.155232
469.429000	8.891183
469.614000	8.717896
469.800000	8.540500
469.985000	8.549332
470.171000	8.458595
470.356000	8.226326
470.542000	8.246024
470.728000	8.107364
470.913000	7.929905
471.099000	7.951908
471.284000	7.742372
471.470000	7.550280
471.655000	7.517861
471.841000	7.381837
472.027000	7.224906
472.212000	7.319227
472.398000	7.274455
472.583000	6.965388
472.769000	6.877846
472.954000	6.770683
473.140000	6.490822
473.326000	6.355892
473.511000	6.597619
473.697000	6.572045
473.882000	6.347103
474.068000	6.126411
474.253000	5.905685
474.439000	5.928843
474.625000	5.925861
474.810000	5.745360
474.996000	5.666740
475.181000	5.403013
475.367000	5.535991
475.552000	5.723260
475.738000	5.246118
475.924000	5.187192
476.109000	5.234197
476.295000	4.979599
476.480000	4.884424
476.666000	4.829878
476.851000	4.790018
477.037000	4.773645
477.223000	4.542644
477.408000	4.416121
477.594000	4.207707
477.779000	4.243887
477.965000	4.217814
478.151000	3.972884
478.336000	4.021858
478.522000	3.915955
478.707000	3.785851
478.893000	3.840942
479.078000	3.633292
479.264000	3.569064
479.450000	3.602102
479.635000	3.636673
479.821000	3.457295
480.006000	3.476392
480.192000	3.398133
480.377000	3.346215
480.563000	3.248128
480.749000	2.987369
480.934000	2.932840
481.120000	2.994868
481.305000	3.037878
481.491000	2.967411
481.676000	2.964211
481.862000	2.927467
482.048000	2.661393
482.233000	2.677922
482.419000	2.644522
482.604000	2.514920
482.790000	2.441907
482.975000	2.388821
483.161000	2.476272
483.347000	2.458529
483.532000	2.376365
483.718000	2.119635
483.903000	2.087023
484.089000	2.103686
484.274000	1.950697
484.460000	2.051308
484.646000	2.027796
484.831000	1.881137
485.017000	1.930362
485.202000	1.901152
485.388000	2.151252
485.573000	2.098019
485.759000	1.792889
485.945000	1.924931
486.130000	1.711390
486.316000	1.727766
486.501000	1.762382
486.687000	1.577939
486.872000	1.508870
487.058000	1.672522
487.244000	1.640223
487.429000	1.404760
487.615000	1.561455
487.800000	1.664818
487.986000	1.492926
488.171000	1.547137
488.357000	1.446570
488.543000	1.445179
488.728000	1.445649
488.914000	1.363149
489.099000	1.271182
489.285000	1.260585
489.470000	1.435274
489.656000	1.444083
489.842000	1.324846
490.027000	1.372707
490.213000	1.215271
490.398000	0.923126
490.584000	1.202513
490.769000	1.233269
490.955000	1.194679
491.141000	1.243745
491.326000	1.180239
491.512000	1.282688
491.697000	1.116368
491.883000	0.932115
492.068000	0.871287
492.254000	0.903365
492.440000	0.990537
492.625000	0.921056
492.811000	0.845203
492.996000	0.925510
493.182000	0.909341
493.367000	0.750946
493.553000	0.648852
493.739000	0.721651
493.924000	0.811484
494.110000	0.816466
494.295000	0.684123
494.481000	0.764110
494.666000	0.777852
494.852000	0.934755
495.038000	0.746833
495.223000	0.625643
495.409000	0.678613
495.594000	0.610164
495.780000	0.612327
495.965000	0.522834
496.151000	0.754712
496.337000	0.804587
496.522000	0.523430
496.708000	0.632082
496.893000	0.785610
497.079000	0.568807
497.264000	0.541619
497.450000	0.562346
497.636000	0.616996
497.821000	0.449673
498.007000	0.639616
498.192000	0.718622
498.378000	0.551314
498.563000	0.432048
498.749000	0.466116
498.935000	0.495258
499.120000	0.592681
499.306000	0.392270
499.491000	0.316870
499.677000	0.431963
499.862000	0.519389
500.048000	0.546458
500.234000	0.394133
500.419000	0.391118
500.605000	0.488631
500.790000	0.387298
500.976000	0.301924
501.161000	0.215869
501.347000	0.380325
501.533000	0.481555
501.718000	0.399034
501.904000	0.293182
502.089000	0.334895
502.275000	0.416362
502.460000	0.284531
502.646000	0.346501
502.832000	0.455085
503.017000	0.369859
503.203000	0.128460
503.388000	0.140048
503.574000	0.319672
503.759000	0.357074
503.945000	0.370827
504.131000	0.284456
504.316000	0.227989
504.502000	0.250602
504.687000	0.202334
504.873000	0.106403
505.058000	0.070612
505.244000	-0.002824
505.430000	0.066956
505.615000	0.189792
505.801000	0.241217
505.986000	0.091314
506.172000	0.174262
506.358000	0.204870
506.543000	0.180226
506.729000	0.380496
506.914000	0.294279
507.100000	0.405423
507.285000	0.185459
507.471000	0.050351
507.657000	0.312516
507.842000	0.192563
508.028000	0.029426
508.213000	0.090402
508.399000	0.113475
508.584000	0.239584
508.770000	0.119104
508.956000	0.063890
509.141000	0.134335
509.327000	0.195713
509.512000	0.124571
509.698000	0.119046
509.883000	0.201509
510.069000	0.077565
510.255000	0.121669
510.440000	0.148677
510.626000	0.087242
510.811000	0.022082
510.997000	0.131560
511.182000	0.390374
511.368000	0.250610
511.554000	-0.083586
511.739000	-0.010561
511.925000	0.181579
512.110000	0.123819
512.296000	0.272313
512.481000	0.270060
512.667000	0.197232
512.853000	0.010585
513.038000	0.056854
513.224000	0.024096
513.409000	-0.054934
513.595000	0.055023
513.780000	-0.087798
513.966000	-0.010587
514.152000	0.002888
514.337000	-0.068373
514.523000	-0.024077
514.708000	0.022174
514.894000	0.080239
515.079000	-0.008667
515.265000	-0.024157
515.451000	0.008700
515.636000	-0.093698
515.822000	0.024179
516.007000	-0.074483
516.193000	0.062814
516.378000	0.163595
516.564000	0.014499
516.750000	0.035777
516.935000	0.142213
517.121000	0.140251
517.306000	0.225575
517.492000	0.183252
517.677000	-0.043582
517.863000	-0.084274
518.049000	0.064921
518.234000	-0.022270
518.420000	0.132814
518.605000	0.291703
518.791000	0.183071
518.976000	0.037926
519.162000	-0.049505
519.348000	0.084468
519.533000	0.072711
519.719000	0.307637
519.904000	0.168080
520.090000	0.086294
520.275000	0.270697
520.461000	0.232347
520.647000	0.026243
520.832000	-0.147166
521.018000	-0.037911
521.203000	-0.012596
521.389000	-0.177180
521.574000	-0.045552
521.760000	0.072785
521.946000	0.057432
522.131000	-0.080864
522.317000	-0.041829
522.502000	-0.072926
522.688000	0.008755
522.873000	-0.016553
523.059000	-0.010718
523.245000	-0.016549
523.430000	-0.137434
523.616000	-0.121804
523.801000	-0.207829
523.987000	-0.135869
524.172000	0.002932
524.358000	-0.000978
524.544000	-0.030262
524.729000	0.104175
524.915000	0.143462
525.100000	0.004878
525.286000	0.057642
525.471000	0.036251
525.657000	0.081403
525.843000	-0.152196
526.028000	-0.032426
526.214000	-0.075632
526.399000	-0.188149
526.585000	-0.215775
526.770000	-0.209839
526.956000	-0.091849
527.142000	-0.180702
527.327000	-0.054372
527.513000	-0.113827
527.698000	-0.141700
527.884000	-0.122326
528.069000	-0.135975
528.255000	-0.022858
528.441000	-0.098506
528.626000	-0.026948
528.812000	0.180505
528.997000	0.022983
529.183000	-0.088898
529.368000	-0.023080
529.554000	-0.055338
529.740000	-0.075674
529.925000	-0.110002
530.111000	-0.081835
530.296000	-0.019224
530.482000	0.112586
530.667000	0.029426
530.853000	0.080418
531.039000	-0.001020
531.224000	-0.001026
531.410000	0.101509
531.595000	0.009237
531.781000	0.095460
531.967000	-0.017547
532.152000	0.085939
532.338000	-0.015562
532.523000	-0.194375
532.709000	-0.197180
532.894000	-0.078631
533.080000	-0.038833
533.266000	-0.175405
533.451000	-0.173949
533.637000	-0.123746
533.822000	0.077517
534.008000	-0.085937
534.193000	-0.071347
534.379000	0.065191
534.565000	-0.018241
534.750000	-0.065696
534.936000	0.126487
535.121000	-0.055278
535.307000	-0.005429
535.492000	0.040238
535.678000	-0.167382
535.864000	-0.031883
536.049000	0.195719
536.235000	-0.034317
536.420000	0.021129
536.606000	-0.021189
536.791000	-0.176131
536.977000	-0.151829
537.163000	0.086935
537.348000	0.051104
537.534000	0.140619
537.719000	-0.010315
537.905000	-0.176036
538.090000	0.019637
538.276000	0.126352
538.462000	0.103504
538.647000	0.110929
538.833000	-0.003522
539.018000	0.140367
539.204000	0.069642
539.389000	-0.096265
539.575000	0.205775
539.761000	0.173331
539.946000	-0.114097
540.132000	0.030143
540.317000	-0.112453
540.503000	0.025447
540.688000	0.074384
540.874000	0.314341
541.060000	0.446290
541.245000	0.264117
541.431000	0.127011
541.616000	0.260899
541.802000	0.194295
541.987000	0.284209
542.173000	0.297752
542.359000	0.198320
542.544000	0.260305
542.730000	0.088781
542.915000	0.056406
543.101000	0.262125
543.286000	0.162127
543.472000	0.072085
543.658000	0.084792
543.843000	0.105300
544.029000	0.365279
544.214000	0.200078
544.400000	-0.151822
544.585000	0.047309
544.771000	0.157785
544.957000	0.407528
545.142000	0.454183
545.328000	0.499238
545.513000	0.554451
545.699000	0.525691
545.884000	0.326021
546.070000	0.258597
546.261000	0.215196
546.451000	0.003925
546.642000	-0.213616
546.833000	-0.014441
547.023000	-0.103687
547.214000	-0.148911
547.405000	0.054020
547.595000	0.336410
547.786000	0.231759
547.977000	-0.030543
548.167000	-0.134235
548.358000	-0.113469
548.549000	0.274667
548.740000	0.052254
548.930000	-0.272082
549.121000	-0.081994
549.312000	-0.163265
549.502000	-0.307031
549.693000	-0.168933
549.884000	-0.044612
550.074000	0.028489
550.265000	-0.175422
550.456000	-0.014995
550.646000	0.023229
550.837000	-0.028704
551.028000	-0.102653
551.218000	-0.015052
551.409000	-0.133310
551.600000	-0.072901
551.790000	0.040047
551.981000	-0.208509
552.172000	-0.120359
552.362000	0.197745
552.553000	0.209869
552.744000	-0.001389
552.934000	-0.040314
553.125000	-0.107231
553.316000	-0.157466
553.506000	0.210853
553.697000	0.051858
553.888000	0.051767
554.079000	0.197429
554.269000	0.124744
554.460000	-0.186885
554.651000	-0.271474
554.841000	-0.381616
555.032000	-0.238347
555.223000	-0.151117
555.413000	0.012655
555.604000	-0.032477
555.795000	-0.117506
555.985000	-0.072351
556.176000	-0.151518
556.367000	-0.369511
556.557000	-0.254264
556.748000	-0.152287
556.939000	-0.183315
557.129000	-0.271191
557.320000	-0.134970
557.511000	-0.126209
557.701000	-0.145832
557.892000	-0.052596
558.083000	0.180337
558.273000	-0.012782
558.464000	-0.183222
558.655000	-0.154682
558.845000	-0.058012
559.036000	0.012743
559.227000	-0.029757
559.418000	0.092273
559.608000	0.129132
559.799000	-0.239517
559.990000	-0.320008
560.180000	-0.210324
560.371000	-0.391601
560.562000	-0.283724
560.752000	-0.086184
560.943000	-0.326519
561.134000	-0.508906
561.324000	-0.232321
561.515000	0.085729
561.706000	-0.052058
561.896000	-0.352380
562.087000	-0.312718
562.278000	-0.301382
562.468000	-0.388679
562.659000	-0.286864
562.850000	0.065811
563.040000	0.116219
563.231000	-0.365747
563.422000	-0.210905
563.612000	-0.247493
563.803000	-0.207962
563.994000	-0.243079
564.185000	-0.309233
564.375000	-0.151325
564.566000	-0.181647
564.757000	-0.134876
564.947000	-0.187491
565.138000	-0.128723
565.329000	-0.283173
565.519000	-0.429372
565.710000	-0.280548
565.901000	-0.076063
566.091000	0.034549
566.282000	-0.130983
566.473000	-0.108586
566.663000	-0.108460
566.854000	-0.354173
567.045000	-0.263235
567.235000	-0.094093
567.426000	-0.080427
567.617000	-0.131751
567.807000	-0.150831
567.998000	-0.107130
568.189000	-0.229121
568.379000	-0.190675
568.570000	-0.063470
568.761000	-0.171142
568.951000	-0.178943
569.142000	-0.219601
569.333000	-0.273486
569.524000	-0.328833
569.714000	-0.444220
569.905000	-0.553318
570.096000	-0.135289
570.286000	-0.014715
570.477000	0.150749
570.668000	-0.083967
570.858000	-0.094625
571.049000	-0.187257
571.240000	-0.322882
571.430000	-0.104833
571.621000	-0.149419
571.812000	-0.064528
572.002000	-0.046173
572.193000	-0.235759
572.384000	-0.119804
572.574000	-0.085643
572.765000	-0.077596
572.956000	-0.127173
573.146000	0.066965
573.337000	-0.137595
573.528000	-0.179216
573.718000	-0.016961
573.909000	-0.014332
574.100000	-0.076595
574.290000	-0.185052
574.481000	-0.187221
574.672000	-0.202947
574.863000	-0.047638
575.053000	-0.163203
575.244000	-0.070511
575.435000	-0.201082
575.625000	-0.238449
575.816000	-0.258530
576.007000	-0.149006
576.197000	-0.082912
576.388000	-0.110542
576.579000	0.041916
576.769000	0.001269
576.960000	-0.290313
577.155000	-0.466505
577.350000	-0.152785
577.545000	-0.018905
577.740000	-0.154562
577.935000	0.226975
578.130000	0.099143
578.326000	-0.233966
578.521000	-0.001251
578.716000	0.013693
578.911000	-0.210141
579.106000	-0.068132
579.301000	-0.003705
579.496000	-0.166199
579.691000	-0.382546
579.886000	-0.239235
580.081000	-0.074722
580.276000	-0.091647
580.471000	-0.184484
580.666000	-0.247584
580.861000	-0.267004
581.057000	-0.315977
581.252000	-0.181821
581.447000	-0.215505
581.642000	-0.128057
581.837000	-0.142500
582.032000	-0.171242
582.227000	0.063994
582.422000	0.085567
582.617000	-0.133168
582.812000	-0.274027
583.007000	-0.247567
583.202000	-0.299637
583.397000	-0.005948
583.592000	0.207815
583.788000	-0.076942
583.983000	-0.102886
584.178000	-0.022434
584.373000	-0.194235
584.568000	-0.203226
584.763000	-0.245755
584.958000	-0.339800
585.153000	-0.208128
585.348000	-0.205664
585.543000	-0.071762
585.738000	-0.092895
585.933000	-0.290518
586.128000	-0.071722
586.324000	-0.050690
586.519000	0.015314
586.714000	0.038905
586.909000	0.086215
587.104000	0.155229
587.299000	-0.001182
587.494000	-0.083777
587.689000	-0.135963
587.884000	-0.096053
588.079000	-0.198050
588.274000	-0.174652
588.469000	-0.100787
588.664000	-0.010686
588.859000	-0.053505
589.055000	-0.070232
589.250000	-0.141723
589.445000	-0.234900
589.640000	-0.170648
589.835000	0.082538
590.030000	0.118389
590.225000	0.139940
590.420000	-0.027548
590.615000	-0.173826
590.810000	-0.161657
591.005000	-0.174342
591.200000	-0.239368
591.395000	-0.292249
591.591000	-0.162082
591.786000	-0.049184
591.981000	-0.150393
592.176000	-0.056663
592.371000	-0.037388
592.566000	-0.095210
592.761000	0.087966
592.956000	0.032591
593.151000	0.080913
593.346000	-0.035119
593.541000	0.006049
593.736000	0.027910
593.931000	-0.125043
594.126000	-0.079027
594.322000	-0.079024
594.517000	-0.142214
594.712000	-0.290634
594.907000	-0.328293
595.102000	-0.199190
595.297000	-0.028088
595.492000	0.069758
595.687000	-0.148380
595.882000	-0.207346
596.077000	-0.089737
596.272000	0.077429
596.467000	0.106961
596.662000	-0.052917
596.857000	-0.063013
597.053000	-0.040842
597.248000	0.001237
597.443000	0.013626
597.638000	-0.033526
597.833000	-0.224965
598.028000	-0.026068
598.223000	0.065919
598.418000	-0.001246
598.613000	-0.135793
598.808000	-0.001247
599.003000	-0.008737
599.198000	-0.148713
599.393000	-0.111189
599.589000	0.056372
599.784000	-0.114076
599.979000	-0.091647
600.174000	0.096735
600.369000	-0.089291
600.564000	-0.036518
600.759000	0.208019
600.954000	0.285702
601.149000	0.135082
601.344000	-0.185769
601.539000	0.016448
601.734000	-0.072023
601.929000	-0.274883
602.124000	-0.171153
602.320000	0.031750
602.515000	0.229907
602.710000	0.202380
602.905000	-0.131083
603.100000	-0.158825
603.295000	-0.090378
603.490000	-0.001277
603.685000	0.060010
603.880000	0.090763
604.075000	-0.078177
604.270000	-0.096323
604.465000	-0.042350
604.660000	-0.273570
604.856000	-0.101390
605.051000	0.147877
605.246000	0.160604
605.441000	-0.070717
605.636000	-0.165912
605.831000	-0.021905
606.026000	-0.063110
606.221000	-0.099309
606.416000	0.055529
606.611000	0.218462
606.806000	0.267339
607.001000	0.360790
607.196000	0.130730
607.391000	-0.037589
607.587000	0.201312
607.782000	0.191175
607.977000	-0.042815
608.172000	0.316261
608.367000	0.383932
608.562000	0.189090
608.757000	0.105595
608.952000	0.124135
609.147000	0.546820
609.342000	0.471856
609.537000	0.242254
609.732000	0.263622
609.927000	0.229067
610.122000	0.321243
610.318000	0.696926
610.513000	0.802341
610.708000	0.658609
610.903000	0.733046
611.098000	0.755714
611.293000	0.695235
611.488000	0.732273
611.683000	0.699192
611.878000	0.651810
612.073000	0.681090
612.268000	0.668592
612.463000	0.715205
612.658000	0.693985
612.854000	0.658210
613.049000	0.560062
613.244000	0.714789
613.439000	0.707075
613.634000	0.420496
613.829000	0.610229
614.024000	0.453738
614.219000	0.421553
614.414000	0.770010
614.609000	0.519021
614.804000	0.355496
614.999000	0.387338
615.194000	0.490470
615.389000	0.544860
615.585000	0.381428
615.780000	0.565201
615.975000	0.514968
616.170000	0.580264
616.365000	0.808323
616.560000	0.882285
616.755000	0.846903
616.950000	0.762952
617.145000	0.815380
617.340000	0.677180
617.535000	0.401941
617.730000	0.699922
617.925000	0.558933
618.120000	0.520833
618.316000	0.935708
618.511000	0.818647
618.706000	0.604112
618.901000	0.735839
619.096000	0.915364
619.291000	0.804209
619.486000	0.864877
619.681000	0.613505
619.876000	0.541258
620.071000	0.727392
620.266000	1.054156
620.461000	1.111701
620.656000	1.074742
620.852000	1.042760
621.047000	0.905747
621.242000	0.823095
621.437000	1.220075
621.632000	1.332183
621.827000	1.102957
622.022000	0.890073
622.217000	1.039109
622.412000	1.220899
622.607000	1.210782
622.802000	1.053093
622.997000	1.065275
623.192000	1.187162
623.387000	1.161879
623.583000	0.982230
623.778000	1.366952
623.973000	1.416350
624.168000	1.422564
624.363000	1.508879
624.558000	1.505736
624.753000	1.232272
624.948000	1.524906
625.143000	1.502998
625.338000	1.470952
625.533000	1.387819
625.728000	1.536474
625.923000	1.748234
626.119000	1.622060
626.314000	1.417954
626.509000	1.358387
626.704000	1.449373
626.899000	1.555593
627.094000	1.511038
627.289000	1.491097
627.484000	1.594346
627.679000	1.581093
627.874000	1.600774
628.069000	2.041797
628.264000	1.889931
628.459000	1.773483
628.654000	1.795750
628.850000	1.677664
629.045000	1.786263
629.240000	1.773208
629.435000	1.757685
629.630000	1.894977
629.825000	1.999119
630.020000	2.030909
630.215000	1.734067
630.410000	1.887889
630.605000	1.952465
630.800000	1.925158
630.995000	2.079865
631.190000	2.283272
631.385000	2.130832
631.581000	1.983411
631.776000	2.005842
631.971000	1.854617
632.166000	1.901574
632.361000	1.718039
632.556000	1.833006
632.751000	1.982386
632.946000	1.824266
633.141000	1.676694
633.336000	1.756003
633.531000	1.862948
633.726000	1.679350
633.921000	1.468223
634.117000	1.307807
634.312000	1.176201
634.507000	1.208419
634.702000	1.402789
634.897000	1.348908
635.092000	1.439623
635.287000	1.508033
635.482000	1.299338
635.677000	1.377962
635.872000	1.412527
636.067000	1.450281
636.262000	1.238726
636.457000	0.813587
636.652000	0.802242
636.848000	0.759943
637.043000	0.797851
637.238000	0.818948
637.433000	0.727625
637.628000	0.727596
637.823000	0.922342
638.018000	0.997285
638.213000	0.718948
638.408000	0.591968
638.603000	0.522511
638.798000	0.404854
638.993000	0.511449
639.188000	0.450680
639.383000	0.409326
639.579000	0.864293
639.774000	0.593348
639.969000	0.326558
640.164000	0.217666
640.359000	0.169478
640.554000	0.405658
640.749000	0.374363
640.944000	0.469376
641.139000	0.491110
641.334000	0.225699
641.529000	-0.180594
641.724000	-0.027693
641.919000	0.177932
642.115000	0.453264
642.310000	0.393793
642.505000	0.256447
642.700000	0.184911
642.895000	0.139516
643.090000	0.287148
643.285000	0.431599
643.480000	0.360211
643.675000	0.334180
643.870000	0.552542
644.065000	0.352001
644.260000	0.028087
644.455000	0.110901
644.650000	0.001659
644.846000	0.121135
645.041000	-0.094545
645.236000	-0.297626
645.431000	-0.244770
645.626000	-0.447644
645.821000	-0.257835
646.016000	-0.085084
646.211000	0.312564
646.406000	0.195930
646.601000	0.118781
646.796000	-0.051851
646.991000	-0.296098
647.186000	-0.179394
647.381000	0.018454
647.577000	0.119228
647.772000	0.149463
647.967000	0.042066
648.162000	0.011788
648.357000	-0.055647
648.552000	0.129790
648.747000	0.170343
648.942000	0.180578
649.137000	0.103261
649.332000	-0.167806
649.527000	-0.127073
649.722000	0.171066
649.917000	0.202145
650.113000	-0.117069
650.308000	-0.205585
650.503000	-0.154531
650.698000	-0.045982
650.893000	-0.080100
651.088000	-0.011938
651.283000	0.063237
651.478000	-0.179457
651.673000	-0.025611
651.868000	-0.230958
652.063000	0.087424
652.258000	0.235025
652.453000	0.374700
652.648000	0.032553
652.844000	-0.029147
653.039000	-0.005152
653.234000	-0.482756
653.429000	-0.597208
653.624000	-0.287204
653.819000	-0.029301
654.014000	-0.081023
654.209000	-0.260993
654.404000	-0.094965
654.599000	-0.216379
654.794000	-0.216006
654.989000	0.136920
655.184000	0.019087
655.380000	-0.299946
655.575000	-0.400551
655.770000	-0.435954
655.965000	-0.283180
656.160000	-0.300712
656.355000	-0.099058
656.550000	-0.099363
656.745000	-0.033143
656.940000	-0.179819
657.135000	-0.089015
657.330000	-0.050637
657.525000	-0.302291
657.720000	-0.159287
657.915000	0.008744
658.111000	-0.082224
658.306000	0.113805
658.501000	-0.057911
658.696000	-0.338555
658.891000	-0.110564
659.086000	-0.166656
659.281000	-0.110700
659.476000	-0.329051
659.671000	-0.723140
659.866000	-0.501668
660.061000	-0.107447
660.256000	-0.022909
660.451000	-0.068788
660.646000	-0.266684
660.842000	-0.164439
661.037000	-0.327233
661.232000	-0.331245
661.427000	-0.192925
661.622000	-0.271302
661.817000	-0.416593
662.012000	-0.111963
662.207000	-0.268539
662.402000	-0.358359
662.597000	-0.158785
662.792000	-0.529392
662.987000	-0.564578
663.182000	-0.251652
663.378000	-0.158972
663.573000	-0.510316
663.768000	-0.519979
663.963000	-0.345243
664.158000	-0.366374
664.353000	0.148944
664.548000	0.328279
664.743000	-0.019755
664.938000	-0.325025
665.133000	-0.365102
665.328000	0.048632
665.523000	-0.030680
665.718000	-0.258106
665.913000	-0.291032
666.109000	-0.215592
666.304000	-0.052522
666.499000	-0.204526
666.694000	-0.001815
666.889000	0.237753
667.084000	-0.143859
667.279000	-0.256608
667.474000	-0.205766
667.669000	-0.162024
667.864000	-0.202314
668.059000	-0.188019
668.254000	-0.180947
668.449000	-0.320217
668.644000	-0.269228
668.840000	-0.034753
669.035000	-0.316883
669.230000	-0.556890
669.425000	-0.207825
669.620000	-0.329186
669.815000	-0.367291
670.010000	-0.400143
670.205000	-0.219616
670.400000	-0.138167
670.595000	-0.171848
670.790000	-0.353410
670.985000	-0.257463
671.180000	0.042649
671.376000	-0.391608
671.571000	-0.485480
671.766000	-0.393385
671.961000	-0.449487
672.156000	-0.487395
672.351000	-0.334345
672.546000	-0.368741
672.741000	-0.233462
672.936000	-0.162702
673.131000	0.380669
673.326000	0.050772
673.521000	-0.430993
673.716000	-0.570253
673.911000	-0.687429
674.107000	-0.069816
674.302000	0.224697
674.497000	-0.066163
674.692000	-0.433203
674.887000	-0.408106
675.082000	-0.332682
675.277000	-0.074245
675.472000	-0.146778
675.667000	-0.357006
675.862000	-0.376289
676.057000	-0.250390
676.252000	-0.193457
676.447000	-0.309138
676.643000	-0.132379
676.838000	0.098031
677.033000	-0.221362
677.228000	0.059821
677.423000	0.032825
677.618000	-0.451113
677.813000	-0.570817
678.008000	-0.331944
678.203000	-0.266225
678.398000	-0.434134
678.593000	-0.173323
678.788000	-0.068382
678.983000	-0.454672
679.178000	-0.333854
679.374000	-0.439920
679.569000	-0.268440
679.764000	-0.284958
679.959000	-0.458995
680.154000	-0.403919
680.349000	-0.654441
680.544000	-0.614074
680.739000	-0.444500
680.934000	-0.547780
681.129000	-0.537415
681.324000	-0.621470
681.519000	-0.288810
681.714000	-0.308836
681.909000	-0.439805
682.105000	-0.628636
682.300000	-0.170291
682.495000	-0.066079
682.690000	-0.150521
682.885000	-0.142607
683.080000	-0.304133
683.275000	-0.340558
683.470000	-0.006053
683.665000	0.147608
683.860000	0.451688
684.055000	0.070933
684.250000	-0.460503
684.445000	-0.427363
684.641000	0.156427
684.836000	-0.160756
685.031000	-0.300209
685.226000	-0.239265
685.421000	0.075878
685.616000	-0.260445
685.811000	-0.409079
686.006000	-0.096608
686.201000	-0.104970
686.396000	-0.543388
686.591000	-0.494793
686.786000	-0.068427
686.981000	-0.234333
687.176000	-0.101861
687.372000	-0.164409
687.567000	0.031231
687.762000	-0.039668
687.957000	-0.119000
688.152000	-0.391236
688.347000	-0.333255
688.542000	-0.518984
688.737000	-0.837989
688.932000	-0.864658
689.127000	-0.444518
689.322000	-0.103524
689.517000	-0.348526
689.712000	-0.540536
689.908000	-0.405282
690.103000	-0.389060
690.298000	-0.295565
690.493000	-0.287811
690.688000	-0.518700
690.883000	-0.447659
691.078000	-0.032139
691.273000	0.066429
691.468000	-0.229733
691.663000	-0.239228
691.858000	-0.036645
692.053000	-0.062509
692.248000	-0.092781
692.443000	-0.045310
692.639000	-0.166480
692.834000	-0.036847
693.029000	0.505205
693.224000	0.411747
693.419000	-0.228960
693.614000	-0.426017
693.809000	-0.470055
694.004000	-0.488465
694.199000	-0.540895
694.394000	-0.301028
694.589000	-0.534507
694.784000	-0.504224
694.979000	-0.314875
695.174000	-0.324503
695.370000	0.165283
695.565000	-0.068483
695.760000	-0.329914
695.955000	0.148710
696.150000	0.224244
696.345000	-0.412338
696.540000	-0.198715
696.740000	-0.274437
696.940000	-0.033493
697.140000	0.065088
697.340000	-0.209091
697.539000	-0.038241
697.739000	-0.227289
697.939000	-0.195919
698.139000	-0.552299
698.339000	-0.898308
698.539000	-0.608329
698.739000	-0.569148
698.939000	-0.389441
699.138000	-0.526957
699.338000	0.202334
699.538000	0.244183
699.738000	-0.290674
699.938000	-0.419197
700.138000	-0.502512
700.338000	-0.678855
700.538000	-0.325276
700.737000	-0.251372
700.937000	-0.751881
701.137000	-0.647104
701.337000	-0.030093
701.537000	-0.067277
701.737000	-0.308160
701.937000	-0.373881
702.137000	-0.299584
702.337000	-0.425705
702.536000	-0.585082
702.736000	-0.595121
702.936000	-0.768956
703.136000	-0.199254
703.336000	-0.222645
703.536000	-0.364271
703.736000	-0.690458
703.936000	-0.637292
704.135000	-0.613469
704.335000	-0.181492
704.535000	-0.427788
704.735000	-0.608034
704.935000	-0.059022
705.135000	-0.182672
705.335000	-0.511763
705.535000	-0.183403
705.735000	-0.164320
705.934000	-0.140434
706.134000	-0.345249
706.334000	-0.484496
706.534000	-0.614258
706.734000	-0.485578
706.934000	-0.595577
707.134000	-0.653152
707.334000	-0.419578
707.533000	-0.285840
707.733000	-0.352841
707.933000	-0.492549
708.133000	-0.223178
708.333000	-0.137498
708.533000	-0.393924
708.733000	-0.108735
708.933000	-0.273288
709.132000	-0.351362
709.332000	-0.415065
709.532000	-0.552210
709.732000	-0.327928
709.932000	-0.791345
710.132000	-0.747049
710.332000	-0.916965
710.532000	-0.231279
710.732000	0.056147
710.931000	-0.305375
711.131000	-0.414481
711.331000	-0.365711
711.531000	-0.523683
711.731000	-0.421480
711.931000	-0.293797
712.131000	-0.431536
712.331000	-0.293539
712.530000	-0.362166
712.730000	-0.560736
712.930000	-0.417324
713.130000	-0.433654
713.330000	-0.588019
713.530000	-0.351121
713.730000	0.326368
713.930000	-0.032377
714.129000	-0.549841
714.329000	-0.671412
714.529000	-0.366627
714.729000	0.027491
714.929000	-0.212438
715.129000	-0.618343
715.329000	-0.518687
715.529000	-0.354756
715.729000	0.278751
715.928000	0.088115
716.128000	-0.309854
716.328000	-0.265295
716.528000	-0.316188
716.728000	-0.225180
716.928000	-0.427631
717.128000	-0.327146
717.328000	-0.327092
717.527000	-0.464578
717.727000	-0.454866
717.927000	-0.364553
718.127000	-0.374965
718.327000	-0.769177
718.527000	-0.758575
718.727000	-0.334900
718.927000	-0.391851
719.127000	-0.809997
719.326000	-0.606954
719.526000	-0.048748
719.726000	-0.228826
719.926000	-0.792269
720.126000	-0.782074
720.326000	-0.518724
720.526000	-0.560119
720.726000	-0.422006
720.925000	-0.173573
721.125000	-0.590255
721.325000	-0.257112
721.525000	-0.153599
721.725000	-0.382739
721.925000	-0.409927
722.125000	-0.446518
722.325000	-0.096605
722.524000	-0.390211
722.724000	-0.815480
722.924000	-0.825917
723.124000	-0.658930
723.324000	-0.270676
723.524000	-0.228836
723.724000	-0.760844
723.924000	-0.435950
724.124000	-0.335665
724.323000	-0.060869
724.523000	-0.198311
724.723000	0.029148
724.923000	-0.108676
725.123000	-0.119404
725.323000	-0.023923
725.523000	-0.237027
725.723000	-0.454934
725.922000	-0.455447
726.122000	-0.359968
726.322000	-0.580176
726.522000	-0.714556
726.722000	0.093561
726.922000	-0.184322
727.122000	-0.281466
727.322000	-0.008052
727.521000	-0.185654
727.721000	-0.466166
727.921000	-0.417683
728.121000	-0.428355
728.321000	-0.801608
728.521000	-0.576363
728.721000	-0.306290
728.921000	0.083997
729.121000	0.740933
729.320000	0.116833
729.520000	-0.404876
729.720000	-0.503528
729.920000	-0.555151
730.120000	-0.379163
730.320000	-0.434782
730.520000	-0.593625
730.720000	-0.447308
730.919000	-0.507586
731.119000	-0.261129
731.319000	-0.652513
731.519000	-0.735009
731.719000	-0.443544
731.919000	-0.609165
732.119000	-1.068497
732.319000	-0.961065
732.519000	-0.396270
732.718000	-0.757508
732.918000	-0.702616
733.118000	-0.470507
733.318000	-0.075386
733.518000	-0.404884
733.718000	-1.020607
733.918000	-0.965247
734.118000	-0.606915
734.317000	-0.367879
734.517000	-0.625369
734.717000	-0.510032
734.917000	0.025418
735.117000	-0.087644
735.317000	-0.257213
735.517000	0.320266
735.717000	0.520194
735.916000	-0.372436
736.116000	-0.712978
736.316000	-0.591622
736.516000	-0.437149
736.716000	-0.403067
736.916000	-0.904141
737.116000	-0.752794
737.316000	-0.077862
737.516000	-0.043343
737.715000	-0.176372
737.915000	-0.743412
738.115000	-0.716754
738.315000	-0.455926
738.515000	-0.763600
738.715000	-0.464356
738.915000	0.049715
739.115000	-0.623925
739.314000	-0.658482
739.514000	-0.085176
739.714000	0.085391
739.914000	-0.144703
740.114000	-0.423087
740.314000	-0.310889
740.514000	0.228335
740.714000	-0.407634
740.913000	-0.932667
741.113000	-0.707310
741.313000	-0.289491
741.513000	-0.511775
741.713000	-0.453132
741.913000	-0.413063
742.113000	-0.478665
742.313000	-0.787411
742.513000	-0.570726
742.712000	-0.487748
742.912000	-0.784846
743.112000	-0.726688
743.312000	-0.989816
743.512000	-0.546391
743.712000	-0.480774
743.912000	-1.058185
744.112000	-1.114107
744.311000	-1.074034
744.511000	-0.693681
744.711000	-0.373976
744.911000	-0.783070
745.111000	-0.709666
745.311000	-0.183192
745.511000	-0.513023
745.711000	-0.756256
745.911000	-0.464314
746.110000	-0.807482
746.310000	-1.012957
746.510000	-0.772941
746.710000	-0.355235
746.910000	-0.154177
747.110000	-0.671277
747.310000	-1.095496
747.510000	-0.732056
747.709000	-0.396455
747.909000	-0.359315
748.109000	-0.054239
748.309000	-0.489147
748.509000	-0.822928
748.709000	-0.890255
748.909000	-0.613669
749.109000	-0.635710
749.308000	-0.067835
749.508000	-0.411745
749.708000	-0.522151
749.908000	-0.178414
750.108000	-0.257029
750.308000	-0.976202
750.508000	-0.134203
750.708000	-0.546814
750.908000	-1.151776
751.107000	-0.529936
751.307000	0.134793
751.507000	-0.432504
751.707000	-0.227518
751.907000	-0.380129
752.107000	-0.388048
752.307000	-0.861903
752.507000	-0.710680
752.706000	-0.643512
752.906000	0.397620
753.106000	-0.492881
753.306000	-1.059415
753.506000	-0.178736
753.706000	-0.557555
753.906000	-0.327826
754.106000	-0.071067
754.305000	-0.111821
754.505000	-0.071345
754.705000	-0.351843
754.905000	-0.509730
755.105000	-0.222695
755.305000	-1.039549
755.505000	-0.746639
755.705000	-0.210147
755.905000	-0.383549
756.104000	-1.006388
756.304000	-1.390535
756.504000	-1.504596
756.704000	-0.590294
756.904000	-0.408433
757.104000	-0.700676
757.304000	-0.729261
757.504000	-0.256276
757.703000	-0.501926
757.903000	-0.179440
758.103000	0.137500
758.303000	-0.300522
758.503000	-0.627444
758.703000	-0.799461
758.903000	-0.934898
759.103000	-0.474089
759.303000	-0.576651
759.502000	-0.635960
759.702000	-0.175989
759.902000	-0.523444
760.102000	-0.546409
760.302000	-0.526465
760.502000	-0.213577
760.702000	-0.213884
760.902000	-0.497699
761.101000	-0.819739
761.301000	-1.310232
761.501000	-0.938267
761.701000	-0.896254
761.901000	-0.459654
762.101000	-0.173200
762.301000	-0.372200
762.501000	-0.748699
762.700000	-0.826251
762.900000	-0.715351
763.100000	-0.575159
763.300000	-0.376312
763.500000	-0.555704
763.703000	-0.635623
763.905000	-0.929075
764.108000	-0.333260
764.311000	-0.565495
764.513000	-0.446193
764.716000	-0.320000
764.919000	-0.471219
765.121000	-1.021998
765.324000	-1.146111
765.527000	-0.992512
765.729000	-0.809956
765.932000	0.148544
766.135000	-0.034269
766.337000	-0.483828
766.540000	-0.699460
766.743000	-0.504428
766.945000	-0.887727
767.148000	-1.367344
767.351000	-1.267023
767.553000	-0.258992
767.756000	-0.677190
767.958000	-1.172386
768.161000	-0.646728
768.364000	-0.750168
768.566000	-1.188094
768.769000	-0.511999
768.972000	-0.285273
769.174000	-0.615401
769.377000	-1.246117
769.580000	-1.382711
769.782000	-0.531349
769.985000	-0.998969
770.188000	-1.959151
770.390000	-1.213126
770.593000	0.496563
770.796000	0.226601
770.998000	-0.361978
771.201000	-0.816303
771.404000	-0.578200
771.606000	-0.860734
771.809000	-0.516272
772.012000	-0.653601
772.214000	-1.504866
772.417000	-1.513055
772.620000	-0.364091
772.822000	-0.713665
773.025000	-1.141265
773.228000	-1.022188
773.430000	-0.862012
773.633000	-0.636585
773.836000	-0.450684
774.038000	-0.305667
774.241000	-0.493010
774.444000	-0.788786
774.646000	0.224602
774.849000	-0.241481
775.052000	-0.552447
775.254000	-0.348528
775.457000	-0.618585
775.659000	-0.710408
775.862000	-0.973449
776.065000	-0.637692
776.267000	-0.111273
776.470000	0.103491
776.673000	-0.542666
776.875000	-0.037392
777.078000	-0.087109
777.281000	-1.061767
777.483000	-0.555548
777.686000	-0.272017
777.889000	-0.397991
778.091000	0.004204
778.294000	-1.095629
778.497000	-0.987754
778.699000	-0.778215
778.902000	-0.747106
779.105000	-0.654290
779.307000	0.071863
779.510000	-0.749896
779.713000	-0.412559
779.915000	-0.900385
780.118000	0.269099
780.321000	0.337856
780.523000	-0.741580
780.726000	-1.205034
780.929000	-1.264616
781.131000	-1.206464
781.334000	-1.503984
781.537000	-1.361262
781.739000	-0.393613
781.942000	-1.069241
782.145000	-1.579521
782.347000	-1.510853
782.550000	-1.049998
782.753000	-1.114645
782.955000	-1.012482
783.158000	-0.871710
783.361000	-0.531343
783.563000	-0.742246
783.766000	-0.885079
783.968000	1.071664
784.171000	0.952530
784.374000	-0.385477
784.576000	-0.447375
784.779000	0.022112
784.982000	0.022240
785.184000	-0.979390
785.387000	-0.300088
785.590000	0.577473
785.792000	0.274104
785.995000	0.004500
786.198000	-0.148755
786.400000	-0.593004
786.603000	-0.512821
786.806000	-0.719352
787.008000	-0.556424
787.211000	-0.476710
787.414000	-1.207243
787.616000	-0.937435
787.819000	-0.618790
788.022000	-1.363175
788.224000	-0.786811
788.427000	-1.542286
788.630000	-0.956339
788.832000	-0.549183
789.035000	-1.128872
789.238000	-1.763433
789.440000	-1.373353
789.643000	-0.060395
789.846000	-0.833965
790.048000	-0.565108
790.251000	-0.284958
790.454000	-0.648030
790.656000	0.088906
790.859000	-0.661307
791.062000	-0.981961
791.264000	-0.370866
791.467000	-1.249307
791.669000	-1.817683
791.872000	-0.773409
792.075000	-1.199059
792.277000	-1.047569
792.480000	-0.757777
792.683000	-0.983846
792.885000	-1.346366
793.088000	-1.370403
793.291000	-1.498289
793.493000	-1.462656
793.696000	-0.455760
793.899000	-0.129889
794.101000	-0.631663
794.304000	-0.787739
794.507000	-0.479152
794.709000	-0.470775
794.912000	-0.911229
795.115000	-1.176624
795.317000	-0.785827
795.520000	-0.602978
795.723000	-0.979482
795.925000	-1.414685
796.128000	-1.481789
796.331000	-0.992753
796.533000	-1.371378
796.736000	-0.671719
796.939000	-0.643401
797.141000	-1.015155
797.344000	-0.235260
797.547000	-0.055085
797.749000	-0.275820
797.952000	-0.730851
798.155000	-0.900253
798.357000	-1.421756
798.560000	-1.348371
798.763000	-0.554042
798.965000	-0.726174
799.168000	-0.718107
799.371000	-0.525187
799.573000	-0.915748
799.776000	-1.747139
799.978000	-1.784053
800.181000	-0.716018
800.384000	0.789353
800.586000	0.025856
800.789000	-1.380140
800.992000	-1.265563
801.194000	-1.454729
801.397000	-1.489631
801.600000	-1.130160
801.802000	0.192987
802.005000	-0.245927
802.208000	-1.799870
802.410000	-0.739254
802.613000	-0.637195
802.816000	-0.859371
803.018000	-1.527727
803.221000	-1.371696
803.424000	-0.005307
803.626000	-0.398653
803.829000	-0.879832
804.032000	-0.048118
804.234000	0.742922
804.437000	-0.552884
804.640000	-0.595326
804.842000	-0.736453
805.045000	-1.226325
805.248000	-0.968823
805.450000	-0.827292
805.653000	-0.843419
805.856000	-1.038176
806.058000	-0.027261
806.261000	-1.240560
806.464000	-1.088627
806.666000	-0.389020
806.869000	-0.976025
807.072000	-2.332283
807.274000	-2.664852
807.477000	-1.377556
807.679000	-0.946820
807.882000	-1.492865
808.085000	-1.279446
808.287000	-0.531300
808.490000	-1.451269
808.693000	-1.228000
808.895000	-0.937473
809.098000	-0.825600
809.301000	-0.963604
809.503000	-1.239443
809.706000	-0.028452
809.909000	0.335681
810.111000	-0.039882
810.314000	-0.302656
810.517000	-0.939167
810.719000	-1.287900
810.922000	-0.936963
811.125000	-0.108982
811.327000	-0.098068
811.530000	-0.666028
811.735000	-1.058254
811.940000	-1.246085
812.146000	-1.123285
812.351000	-0.657726
812.556000	-0.835016
812.761000	-1.763199
812.967000	-0.452997
813.172000	-0.264460
813.377000	-0.713305
813.582000	0.100642
813.788000	-0.304010
813.993000	-1.444883
814.198000	-0.791595
814.403000	-1.362215
814.609000	-0.425004
814.814000	-0.450972
815.019000	0.450148
815.224000	-0.053990
815.429000	-1.008469
815.635000	-0.442212
815.840000	-0.685263
816.045000	-0.737121
816.250000	-0.091526
816.456000	-1.387462
816.661000	-2.192053
816.866000	-1.852264
817.071000	-2.072492
817.277000	-2.581016
817.482000	-1.246237
817.687000	-0.365578
817.892000	-0.841228
818.097000	-0.706321
818.303000	-0.093758
818.508000	0.517784
818.713000	7.730897
818.918000	4.015434
819.124000	0.131889
819.329000	-1.166815
819.534000	-1.005819
819.739000	-1.170389
819.945000	-1.290323
820.150000	-0.888543
820.355000	-0.813413
820.560000	-0.364092
820.766000	-0.557144
820.971000	-0.869520
821.176000	-2.317895
821.381000	-2.684606
821.586000	-1.599694
821.792000	-0.097487
821.997000	-0.696057
822.202000	-1.048369
822.407000	-1.756934
822.613000	-1.891525
822.818000	-1.056507
823.023000	-0.755568
823.228000	-1.104303
823.434000	-0.336975
823.639000	0.165538
823.844000	-0.962651
824.049000	-0.511579
824.255000	-0.006665
824.460000	-0.622774
824.665000	-1.186928
824.870000	-0.168213
825.075000	-0.343589
825.281000	-0.317595
825.486000	0.659349
825.691000	-1.790423
825.896000	-3.117204
826.102000	-1.098866
826.307000	-0.691029
826.512000	-1.091926
826.717000	-1.095294
826.923000	-1.333305
827.128000	-0.823891
827.333000	-1.539974
827.538000	-0.692436
827.744000	-0.007011
827.949000	-1.042704
828.154000	-0.878295
828.359000	-0.217708
828.564000	-0.628169
828.770000	-0.772512
828.975000	0.461717
829.180000	-0.221320
829.385000	-2.062485
829.591000	-1.784493
829.796000	-1.188404
830.001000	-0.945323
830.206000	-1.339213
830.412000	-1.164288
830.617000	-1.341078
830.822000	-0.488111
831.027000	-1.054008
831.232000	-1.455311
831.438000	-1.318294
831.643000	-0.758507
831.848000	-1.055654
832.053000	-1.059684
832.259000	-0.912605
832.464000	-2.745501
832.669000	-2.516470
832.874000	-1.856329
833.080000	-1.699797
833.285000	-0.082503
833.490000	-0.457840
833.695000	-1.911416
833.901000	-1.586425
834.106000	-1.816909
834.311000	-1.199809
834.516000	-0.283191
834.721000	-1.039094
834.927000	0.054102
835.132000	-0.766651
835.337000	0.814326
835.542000	-0.195040
835.748000	-1.985550
835.953000	-0.054694
836.158000	-0.133154
836.363000	-0.574072
836.569000	-0.340773
836.774000	-1.611595
836.979000	-1.947393
837.184000	-2.382383
837.390000	-2.147260
837.595000	-1.240583
837.800000	-0.874413
838.005000	-0.621488
838.210000	-1.122394
838.416000	-1.580682
838.621000	-0.837171
838.826000	-0.934134
839.031000	-1.298172
839.237000	-1.900120
839.442000	-2.413962
839.647000	-2.525528
839.852000	-1.875463
840.058000	-1.600318
840.263000	-1.824825
840.468000	-2.927663
840.673000	-1.726744
840.878000	-1.160598
841.084000	-1.688278
841.289000	-1.237817
841.494000	0.958153
841.699000	1.046396
841.905000	0.145004
842.110000	0.351606
842.315000	-1.641456
842.520000	-0.918636
842.726000	-1.419974
842.931000	-2.141132
843.136000	-1.065318
843.341000	-2.504280
843.547000	-1.680615
843.752000	-1.525619
843.957000	-2.311564
844.162000	-1.986959
844.367000	-1.318677
844.573000	-0.666621
844.778000	-0.593942
844.983000	-0.577626
845.188000	-0.330488
845.394000	-2.136034
845.599000	-1.932996
845.804000	-1.614821
846.009000	-0.790282
846.215000	-1.743027
846.420000	-1.400015
846.625000	-0.578354
846.830000	0.192091
847.036000	-0.873196
847.241000	-2.003021
847.446000	-0.230735
847.651000	-0.861946
847.856000	-2.029425
848.062000	-1.922885
848.267000	-0.328394
848.472000	-1.572346
848.677000	-3.125149
848.883000	-1.026963
849.088000	0.409235
849.293000	-0.754815
849.498000	-1.211889
849.704000	-0.430613
849.909000	-1.218435
850.114000	-2.081958
850.319000	-0.567329
850.524000	-1.092554
850.730000	-0.982070
850.935000	-1.142215
851.140000	-0.088094
851.345000	-0.185951
851.551000	-0.088347
851.756000	0.009869
851.961000	-1.632740
852.166000	-1.712792
852.372000	-0.764318
852.577000	-1.289837
852.782000	-1.984690
852.987000	-0.532432
853.193000	-0.433530
853.398000	-0.716043
853.603000	-2.314650
853.808000	-2.659704
854.013000	-1.353577
854.219000	0.254894
854.424000	1.995888
854.629000	1.815651
854.834000	-1.249494
855.040000	-1.486135
855.245000	-1.108287
855.450000	-2.901589
855.655000	-3.724705
855.861000	-3.121897
856.066000	-2.473590
856.271000	-3.110145
856.476000	-0.772279
856.682000	-0.923931
856.887000	-3.745525
857.092000	-2.541232
857.297000	-0.288240
857.502000	-0.695277
857.708000	-1.125329
857.913000	-0.268400
858.118000	-0.899303
858.323000	-1.249684
858.529000	-1.204351
858.734000	-1.120592
858.939000	-0.796547
859.144000	-1.718919
859.350000	-2.682768
859.555000	-3.042654
859.760000	-0.717873
859.965000	0.408517
860.171000	-1.851818
860.376000	-0.812857
860.581000	-2.489756
860.786000	-4.787403
860.991000	-4.335334
861.197000	-3.454899
861.402000	-1.433324
861.607000	-2.021486
861.812000	-3.141684
862.018000	-2.948800
862.223000	-2.269947
862.428000	-1.548991
862.633000	-0.264022
862.839000	-0.750828
863.044000	-1.479267
863.249000	-2.334850
863.454000	-0.244182
863.659000	-1.527853
863.865000	-2.848199
864.070000	-2.503119
864.275000	-3.048790
864.480000	-2.944487
864.686000	-4.379638
864.891000	-2.910312
865.096000	-0.966601
865.301000	-0.729296
865.507000	-0.396858
865.712000	-0.372781
865.917000	-1.294968
866.122000	-0.813073
866.328000	-3.771108
866.533000	-3.256256
866.738000	0.256437
866.943000	-0.477243
867.148000	0.086141
867.354000	-2.666513
867.559000	-3.982318
867.764000	-1.982190
867.969000	-1.215394
868.175000	-2.285220
868.380000	-3.045116
868.585000	-4.278753
868.790000	-1.951601
868.996000	-1.584274
869.201000	-3.164141
869.406000	-4.505058
869.611000	-3.974662
869.817000	-3.331941
870.022000	1.883716
870.227000	-0.269763
870.432000	-2.155820
870.637000	-0.762508
870.843000	-2.118829
871.048000	-2.093842
871.253000	-0.117115
871.458000	-1.190171
871.664000	-3.172030
871.869000	-3.455566
872.074000	-2.881673
872.279000	-1.526418
872.485000	-1.856865
872.690000	-2.482082
872.895000	-2.573173
873.100000	-2.603191
873.306000	-3.562436
873.511000	-2.523355
873.716000	-0.396420
873.921000	-2.167802
874.126000	-2.717480
874.332000	-2.054744
874.537000	-0.789931
874.742000	-0.566362
874.947000	-1.206891
875.153000	0.210037
875.358000	-1.557916
875.563000	-2.145407
875.768000	-4.463712
875.974000	-5.273838
876.179000	-1.260823
876.384000	-0.754476
876.589000	-2.370122
876.794000	-2.315297
877.000000	-3.468614
877.205000	-4.700411
877.410000	-2.354555
877.615000	-3.331180
877.821000	-4.844680
878.026000	-3.478823
878.231000	-4.351180
878.436000	-4.737484
878.642000	-3.625379
878.847000	-1.603425
879.052000	-0.396612
879.257000	-3.215301
879.463000	-4.199017
879.668000	-3.250402
879.873000	-0.879164
880.078000	-3.151833
880.283000	-5.173537
880.489000	-5.773242
880.694000	-4.713965
880.899000	-2.352001
881.104000	-1.112214
881.310000	0.716065
881.515000	-0.684807
881.720000	0.594927
881.925000	2.745959
882.131000	3.789354
882.336000	-0.139136
882.541000	-4.128998
882.746000	-3.679626
882.952000	-3.863025
883.157000	-3.684402
883.362000	-3.878492
883.567000	-4.525452
883.772000	-4.440154
883.978000	-3.520961
884.183000	-1.804402
884.388000	-2.341832
884.593000	-4.478371
884.799000	0.208111
885.004000	-0.925376
885.209000	-2.355039
885.414000	-1.699528
885.620000	-4.157280
885.825000	-0.706069
886.030000	-1.687975
886.235000	-3.479129
886.440000	-2.710048
886.646000	-4.687445
886.851000	-4.778081
887.056000	0.016819
887.261000	-1.296094
887.467000	-5.120969
887.672000	-2.024911
887.877000	-2.479913
888.082000	-5.413112
888.288000	-5.598822
888.493000	-8.415670
888.698000	-6.320299
888.903000	-2.482531
889.109000	-4.175181
889.314000	-0.468025
889.519000	-1.882250
889.724000	0.259398
889.929000	-1.575517
890.135000	-3.524070
890.340000	-3.550370
890.545000	-4.702534
890.750000	-5.623964
890.956000	-3.533271
891.161000	-1.140949
891.366000	-3.608549
891.571000	-2.311364
891.777000	-2.207557
891.982000	-0.230707
892.187000	-1.336709
892.392000	-0.977921
892.598000	-0.232465
892.803000	-0.523159
893.008000	-3.334087
893.213000	-4.475648
893.418000	-3.891754
893.624000	-3.911279
893.829000	-6.278955
894.034000	-3.264721
894.239000	-1.557913
894.445000	-4.516627
894.650000	-4.024806
894.855000	-3.735409
895.060000	-4.096581
895.266000	-3.826954
895.471000	-4.939129
895.676000	-0.761091
895.881000	-0.767643
896.087000	-3.127343
896.292000	-4.391683
896.497000	0.549288
896.702000	-1.678990
896.907000	-3.873305
897.113000	1.270586
897.318000	0.587586
897.523000	-0.361083
897.728000	-2.613617
897.934000	-3.099611
898.139000	-2.612378
898.344000	0.134733
898.549000	-1.916370
898.755000	-3.353550
898.960000	-3.296241
899.165000	-5.210011
899.370000	-2.135916
899.575000	1.630582
899.781000	-2.738487
899.986000	-3.960177
900.191000	-2.994062
900.396000	-3.831290
900.602000	-1.417900
900.807000	-2.151937
901.012000	-1.801586
901.217000	-1.684302
901.423000	-4.347994
901.628000	-4.727787
901.833000	0.265096
902.038000	-0.513763
902.244000	-4.365243
902.449000	-3.772504
902.654000	-3.270632
902.859000	-1.974411
903.064000	-0.689136
903.270000	-0.733530
903.475000	-4.928907
903.680000	-7.522009
903.885000	-6.737182
904.091000	-5.498148
904.296000	-6.329888
904.501000	-4.215273
904.706000	-4.486431
904.912000	-0.499052
905.117000	-1.459852
905.322000	-5.249807
905.527000	-4.525818
905.733000	-3.041072
905.938000	-3.852649
906.143000	-4.745574
906.348000	-6.310211
906.553000	-1.369908
906.759000	-0.157104
906.964000	-2.864470
907.169000	-4.513704
907.374000	-7.264631
907.580000	-5.437673
907.785000	-5.022213
907.990000	24.006037
908.195000	16.047779
908.401000	-0.444472
908.606000	-8.256151
908.811000	-9.657851
909.016000	-2.182460
909.221000	-2.095203
909.427000	-4.143238
909.632000	-6.281367
909.837000	-5.892242
910.042000	-6.970574
910.248000	-8.750417
910.453000	-4.116181
910.658000	-4.834728
910.863000	-5.123883
911.069000	-5.388610
911.274000	-0.570083
911.479000	0.174571
911.684000	-6.503250
911.890000	-4.291652
912.095000	-4.799510
912.300000	-7.617562
912.506000	-6.659380
912.711000	-6.486000
912.917000	-3.720591
913.123000	-3.415729
913.328000	-3.901970
913.534000	-3.781295
913.740000	5.015817
913.946000	1.029296
914.151000	-5.163659
914.357000	-6.786707
914.563000	-2.773617
914.768000	-5.830398
914.974000	-7.291142
915.180000	-6.655740
915.385000	-5.318651
915.591000	-8.392783
915.797000	-4.444800
916.002000	-0.194531
916.208000	-3.624130
916.414000	-7.188018
916.620000	-7.820023
916.825000	-4.020667
917.031000	-5.318077
917.237000	-10.875792
917.442000	-8.023629
917.648000	-7.913932
917.854000	-8.541403
918.059000	-1.708446
918.265000	-1.012215
918.471000	-3.633362
918.676000	-7.079946
918.882000	-9.847227
919.088000	-8.976493
919.294000	-13.464007
919.499000	-8.506998
919.705000	-2.448122
919.911000	-3.898691
920.116000	-2.045170
920.322000	-8.736572
920.528000	-7.858756
920.733000	-9.405904
920.939000	-9.444693
921.145000	-7.983199
921.350000	-5.929415
921.556000	-4.060050
921.762000	-6.473394
921.968000	-7.707093
922.173000	-8.016286
922.379000	-10.362390
922.585000	-6.313498
922.790000	-7.111176
922.996000	-7.694972
923.202000	-9.726607
923.407000	-9.383884
923.613000	-6.298014
923.819000	-2.941661
924.024000	-4.536475
924.230000	-2.198010
924.436000	-3.709212
924.642000	4.582213
924.847000	-0.452533
925.053000	-7.685007
925.259000	-11.665083
925.464000	-4.801634
925.670000	-5.358065
925.876000	-7.472621
926.081000	-8.936896
926.287000	-5.173892
926.493000	-4.902038
926.698000	-4.910214
926.904000	-3.072657
927.110000	-5.854876
927.316000	-5.587420
927.521000	-0.258239
927.727000	-6.927512
927.933000	-8.461898
928.138000	-6.383639
928.344000	-11.272390
928.550000	-6.314217
928.755000	-1.896664
928.961000	-6.296795
929.167000	-5.635591
929.372000	0.663346
929.578000	-1.535805
929.784000	-6.862540
929.990000	-9.603940
930.195000	-7.551653
930.401000	-7.285832
930.607000	-4.075375
930.812000	-3.789250
931.018000	-9.123730
931.224000	-14.470131
931.429000	-10.287189
931.635000	-14.919481
931.841000	-13.722566
932.046000	-7.703166
932.252000	-3.089611
932.458000	3.117537
932.664000	-3.498122
932.869000	-8.862530
933.075000	-10.315726
933.281000	-10.374250
933.486000	-2.907339
933.692000	-6.245257
933.898000	-10.660331
934.103000	-4.938891
934.309000	-7.170750
934.515000	-2.116056
934.720000	0.613405
934.926000	2.141134
935.132000	1.476191
935.338000	-2.551155
935.543000	-12.645819
935.749000	-14.834340
935.955000	-14.803574
936.160000	-12.070216
936.366000	-4.486196
936.572000	-5.191407
936.777000	-1.521111
936.983000	0.157726
937.189000	-5.351742
937.394000	-10.901846
937.600000	-1.888355
937.806000	4.075949
938.012000	-7.342148
938.217000	2.613919
938.423000	0.504108
938.629000	-7.786797
938.834000	-15.628694
939.040000	-16.773972
939.246000	-10.291043
939.451000	-10.770078
939.657000	-6.761104
939.863000	-12.461302
940.068000	-5.719182
940.274000	-10.122463
940.480000	-5.343533
940.686000	-3.564885
940.891000	-6.759725
941.097000	21.247703
941.303000	5.505255
941.508000	-9.865590
941.714000	-7.231452
941.920000	-18.736962
942.125000	-6.972489
942.331000	-3.076942
942.537000	4.382959
942.742000	0.462574
942.948000	-11.301645
943.154000	-14.852455
943.360000	-27.100915
943.565000	-11.257272
943.771000	1.837353
943.977000	4.393033
944.182000	-14.640851
944.388000	-15.653077
944.594000	-0.618016
944.799000	6.867133
945.005000	-4.433232
945.211000	-0.889277
945.416000	-3.542527
945.622000	-15.389915
945.828000	-12.881181
946.034000	-0.930018
946.239000	1.366845
946.445000	-9.561942
946.651000	-22.770327
946.856000	-16.608910
947.062000	-1.773186
947.268000	0.642822
947.473000	-16.566146
947.679000	-20.418892
947.885000	-6.586176
948.090000	-0.072820
948.296000	11.181826
948.502000	-4.452114
948.708000	-13.031223
948.913000	-13.781980
949.119000	-0.372349
949.325000	-5.737818
949.530000	-23.339143
949.736000	-30.392471
949.942000	-18.430548
950.147000	-18.713801
950.353000	-15.597967
950.559000	-9.690348
950.764000	12.767271
950.970000	8.193691
951.176000	-11.482606
951.382000	-16.804424
951.587000	-4.299893
951.793000	-1.023057
951.999000	0.698200
952.204000	-11.828765
952.410000	-27.250991
952.616000	-16.100051
952.821000	-9.536644
953.027000	-15.456019
953.233000	-18.421996
953.438000	-19.032523
953.644000	-3.422819
953.850000	-10.593928
954.056000	-12.476946
954.261000	-12.554485
954.467000	-5.926612
954.673000	4.617947
954.878000	-5.609355
955.084000	-7.732567
955.290000	-24.598809
955.495000	-22.539684
955.701000	-16.103513
955.907000	0.749169
956.112000	-3.746231
956.318000	5.363104
956.524000	6.092568
956.730000	-6.527488
956.935000	-13.859730
957.141000	-19.170444
957.347000	-5.570158
957.552000	-8.646119
957.758000	-26.812813
957.964000	-34.873298
958.169000	1.130399
958.375000	0.610562
958.581000	-13.760914
958.786000	-27.257075
958.992000	-31.033226
959.198000	-9.946265
959.404000	-4.375107
959.609000	-17.411714
959.815000	-23.343886
960.021000	-1.000141
960.226000	-7.429877
960.432000	-29.064048
960.638000	-18.326706
960.843000	-11.994059
961.049000	-11.104487
961.255000	-3.480536
961.460000	-15.254075
961.666000	-36.001539
961.872000	-22.293018
962.078000	-22.141996
962.283000	-31.309328
962.489000	-30.676184
962.695000	-17.962972
962.900000	-12.562753
963.106000	-15.848741
963.312000	-20.242846
963.517000	-23.194199
963.723000	-28.548979
963.929000	-5.359197
964.134000	6.559736
964.340000	-18.062475
964.546000	-21.636576
964.752000	-28.463371
964.957000	-29.543874
965.163000	-0.526127
965.369000	-4.797293
965.574000	-2.477282
965.780000	-8.300431
966.000000	-21.253469
966.220000	-18.775858
966.440000	-12.547105
966.661000	-0.768356
966.881000	-21.690186
967.101000	-35.141885
967.321000	-39.152112
967.541000	-18.628850
967.761000	-19.070193
967.981000	-15.223162
968.202000	-16.505741
968.422000	-1.274771
968.642000	1.270849
968.862000	-1.297410
969.082000	-11.524773
969.302000	-2.576286
969.522000	-12.178517
969.743000	0.821928
969.963000	-16.441004
970.183000	-26.807674
970.403000	-29.699824
970.623000	-26.394962
970.843000	1.115811
971.063000	-0.377677
971.284000	-23.684899
971.504000	-35.982666
971.724000	-10.164322
971.944000	-34.627882
972.164000	-43.220276
972.384000	-26.801684
972.604000	-43.732715
972.825000	-50.212832
973.045000	-33.403188
973.265000	23.649220
973.485000	6.395989
973.705000	-13.274243
973.925000	-12.641545
974.145000	-50.067214
974.365000	-21.768639
974.586000	-14.740589
974.806000	-37.347536
975.026000	-7.327910
975.246000	-19.159237
975.466000	-30.938669
975.686000	-19.019773
975.906000	-27.627454
976.127000	-50.364881
976.347000	-46.114735
976.567000	-12.698381
976.787000	-13.037281
977.007000	-22.301795
977.227000	-26.794802
977.447000	-34.163477
977.668000	-53.012202
977.888000	-36.511603
978.108000	-32.065171
978.328000	-15.973407
978.548000	1.430273
978.768000	6.960908
978.988000	-3.213220
979.209000	-23.400499
979.429000	-18.455625
979.649000	-4.800118
979.869000	-35.575819
980.089000	-57.072602
980.309000	-53.452755
980.529000	-58.883429
980.750000	-34.127716
980.970000	-46.430013
981.190000	-37.484700
981.410000	-35.234182
981.630000	-38.426338
981.850000	-31.980825
982.070000	-28.004923
982.291000	-57.242541
982.511000	-54.020055
982.731000	-11.819110
982.951000	-25.125898
983.171000	-31.365158
983.391000	-21.533854
983.611000	0.589734
983.832000	-33.542461
984.052000	-56.809788
984.272000	-34.113403
984.492000	-34.864869
984.712000	-48.997988
984.932000	-69.150662
985.152000	-72.058407
985.373000	-50.695330
985.593000	-27.394032
985.813000	-42.512427
986.033000	-46.803314
986.253000	-0.671791
986.473000	3.194026
986.693000	-33.106694
986.914000	-41.992950
987.134000	12.161151
987.354000	-24.510688
987.574000	186.630833
987.794000	105.796631
988.014000	-48.615651
988.234000	-26.750341
988.455000	-19.086424
988.675000	-16.690809
988.895000	-23.975953
989.115000	-38.885835
989.335000	-28.676716
989.555000	-15.452495
989.775000	-55.615126
989.995000	-51.497434
990.216000	-34.426401
990.436000	-26.725780
990.656000	3.018732
990.876000	-37.113414
991.096000	-27.113119
991.316000	13.294702
991.536000	-9.992093
991.757000	-27.905877
991.977000	-76.100523
992.197000	-15.943937
992.417000	-44.629523
992.637000	-94.487328
992.857000	-90.708848
993.077000	-82.346422
993.298000	-49.677107
993.518000	-44.050710
993.738000	-81.507566
993.958000	-46.032350
994.178000	-68.442537
994.398000	-54.765319
994.618000	-87.380482
994.839000	-130.048939
995.059000	-35.651744
995.279000	38.213115
995.499000	-22.532158
995.719000	-31.728920
995.939000	-33.804861
996.159000	-34.672190
996.380000	-15.589316
996.600000	-69.091106
996.820000	-44.767683
997.040000	8.378963
997.260000	-52.369320
997.480000	-42.852403
997.700000	-117.615711
997.921000	-71.880038
998.141000	13.602090
998.361000	-9.281772
998.581000	-68.154837
998.801000	-88.835201
999.021000	-56.372308
999.241000	-26.606061
999.462000	-70.031683
999.682000	-116.115613
999.902000	-84.723416
1000.122000	-99.338787
1000.342000	-160.724905
1000.562000	-98.256977
1000.782000	-90.402386
1001.003000	-1077.460806
