Wavelength	Irradiance
(nm)	(mW/cm2/nm)

294.396000	0.000000
294.577000	0.000000
294.757000	-0.000000
294.938000	-0.000000
295.118000	0.000000
295.299000	0.000000
295.479000	-0.000000
295.660000	-0.000000
295.840000	-0.000000
296.021000	-0.000000
296.202000	-0.000000
296.382000	-0.000000
296.563000	-0.000000
296.743000	-0.000000
296.924000	0.000000
297.104000	-0.000000
297.285000	-0.000000
297.465000	-0.000000
297.646000	-0.000000
297.826000	-0.000000
298.007000	0.000000
298.187000	0.000000
298.368000	-0.000000
298.548000	0.000000
298.729000	0.000000
298.909000	-0.000000
299.090000	-0.000000
299.270000	-0.000000
299.451000	-0.000000
299.631000	-0.000000
299.812000	-0.000000
299.992000	0.000000
300.173000	0.000000
300.353000	-0.000000
300.534000	0.000000
300.714000	0.000000
300.895000	0.000000
301.075000	-0.000000
301.256000	0.000000
301.436000	0.000000
301.617000	-0.000000
301.797000	-0.000000
301.978000	-0.000000
302.159000	0.000000
302.339000	0.000000
302.520000	-0.000000
302.700000	-0.000000
302.881000	0.000000
303.061000	0.000000
303.242000	0.000000
303.422000	0.000000
303.603000	-0.000000
303.783000	-0.000000
303.964000	0.000000
304.144000	0.000000
304.325000	-0.000000
304.505000	-0.000000
304.686000	-0.000000
304.866000	0.000000
305.047000	0.000000
305.227000	-0.000000
305.408000	-0.000000
305.588000	-0.000000
305.769000	-0.000000
305.949000	-0.000000
306.130000	-0.000000
306.310000	-0.000000
306.491000	-0.000000
306.671000	0.000000
306.852000	-0.000000
307.032000	-0.000000
307.213000	-0.000000
307.393000	-0.000000
307.574000	0.000000
307.755000	0.000000
307.935000	0.000000
308.116000	0.000000
308.296000	-0.000000
308.477000	0.000000
308.657000	0.000000
308.838000	0.000000
309.018000	0.000000
309.199000	-0.000000
309.379000	-0.000000
309.560000	0.000000
309.740000	-0.000000
309.921000	0.000000
310.101000	0.000000
310.282000	-0.000000
310.462000	-0.000000
310.643000	-0.000000
310.823000	-0.000000
311.004000	-0.000000
311.184000	-0.000000
311.365000	0.000000
311.545000	0.000000
311.726000	0.000000
311.906000	-0.000000
312.087000	0.000000
312.267000	-0.000000
312.448000	-0.000000
312.628000	-0.000000
312.809000	-0.000000
312.989000	-0.000000
313.170000	-0.000000
313.344000	-0.000000
313.518000	-0.000000
313.691000	-0.000000
313.865000	-0.000000
314.039000	-0.000000
314.213000	-0.000000
314.387000	-0.000000
314.560000	-0.000000
314.734000	-0.000000
314.908000	-0.000000
315.082000	-0.000000
315.255000	0.000000
315.429000	0.000000
315.603000	0.000000
315.777000	-0.000000
315.951000	0.000000
316.124000	-0.000000
316.298000	-0.000000
316.472000	-0.000000
316.646000	-0.000000
316.820000	-0.000000
316.993000	0.000000
317.167000	-0.000000
317.341000	-0.000000
317.515000	-0.000000
317.688000	-0.000000
317.862000	-0.000000
318.036000	-0.000000
318.210000	-0.000000
318.384000	-0.000000
318.557000	-0.000000
318.731000	-0.000000
318.905000	-0.000000
319.079000	0.000000
319.253000	-0.000000
319.426000	0.000000
319.600000	0.000000
319.774000	-0.000000
319.948000	-0.000000
320.122000	0.000000
320.295000	0.000000
320.469000	-0.000000
320.643000	-0.000000
320.817000	-0.000000
320.990000	-0.000000
321.164000	-0.000000
321.338000	-0.000000
321.512000	-0.000000
321.686000	-0.000000
321.859000	-0.000000
322.033000	0.000000
322.207000	-0.000000
322.381000	-0.000000
322.555000	0.000000
322.728000	0.000000
322.902000	-0.000000
323.076000	-0.000000
323.250000	-0.000000
323.423000	-0.000000
323.597000	-0.000000
323.771000	-0.000000
323.945000	-0.000000
324.119000	-0.000000
324.292000	0.000000
324.466000	-0.000000
324.640000	0.000000
324.814000	0.000000
324.988000	-0.000000
325.161000	0.000000
325.335000	-0.000000
325.509000	-0.000000
325.683000	-0.000000
325.856000	-0.000000
326.030000	-0.000000
326.204000	-0.000000
326.378000	0.000000
326.552000	-0.000000
326.725000	-0.000000
326.899000	-0.000000
327.073000	-0.000000
327.247000	-0.000000
327.421000	0.000000
327.594000	-0.000000
327.768000	-0.000000
327.942000	-0.000000
328.116000	0.000000
328.289000	-0.000000
328.463000	-0.000000
328.637000	0.000000
328.811000	-0.000000
328.985000	-0.000000
329.158000	-0.000000
329.332000	-0.000000
329.506000	0.000000
329.680000	-0.000000
329.854000	-0.000000
330.027000	-0.000000
330.201000	0.000000
330.375000	0.000000
330.549000	0.000000
330.723000	0.000000
330.896000	-0.000000
331.070000	-0.000000
331.244000	-0.000000
331.418000	-0.000000
331.591000	-0.000000
331.765000	-0.000000
331.939000	-0.000000
332.113000	-0.000000
332.287000	-0.000000
332.460000	0.000000
332.634000	0.000000
332.808000	-0.000000
332.982000	-0.000000
333.156000	-0.000000
333.329000	-0.000000
333.503000	-0.000000
333.677000	-0.000000
333.851000	-0.000000
334.024000	-0.000000
334.198000	-0.000000
334.372000	-0.000000
334.546000	-0.000000
334.720000	-0.000000
334.893000	-0.000000
335.067000	0.000000
335.241000	-0.000000
335.415000	-0.000000
335.589000	-0.000000
335.762000	-0.000000
335.936000	-0.000000
336.110000	-0.000000
336.284000	-0.000000
336.458000	-0.000000
336.631000	-0.000000
336.805000	-0.000000
336.979000	-0.000000
337.153000	-0.000000
337.326000	-0.000000
337.500000	0.000000
337.674000	0.000000
337.848000	-0.000000
338.022000	-0.000000
338.195000	-0.000000
338.369000	-0.000000
338.543000	-0.000000
338.717000	-0.000000
338.891000	0.000000
339.064000	0.000000
339.238000	-0.000000
339.412000	-0.000000
339.586000	-0.000000
339.759000	-0.000000
339.933000	-0.000000
340.107000	0.000000
340.281000	-0.000000
340.455000	-0.000000
340.628000	-0.000000
340.802000	-0.000000
340.976000	-0.000000
341.150000	-0.000000
341.324000	-0.000000
341.497000	-0.000000
341.671000	-0.000000
341.845000	-0.000000
342.019000	-0.000000
342.192000	-0.000000
342.366000	-0.000000
342.540000	-0.000000
342.714000	-0.000000
342.888000	-0.000000
343.061000	0.000000
343.235000	-0.000000
343.409000	-0.000000
343.583000	-0.000000
343.757000	-0.000000
343.930000	-0.000000
344.104000	-0.000000
344.278000	0.000000
344.452000	0.000000
344.626000	-0.000000
344.799000	-0.000000
344.973000	-0.000000
345.147000	-0.000000
345.321000	-0.000000
345.494000	-0.000000
345.668000	0.000000
345.842000	0.000000
346.016000	-0.000000
346.190000	0.000000
346.363000	0.000000
346.537000	-0.000000
346.711000	-0.000000
346.885000	-0.000000
347.059000	-0.000000
347.232000	0.000000
347.406000	0.000000
347.580000	-0.000000
347.754000	-0.000000
347.927000	0.000000
348.101000	0.000000
348.275000	-0.000000
348.449000	-0.000000
348.623000	-0.000000
348.796000	0.000000
348.970000	0.000000
349.144000	-0.000000
349.318000	-0.000000
349.492000	-0.000000
349.665000	-0.000000
349.839000	-0.000000
350.013000	-0.000000
350.187000	-0.000000
350.361000	-0.000000
350.534000	-0.000000
350.708000	-0.000000
350.882000	-0.000000
351.056000	0.000000
351.229000	-0.000000
351.403000	-0.000000
351.577000	-0.000000
351.751000	-0.000000
351.925000	-0.000000
352.098000	-0.000000
352.272000	-0.000000
352.446000	-0.000000
352.620000	-0.000000
352.794000	-0.000000
352.967000	-0.000000
353.141000	0.000000
353.315000	0.000000
353.489000	-0.000000
353.662000	-0.000000
353.836000	-0.000000
354.010000	-0.000000
354.184000	0.000000
354.358000	-0.000000
354.531000	-0.000000
354.705000	-0.000000
354.879000	-0.000000
355.053000	-0.000000
355.227000	0.000000
355.400000	-0.000000
355.574000	0.000000
355.748000	0.000000
355.922000	-0.000000
356.095000	-0.000000
356.269000	-0.000000
356.443000	-0.000000
356.617000	-0.000000
356.791000	-0.000000
356.964000	-0.000000
357.138000	-0.000000
357.312000	0.000000
357.486000	-0.000000
357.660000	-0.000000
357.833000	-0.000000
358.007000	-0.000000
358.181000	-0.000000
358.355000	-0.000000
358.529000	-0.000000
358.702000	-0.000000
358.876000	-0.000000
359.050000	-0.000000
359.224000	-0.000000
359.397000	-0.000000
359.571000	-0.000000
359.745000	-0.000000
359.919000	-0.000000
360.093000	-0.041707
360.266000	0.106498
360.440000	0.189036
360.614000	0.206348
360.788000	0.002681
360.962000	-0.192898
361.135000	-0.019646
361.309000	-0.194030
361.483000	-0.302360
361.657000	-0.182406
361.830000	-0.128901
362.004000	-0.057535
362.178000	-0.387442
362.352000	-0.293102
362.526000	-0.077302
362.699000	-0.063131
362.873000	-0.325152
363.047000	-0.417713
363.221000	-0.402426
363.395000	-0.201999
363.568000	-0.155182
363.742000	-0.107857
363.916000	-0.110377
364.090000	-0.250362
364.263000	-0.221563
364.437000	-0.281533
364.611000	0.008010
364.785000	-0.037664
364.959000	-0.369929
365.132000	-0.322426
365.306000	-0.168910
365.480000	-0.082228
365.656000	-0.257252
365.831000	-0.241059
366.007000	-0.144766
366.183000	-0.100640
366.358000	-0.323508
366.534000	-0.214263
366.710000	-0.342340
366.886000	-0.284235
367.061000	-0.121678
367.237000	0.013422
367.413000	-0.048603
367.588000	-0.319142
367.764000	-0.290337
367.940000	-0.288770
368.115000	-0.269232
368.291000	-0.290612
368.467000	-0.220144
368.643000	0.113164
368.818000	-0.187439
368.994000	-0.400824
369.170000	-0.311887
369.345000	-0.279782
369.521000	-0.289735
369.697000	-0.154666
369.872000	-0.211866
370.048000	-0.310057
370.224000	-0.184574
370.399000	-0.346364
370.575000	-0.342684
370.751000	-0.493883
370.927000	-0.391249
371.102000	-0.352954
371.278000	-0.411178
371.454000	-0.329427
371.629000	-0.029252
371.805000	-0.088752
371.981000	0.036141
372.156000	0.264268
372.332000	0.141582
372.508000	-0.029245
372.683000	-0.082907
372.859000	-0.273264
373.035000	-0.188516
373.211000	0.239750
373.386000	-0.007680
373.562000	-0.450366
373.738000	-0.502330
373.913000	-0.594892
374.089000	-0.514724
374.265000	-0.160959
374.440000	-0.013256
374.616000	0.014330
374.792000	-0.254147
374.968000	0.142829
375.143000	-0.050809
375.319000	-0.297966
375.495000	-0.299322
375.670000	-0.228369
375.846000	-0.143405
376.022000	-0.287615
376.197000	-0.154599
376.373000	-0.248383
376.549000	-0.284873
376.724000	-0.411310
376.900000	-0.337593
377.076000	-0.162419
377.252000	0.118367
377.427000	0.145467
377.603000	-0.236890
377.779000	-0.242315
377.954000	-0.422598
378.130000	-0.243308
378.306000	-0.155662
378.481000	-0.139204
378.657000	-0.206693
378.833000	-0.368698
379.009000	-0.177382
379.184000	0.029606
379.360000	0.029347
379.536000	-0.033817
379.711000	-0.206275
379.887000	-0.266756
380.063000	-0.237742
380.238000	-0.318516
380.414000	-0.091235
380.590000	-0.330360
380.765000	-0.318781
380.941000	-0.132560
381.117000	-0.064302
381.293000	-0.162448
381.468000	-0.334577
381.644000	-0.214956
381.820000	-0.189160
381.995000	-0.080813
382.171000	0.171881
382.347000	0.071618
382.522000	-0.300574
382.698000	0.081278
382.874000	0.086358
383.050000	-0.332015
383.225000	0.081563
383.401000	0.249689
383.577000	-0.039093
383.752000	-0.183405
383.928000	-0.203670
384.104000	-0.176981
384.279000	-0.182425
384.455000	-0.032981
384.631000	-0.162048
384.806000	-0.382276
384.982000	-0.126070
385.158000	-0.241810
385.334000	-0.094424
385.509000	-0.141195
385.685000	-0.488876
385.861000	-0.279536
386.036000	-0.322147
386.212000	-0.524937
386.388000	-0.370623
386.563000	-0.242184
386.739000	-0.265399
386.915000	-0.500963
387.090000	-0.251512
387.266000	-0.027964
387.442000	0.075535
387.618000	-0.022584
387.793000	-0.276443
387.969000	-0.384959
388.145000	-0.352900
388.320000	-0.413252
388.496000	-0.286922
388.672000	-0.507712
388.847000	-0.114419
389.023000	-0.110015
389.199000	-0.420652
389.375000	-0.221081
389.550000	-0.305347
389.726000	-0.174347
389.902000	-0.354707
390.077000	-0.212474
390.253000	-0.144777
390.429000	-0.237925
390.604000	-0.185356
390.780000	-0.118565
390.956000	-0.132732
391.131000	-0.152551
391.307000	0.098424
391.483000	-0.107422
391.659000	-0.289076
391.834000	-0.077224
392.010000	-0.257399
392.186000	-0.317824
392.361000	-0.218034
392.537000	-0.365201
392.713000	0.027658
392.888000	0.235445
393.064000	-0.031770
393.240000	-0.264410
393.416000	-0.257863
393.591000	-0.334074
393.767000	-0.414693
393.943000	-0.330929
394.118000	0.007812
394.294000	0.246899
394.470000	0.075923
394.645000	0.138751
394.821000	0.373775
394.997000	-0.035884
395.172000	-0.040518
395.348000	-0.166258
395.524000	-0.456843
395.700000	-0.254964
395.875000	0.017237
396.051000	-0.107115
396.227000	-0.189813
396.402000	-0.244095
396.578000	-0.088886
396.754000	-0.290196
396.929000	-0.303249
397.105000	-0.006686
397.281000	-0.044880
397.457000	-0.111397
397.632000	-0.143196
397.808000	-0.390607
397.984000	-0.429779
398.159000	-0.454348
398.335000	-0.239503
398.511000	0.282700
398.686000	-0.020849
398.862000	-0.326617
399.038000	-0.363329
399.213000	-0.137359
399.389000	-0.430148
399.565000	-0.109816
399.741000	0.129382
399.916000	0.059636
400.092000	0.276000
400.268000	-0.095291
400.443000	-0.153150
400.619000	0.158525
400.795000	-0.001894
400.970000	-0.263541
401.146000	-0.222353
401.322000	0.050061
401.497000	0.304862
401.673000	0.083486
401.849000	-0.129543
402.025000	0.101689
402.200000	-0.058218
402.376000	-0.236524
402.552000	0.153623
402.727000	0.035646
402.903000	-0.366945
403.079000	-0.306306
403.254000	0.087189
403.430000	0.072638
403.606000	0.002798
403.782000	-0.085710
403.957000	-0.272809
404.133000	-0.418702
404.309000	-0.259385
404.484000	-0.039189
404.660000	-0.025263
404.841000	-0.156352
405.023000	0.105217
405.204000	0.016810
405.385000	-0.273941
405.566000	-0.226012
405.748000	-0.086818
405.929000	0.145103
406.110000	0.007499
406.292000	-0.164268
406.473000	-0.025120
406.654000	-0.180048
406.835000	-0.114015
407.017000	-0.113584
407.198000	-0.038667
407.379000	-0.015608
407.560000	-0.181430
407.742000	-0.117870
407.923000	0.058795
408.104000	-0.131894
408.286000	0.007416
408.467000	-0.011096
408.648000	-0.289383
408.829000	-0.376169
409.011000	-0.196185
409.192000	-0.373462
409.373000	-0.164213
409.555000	-0.094648
409.736000	-0.089405
409.917000	-0.048106
410.098000	-0.079953
410.280000	-0.065689
410.461000	-0.111109
410.642000	-0.047445
410.823000	0.244436
411.005000	0.189953
411.186000	-0.079505
411.367000	-0.143598
411.549000	-0.111505
411.730000	0.121525
411.911000	0.235342
412.092000	0.061843
412.274000	-0.033396
412.455000	0.020803
412.636000	0.147564
412.818000	-0.123533
412.999000	-0.274950
413.180000	-0.105418
413.361000	-0.006331
413.543000	-0.028785
413.724000	-0.140865
413.905000	-0.217137
414.087000	-0.262548
414.268000	-0.184081
414.449000	-0.108695
414.630000	-0.113590
414.812000	-0.251712
414.993000	0.095572
415.174000	0.206287
415.355000	0.011581
415.537000	-0.232362
415.718000	0.082564
415.899000	0.033635
416.081000	-0.023801
416.262000	0.209367
416.443000	0.072831
416.624000	0.103304
416.806000	0.199988
416.987000	0.236201
417.168000	0.204124
417.350000	0.081455
417.531000	-0.062683
417.712000	-0.001741
417.893000	0.315885
418.075000	0.488092
418.256000	0.233016
418.437000	0.347440
418.618000	0.424472
418.800000	0.402094
418.981000	0.227269
419.162000	0.418986
419.344000	0.624826
419.525000	0.358848
419.706000	0.328802
419.887000	0.510443
420.069000	0.718031
420.250000	0.488097
420.431000	0.426372
420.613000	0.450115
420.794000	0.233319
420.975000	0.575545
421.156000	0.434218
421.338000	0.468367
421.519000	0.528638
421.700000	0.469661
421.882000	0.486873
422.063000	0.653898
422.244000	1.122660
422.425000	0.902935
422.607000	0.581558
422.788000	0.583194
422.969000	0.518921
423.150000	0.528138
423.332000	0.556684
423.513000	0.769605
423.694000	0.821297
423.876000	0.853356
424.057000	0.948513
424.238000	1.069133
424.419000	1.176598
424.601000	1.015594
424.782000	1.053656
424.963000	1.221505
425.145000	1.134145
425.326000	1.198081
425.507000	1.355195
425.688000	1.418190
425.870000	1.237520
426.051000	1.061221
426.232000	1.134285
426.413000	1.201555
426.595000	1.203875
426.776000	1.224839
426.957000	1.329535
427.139000	1.470249
427.320000	1.597794
427.501000	1.790637
427.682000	1.708469
427.864000	1.759297
428.045000	2.071776
428.226000	2.061812
428.408000	1.729995
428.589000	1.917120
428.770000	2.007632
428.951000	2.008531
429.133000	1.903831
429.314000	2.175447
429.495000	2.266470
429.677000	2.300218
429.858000	2.337038
430.039000	2.528822
430.220000	2.640989
430.402000	2.765522
430.583000	2.630302
430.764000	2.679701
430.945000	2.860603
431.127000	3.035887
431.308000	2.839862
431.489000	3.098313
431.671000	3.341897
431.852000	3.247345
432.033000	3.256198
432.214000	3.393952
432.396000	3.520291
432.577000	3.367037
432.758000	3.337732
432.940000	3.508177
433.121000	3.788513
433.302000	3.894284
433.483000	4.169120
433.665000	4.344362
433.846000	4.360371
434.027000	4.240839
434.208000	4.260402
434.390000	4.448408
434.571000	4.933744
434.752000	5.393911
434.934000	5.161025
435.115000	5.186400
435.296000	5.488347
435.477000	5.397596
435.659000	5.254641
435.840000	5.632900
436.026000	5.772167
436.211000	5.733046
436.397000	5.588823
436.582000	5.817763
436.768000	6.274061
436.953000	6.432620
437.139000	6.471470
437.325000	6.835718
437.510000	6.988549
437.696000	7.292979
437.881000	7.495083
438.067000	7.275831
438.252000	7.533928
438.438000	7.616769
438.624000	7.721319
438.809000	7.925300
438.995000	8.227012
439.180000	8.221504
439.366000	8.336017
439.551000	8.602427
439.737000	8.885723
439.923000	9.178645
440.108000	9.273407
440.294000	9.473836
440.479000	9.750769
440.665000	9.956893
440.850000	9.987042
441.036000	10.301751
441.222000	10.536896
441.407000	10.629494
441.593000	10.971605
441.778000	11.298473
441.964000	11.750920
442.149000	11.609399
442.335000	11.705132
442.521000	12.046220
442.706000	12.545419
442.892000	12.736342
443.077000	12.809699
443.263000	13.146187
443.448000	13.376101
443.634000	13.514980
443.820000	14.098395
444.005000	14.206399
444.191000	14.235941
444.376000	14.508256
444.562000	15.003967
444.747000	15.251805
444.933000	15.365984
445.119000	15.580168
445.304000	15.764363
445.490000	16.227074
445.675000	16.660771
445.861000	16.768877
446.046000	16.979168
446.232000	17.445192
446.418000	17.903448
446.603000	18.102954
446.789000	18.545609
446.974000	18.956784
447.160000	18.992895
447.345000	19.245267
447.531000	19.565346
447.717000	20.236401
447.902000	20.646250
448.088000	20.778166
448.273000	20.989527
448.459000	21.306772
448.644000	21.543397
448.830000	21.805445
449.016000	22.101933
449.201000	22.436614
449.387000	22.983501
449.572000	23.498304
449.758000	23.763493
449.943000	24.082084
450.129000	24.380029
450.315000	24.782530
450.500000	25.098330
450.686000	25.487063
450.871000	25.872999
451.057000	26.362616
451.243000	26.688943
451.428000	26.978980
451.614000	27.212704
451.799000	27.504927
451.985000	28.131505
452.170000	28.695069
452.356000	28.971293
452.542000	29.240768
452.727000	29.375528
452.913000	29.581507
453.098000	30.153573
453.284000	30.768152
453.469000	30.925507
453.655000	31.340316
453.841000	31.524898
454.026000	31.423292
454.212000	31.616175
454.397000	32.014747
454.583000	32.400074
454.768000	32.351031
454.954000	32.674013
455.140000	32.893306
455.325000	32.948039
455.511000	33.191431
455.696000	33.473719
455.882000	33.684499
456.067000	34.011829
456.253000	33.767981
456.439000	33.951132
456.624000	33.756479
456.810000	33.735566
456.995000	34.094447
457.181000	34.108616
457.366000	33.977937
457.552000	33.927459
457.738000	34.152681
457.923000	34.194998
458.109000	34.245216
458.294000	34.128797
458.480000	34.103001
458.665000	33.695214
458.851000	33.600297
459.037000	33.164843
459.222000	33.255575
459.408000	32.952566
459.593000	32.691549
459.779000	32.422169
459.964000	32.503830
460.150000	32.638859
460.336000	32.166502
460.521000	31.525434
460.707000	31.194524
460.892000	30.692752
461.078000	30.729789
461.263000	30.401655
461.449000	30.113581
461.635000	29.789365
461.820000	29.355167
462.006000	28.967681
462.191000	28.558425
462.377000	28.179393
462.562000	28.193653
462.748000	27.871502
462.934000	27.124248
463.119000	26.438082
463.305000	26.182299
463.490000	25.648544
463.676000	25.360357
463.861000	25.102602
464.047000	24.597843
464.233000	24.074509
464.418000	23.649996
464.604000	23.200622
464.789000	23.076072
464.975000	22.686821
465.160000	22.233448
465.346000	21.800233
465.532000	21.441070
465.717000	20.867989
465.903000	20.633176
466.088000	20.496975
466.274000	19.891857
466.459000	19.540612
466.645000	19.500731
466.831000	18.975995
467.016000	18.705845
467.202000	18.509602
467.387000	18.088353
467.573000	17.502051
467.758000	17.461142
467.944000	16.991686
468.130000	16.767988
468.315000	16.770408
468.501000	16.538875
468.686000	16.070270
468.872000	15.910931
469.057000	15.560652
469.243000	15.166644
469.429000	14.908008
469.614000	14.632142
469.800000	14.316745
469.985000	14.216417
470.171000	14.055508
470.356000	13.792862
470.542000	13.802963
470.728000	13.594623
470.913000	13.311506
471.099000	13.093652
471.284000	12.874712
471.470000	12.732192
471.655000	12.632112
471.841000	12.227942
472.027000	11.911323
472.212000	11.983507
472.398000	11.996641
472.583000	11.609308
472.769000	11.515981
472.954000	11.248711
473.140000	10.942502
473.326000	10.721050
473.511000	10.918013
473.697000	10.767448
473.882000	10.427875
474.068000	10.211014
474.253000	9.993732
474.439000	9.930918
474.625000	9.827667
474.810000	9.566101
474.996000	9.435068
475.181000	9.086931
475.367000	9.148579
475.552000	9.309127
475.738000	8.783058
475.924000	8.717678
476.109000	8.737080
476.295000	8.528878
476.480000	8.422935
476.666000	8.154858
476.851000	7.879012
477.037000	7.824872
477.223000	7.600879
477.408000	7.494857
477.594000	7.317581
477.779000	7.326027
477.965000	7.184228
478.151000	7.015448
478.336000	7.044901
478.522000	6.693974
478.707000	6.477117
478.893000	6.529897
479.078000	6.322316
479.264000	6.179137
479.450000	6.201371
479.635000	6.133783
479.821000	5.844828
480.006000	5.870011
480.192000	5.762523
480.377000	5.722341
480.563000	5.621266
480.749000	5.295506
480.934000	5.154928
481.120000	5.234380
481.305000	5.171498
481.491000	4.946013
481.676000	4.960449
481.862000	4.952092
482.048000	4.688886
482.233000	4.670207
482.419000	4.582129
482.604000	4.376178
482.790000	4.241329
482.975000	4.261728
483.161000	4.347517
483.347000	4.192977
483.532000	3.993737
483.718000	3.776577
483.903000	3.729158
484.089000	3.697149
484.274000	3.484537
484.460000	3.484954
484.646000	3.370122
484.831000	3.326468
485.017000	3.411192
485.202000	3.368691
485.388000	3.454833
485.573000	3.379434
485.759000	3.129288
485.945000	3.244575
486.130000	3.062108
486.316000	2.958517
486.501000	2.944161
486.687000	2.767182
486.872000	2.665247
487.058000	2.751936
487.244000	2.704620
487.429000	2.520812
487.615000	2.677712
487.800000	2.703334
487.986000	2.504766
488.171000	2.559365
488.357000	2.508556
488.543000	2.460649
488.728000	2.396810
488.914000	2.311047
489.099000	2.254708
489.285000	2.169124
489.470000	2.311902
489.656000	2.339420
489.842000	2.269421
490.027000	2.297771
490.213000	2.096334
490.398000	1.783232
490.584000	1.956446
490.769000	1.969258
490.955000	1.946670
491.141000	1.942375
491.326000	1.891054
491.512000	1.998259
491.697000	1.848241
491.883000	1.703005
492.068000	1.601644
492.254000	1.664914
492.440000	1.752903
492.625000	1.560757
492.811000	1.500686
492.996000	1.583882
493.182000	1.515883
493.367000	1.324494
493.553000	1.346960
493.739000	1.417449
493.924000	1.513760
494.110000	1.474358
494.295000	1.234621
494.481000	1.339783
494.666000	1.347019
494.852000	1.451552
495.038000	1.276349
495.223000	1.130861
495.409000	1.172008
495.594000	1.123805
495.780000	1.124006
495.965000	1.078208
496.151000	1.233164
496.337000	1.278847
496.522000	1.062410
496.708000	1.116210
496.893000	1.228511
497.079000	1.091537
497.264000	0.980694
497.450000	1.018377
497.636000	1.090866
497.821000	0.867693
498.007000	1.066337
498.192000	1.126371
498.378000	0.909840
498.563000	0.823037
498.749000	0.898605
498.935000	0.872376
499.120000	0.969504
499.306000	0.834234
499.491000	0.689495
499.677000	0.745020
499.862000	0.847310
500.048000	0.929756
500.234000	0.821808
500.419000	0.779746
500.605000	0.911240
500.790000	0.717358
500.976000	0.600109
501.161000	0.540763
501.347000	0.659106
501.533000	0.796670
501.718000	0.646679
501.904000	0.517050
502.089000	0.652279
502.275000	0.753506
502.460000	0.623791
502.646000	0.655643
502.832000	0.749442
503.017000	0.644835
503.203000	0.401946
503.388000	0.393512
503.574000	0.567473
503.759000	0.586064
503.945000	0.590193
504.131000	0.490052
504.316000	0.474117
504.502000	0.505583
504.687000	0.478701
504.873000	0.356558
505.058000	0.300024
505.244000	0.262301
505.430000	0.322521
505.615000	0.458272
505.801000	0.468559
505.986000	0.287436
506.172000	0.325289
506.358000	0.344912
506.543000	0.354161
506.729000	0.502292
506.914000	0.421389
507.100000	0.603229
507.285000	0.426713
507.471000	0.258403
507.657000	0.483180
507.842000	0.330741
508.028000	0.223385
508.213000	0.249319
508.399000	0.221228
508.584000	0.358262
508.770000	0.348102
508.956000	0.275267
509.141000	0.259143
509.327000	0.345601
509.512000	0.315706
509.698000	0.262218
509.883000	0.348901
510.069000	0.308346
510.255000	0.279742
510.440000	0.286482
510.626000	0.254377
510.811000	0.203539
510.997000	0.318817
511.182000	0.526254
511.368000	0.405201
511.554000	0.008327
511.739000	0.049927
511.925000	0.267726
512.110000	0.299468
512.296000	0.428516
512.481000	0.463234
512.667000	0.293763
512.853000	0.117397
513.038000	0.258893
513.224000	0.201125
513.409000	0.127216
513.595000	0.236822
513.780000	0.072683
513.966000	0.133465
514.152000	0.127064
514.337000	0.091806
514.523000	0.082183
514.708000	0.136898
514.894000	0.198502
515.079000	0.053284
515.265000	0.059909
515.451000	0.137267
515.636000	0.040570
515.822000	0.108322
516.007000	-0.001290
516.193000	0.153330
516.378000	0.263301
516.564000	0.127592
516.750000	0.101851
516.935000	0.195422
517.121000	0.227626
517.306000	0.331101
517.492000	0.308975
517.677000	0.024535
517.863000	-0.036809
518.049000	0.231261
518.234000	0.131035
518.420000	0.237837
518.605000	0.373431
518.791000	0.324814
518.976000	0.160782
519.162000	-0.001294
519.348000	0.111976
519.533000	0.140898
519.719000	0.361012
519.904000	0.270742
520.090000	0.221713
520.275000	0.438549
520.461000	0.436177
520.647000	0.206060
520.832000	-0.027289
521.018000	0.089431
521.203000	0.160191
521.389000	-0.004518
521.574000	0.037475
521.760000	0.141042
521.946000	0.112268
522.131000	0.001949
522.317000	0.018158
522.502000	0.001945
522.688000	0.060312
522.873000	0.092825
523.059000	0.099387
523.245000	0.105784
523.430000	-0.037039
523.616000	-0.033780
523.801000	-0.053339
523.987000	-0.050177
524.172000	0.070371
524.358000	0.155142
524.544000	0.096317
524.729000	0.154478
524.915000	0.229669
525.100000	0.037721
525.286000	0.089883
525.471000	0.126061
525.657000	0.168691
525.843000	-0.007855
526.028000	0.129704
526.214000	0.047802
526.399000	-0.096537
526.585000	-0.208221
526.770000	-0.237751
526.956000	-0.070450
527.142000	-0.047397
527.327000	0.127197
527.513000	-0.027715
527.698000	-0.087200
527.884000	-0.007956
528.069000	-0.031099
528.255000	0.058304
528.441000	-0.094194
528.626000	-0.041253
528.812000	0.174853
528.997000	0.021984
529.183000	-0.091228
529.368000	0.055526
529.554000	0.032197
529.740000	0.065920
529.925000	-0.018166
530.111000	-0.014818
530.296000	0.035751
530.482000	0.167696
530.667000	0.056147
530.853000	0.086865
531.039000	0.053049
531.224000	0.114873
531.410000	0.166105
531.595000	0.043104
531.781000	0.104698
531.967000	-0.035782
532.152000	0.119417
532.338000	0.088531
532.523000	-0.042964
532.709000	-0.102242
532.894000	-0.053819
533.080000	0.009096
533.266000	-0.109935
533.451000	-0.177112
533.637000	-0.121279
533.822000	0.154325
534.008000	0.062242
534.193000	-0.040465
534.379000	0.016387
534.565000	-0.051505
534.750000	-0.044516
534.936000	0.178739
535.121000	0.034684
535.307000	0.078174
535.492000	0.052925
535.678000	-0.096272
535.864000	0.093817
536.049000	0.300766
536.235000	-0.016236
536.420000	-0.023724
536.606000	-0.068401
536.791000	-0.169774
536.977000	-0.173948
537.163000	0.058710
537.348000	0.100693
537.534000	0.116611
537.719000	-0.058833
537.905000	-0.185624
538.090000	0.090869
538.276000	0.207109
538.462000	0.075980
538.647000	0.107426
538.833000	0.025829
539.018000	0.061337
539.204000	0.045641
539.389000	-0.104584
539.575000	0.268023
539.761000	0.145837
539.946000	-0.121704
540.132000	-0.021703
540.317000	-0.130590
540.503000	-0.001616
540.688000	0.051215
540.874000	0.165529
541.060000	0.357032
541.245000	0.235862
541.431000	-0.013975
541.616000	0.018959
541.802000	0.027226
541.987000	0.105906
542.173000	0.060630
542.359000	-0.068185
542.544000	0.093826
542.730000	-0.022508
542.915000	-0.010028
543.101000	0.194817
543.286000	0.006703
543.472000	-0.128150
543.658000	0.015187
543.843000	0.065971
544.029000	0.324976
544.214000	0.172467
544.400000	-0.205832
544.585000	-0.103994
544.771000	-0.018815
544.957000	0.195408
545.142000	0.307077
545.328000	0.260584
545.513000	0.256762
545.699000	0.301137
545.884000	0.206090
546.070000	0.214848
546.261000	0.133030
546.451000	-0.036631
546.642000	-0.255116
546.833000	-0.159285
547.023000	-0.237998
547.214000	-0.159893
547.405000	0.046554
547.595000	0.402812
547.786000	0.267516
547.977000	-0.032756
548.167000	-0.143539
548.358000	-0.104124
548.549000	0.176859
548.740000	0.100934
548.930000	-0.251977
549.121000	-0.113805
549.312000	-0.123236
549.502000	-0.231739
549.693000	-0.145959
549.884000	0.043260
550.074000	0.070545
550.265000	-0.251121
550.456000	-0.115415
550.646000	0.043725
550.837000	0.057409
551.028000	-0.047448
551.218000	0.034665
551.409000	-0.079711
551.600000	0.025676
551.790000	0.219107
551.981000	-0.061678
552.172000	-0.047959
552.362000	0.173315
552.553000	0.197360
552.744000	0.030557
552.934000	0.044484
553.125000	-0.001857
553.316000	-0.080823
553.506000	0.263450
553.697000	0.002803
553.888000	-0.057830
554.079000	0.026137
554.269000	0.063540
554.460000	-0.095550
554.651000	-0.151913
554.841000	-0.321065
555.032000	-0.161718
555.223000	-0.039545
555.413000	-0.048743
555.604000	-0.001883
555.795000	-0.115146
555.985000	-0.053908
556.176000	-0.110453
556.367000	-0.303915
556.557000	-0.248109
556.748000	-0.167942
556.939000	-0.219789
557.129000	-0.318993
557.320000	-0.162911
557.511000	-0.186241
557.701000	-0.157630
557.892000	-0.035064
558.083000	0.192170
558.273000	0.026511
558.464000	-0.191271
558.655000	-0.091769
558.845000	-0.091499
559.036000	-0.044366
559.227000	-0.072738
559.418000	0.040695
559.608000	0.069059
559.799000	-0.162513
559.990000	-0.255631
560.180000	-0.279491
560.371000	-0.369452
560.562000	-0.241848
560.752000	-0.081945
560.943000	-0.242180
561.134000	-0.462385
561.324000	-0.269399
561.515000	0.007495
561.706000	-0.072224
561.896000	-0.315411
562.087000	-0.193521
562.278000	-0.160737
562.468000	-0.273151
562.659000	-0.258411
562.850000	0.063477
563.040000	0.091482
563.231000	-0.356872
563.422000	-0.216027
563.612000	-0.216265
563.803000	-0.141433
563.994000	-0.228726
564.185000	-0.288433
564.375000	-0.085149
564.566000	-0.135888
564.757000	-0.196521
564.947000	-0.330540
565.138000	-0.112575
565.329000	-0.116953
565.519000	-0.328587
565.710000	-0.213751
565.901000	0.044255
566.091000	0.062648
566.282000	-0.135120
566.473000	-0.166773
566.663000	-0.129969
566.854000	-0.270758
567.045000	-0.133664
567.235000	-0.056365
567.426000	-0.101783
567.617000	-0.146692
567.807000	-0.087872
567.998000	-0.065092
568.189000	-0.123825
568.379000	-0.191126
568.570000	-0.060319
568.761000	-0.100619
568.951000	-0.131853
569.142000	-0.181429
569.333000	-0.253277
569.524000	-0.346281
569.714000	-0.426773
569.905000	-0.506426
570.096000	-0.095551
570.286000	0.020511
570.477000	0.127181
570.668000	-0.068418
570.858000	-0.139494
571.049000	-0.178846
571.240000	-0.294093
571.430000	-0.072543
571.621000	-0.133992
571.812000	-0.063211
572.002000	-0.045734
572.193000	-0.120294
572.384000	-0.019309
572.574000	-0.063244
572.765000	-0.212183
572.956000	-0.268332
573.146000	-0.023635
573.337000	-0.076005
573.528000	-0.027907
573.718000	-0.027834
573.909000	0.059063
574.100000	-0.010386
574.290000	-0.135446
574.481000	-0.135143
574.672000	-0.135298
574.863000	0.071242
575.053000	-0.134503
575.244000	-0.151278
575.435000	-0.142594
575.625000	-0.069707
575.816000	-0.120563
576.007000	-0.150280
576.197000	-0.154768
576.388000	-0.111813
576.579000	0.049114
576.769000	0.044828
576.960000	-0.272142
577.155000	-0.448384
577.350000	-0.115325
577.545000	0.052934
577.740000	-0.177600
577.935000	0.094469
578.130000	0.031793
578.326000	-0.247729
578.521000	-0.005836
578.716000	0.048133
578.911000	-0.225477
579.106000	-0.047073
579.301000	0.084802
579.496000	-0.063197
579.691000	-0.235350
579.886000	-0.120231
580.081000	-0.075131
580.276000	-0.062727
580.471000	-0.213398
580.666000	-0.318729
580.861000	-0.269849
581.057000	-0.306624
581.252000	-0.148060
581.447000	-0.228898
581.642000	-0.245544
581.837000	-0.241154
582.032000	-0.183792
582.227000	-0.033808
582.422000	-0.005624
582.617000	-0.181556
582.812000	-0.280807
583.007000	-0.149098
583.202000	-0.208512
583.397000	0.042033
583.592000	0.251753
583.788000	-0.041036
583.983000	-0.111953
584.178000	0.014169
584.373000	-0.166375
584.568000	-0.256089
584.763000	-0.252418
584.958000	-0.326866
585.153000	-0.170108
585.348000	-0.158263
585.543000	-0.052547
585.738000	-0.068202
585.933000	-0.291695
586.128000	-0.107387
586.324000	-0.021219
586.519000	0.021989
586.714000	0.061304
586.909000	0.144085
587.104000	0.156414
587.299000	0.061441
587.494000	-0.021239
587.689000	-0.194683
587.884000	-0.135977
588.079000	-0.163658
588.274000	-0.171880
588.469000	-0.139916
588.664000	-0.084693
588.859000	-0.092742
589.055000	-0.065074
589.250000	-0.140532
589.445000	-0.251991
589.640000	-0.152748
589.835000	0.098088
590.030000	0.217644
590.225000	0.277487
590.420000	-0.045513
590.615000	-0.185414
590.810000	-0.149283
591.005000	-0.165925
591.200000	-0.270242
591.395000	-0.294254
591.591000	-0.169685
591.786000	0.002399
591.981000	-0.125929
592.176000	-0.053850
592.371000	0.014473
592.566000	0.014462
592.761000	0.138979
592.956000	0.111049
593.151000	0.167462
593.346000	0.034715
593.541000	-0.009678
593.736000	-0.038022
593.931000	-0.159439
594.126000	-0.066464
594.322000	0.022694
594.517000	-0.017827
594.712000	-0.216456
594.907000	-0.347412
595.102000	-0.168639
595.297000	0.043150
595.492000	0.075877
595.687000	-0.107913
595.882000	-0.144774
596.077000	0.014751
596.272000	0.063910
596.467000	0.162285
596.662000	-0.038560
596.857000	-0.042832
597.053000	0.035479
597.248000	0.080823
597.443000	0.060285
597.638000	-0.005795
597.833000	-0.204664
598.028000	-0.067859
598.223000	0.043946
598.418000	0.023258
598.613000	-0.005814
598.808000	0.068988
599.003000	0.039940
599.198000	-0.097476
599.393000	-0.093282
599.589000	0.019208
599.784000	-0.076887
599.979000	-0.056076
600.174000	0.094641
600.369000	-0.047789
600.564000	0.073876
600.759000	0.229451
600.954000	0.329753
601.149000	0.250807
601.344000	-0.094359
601.539000	0.141704
601.734000	-0.001685
601.929000	-0.217035
602.124000	-0.069307
602.320000	0.167640
602.515000	0.451346
602.710000	0.363180
602.905000	0.053451
603.100000	-0.005929
603.295000	0.032248
603.490000	0.117446
603.685000	0.100442
603.880000	0.121870
604.075000	-0.018797
604.270000	0.049660
604.465000	0.062455
604.660000	-0.031681
604.856000	0.139465
605.051000	0.302612
605.246000	0.345191
605.441000	0.122577
605.636000	0.015434
605.831000	0.148607
606.026000	0.088440
606.221000	0.049870
606.416000	0.239335
606.611000	0.429167
606.806000	0.463216
607.001000	0.502606
607.196000	0.283032
607.391000	0.106285
607.587000	0.318636
607.782000	0.340733
607.977000	0.123689
608.172000	0.557904
608.367000	0.627306
608.562000	0.367747
608.757000	0.332865
608.952000	0.290084
609.147000	0.602938
609.342000	0.603871
609.537000	0.469667
609.732000	0.439808
609.927000	0.399668
610.122000	0.566437
610.318000	0.728863
610.513000	0.799277
610.708000	0.567903
610.903000	0.656276
611.098000	0.732414
611.293000	0.693037
611.488000	0.671141
611.683000	0.650288
611.878000	0.721002
612.073000	0.888723
612.268000	0.863212
612.463000	0.913799
612.658000	0.878428
612.854000	0.831516
613.049000	0.818586
613.244000	0.916669
613.439000	0.908146
613.634000	0.612278
613.829000	0.826102
614.024000	0.796829
614.219000	0.729800
614.414000	1.015966
614.609000	0.910186
614.804000	0.727089
614.999000	0.788971
615.194000	0.907481
615.389000	1.002722
615.585000	0.896737
615.780000	0.991913
615.975000	0.935322
616.170000	0.999118
616.365000	1.266417
616.560000	1.362504
616.755000	1.235237
616.950000	1.204040
617.145000	1.359420
617.340000	1.129088
617.535000	0.911066
617.730000	1.267044
617.925000	1.041338
618.120000	1.032552
618.316000	1.482337
618.511000	1.387724
618.706000	1.245837
618.901000	1.368981
619.096000	1.434024
619.291000	1.464956
619.486000	1.548014
619.681000	1.263017
619.876000	1.184031
620.071000	1.328240
620.266000	1.572207
620.461000	1.718800
620.656000	1.800995
620.852000	1.705912
621.047000	1.565868
621.242000	1.451479
621.437000	1.819140
621.632000	1.911942
621.827000	1.876198
622.022000	1.694841
622.217000	1.887409
622.412000	2.011778
622.607000	2.131465
622.802000	2.014776
622.997000	1.931963
623.192000	2.087817
623.387000	2.140278
623.583000	1.893387
623.778000	2.369003
623.973000	2.403848
624.168000	2.285635
624.363000	2.401073
624.558000	2.490971
624.753000	2.240755
624.948000	2.589896
625.143000	2.654098
625.338000	2.677777
625.533000	2.558507
625.728000	2.546843
625.923000	2.803526
626.119000	2.756971
626.314000	2.576166
626.509000	2.545341
626.704000	2.658883
626.899000	2.734072
627.094000	2.616212
627.289000	2.744165
627.484000	2.892411
627.679000	2.968402
627.874000	3.011434
628.069000	3.383857
628.264000	3.380796
628.459000	3.285538
628.654000	3.239335
628.850000	3.013773
629.045000	3.170307
629.240000	3.173473
629.435000	3.172648
629.630000	3.431699
629.825000	3.446483
630.020000	3.405271
630.215000	3.199287
630.410000	3.316927
630.605000	3.309636
630.800000	3.439175
630.995000	3.682499
631.190000	3.926524
631.385000	3.737879
631.581000	3.573061
631.776000	3.560230
631.971000	3.531304
632.166000	3.498613
632.361000	3.203157
632.556000	3.288763
632.751000	3.416399
632.946000	3.295382
633.141000	3.244160
633.336000	3.249244
633.531000	3.300285
633.726000	3.178422
633.921000	2.925147
634.117000	2.648554
634.312000	2.625458
634.507000	2.736606
634.702000	2.720843
634.897000	2.631586
635.092000	2.680033
635.287000	2.810212
635.482000	2.598677
635.677000	2.500456
635.872000	2.474660
636.067000	2.422884
636.262000	2.190986
636.457000	1.800655
636.652000	1.834744
636.848000	1.765333
637.043000	1.683123
637.238000	1.592487
637.433000	1.445738
637.628000	1.583064
637.823000	1.760017
638.018000	1.752804
638.213000	1.491033
638.408000	1.386045
638.603000	1.276184
638.798000	1.187358
638.993000	1.130853
639.188000	1.008282
639.383000	1.100098
639.579000	1.408953
639.774000	1.144889
639.969000	0.941603
640.164000	0.750275
640.359000	0.702662
640.554000	0.924447
640.749000	0.867571
640.944000	0.874868
641.139000	0.846071
641.334000	0.658155
641.529000	0.203914
641.724000	0.307333
641.919000	0.503870
642.115000	0.843256
642.310000	0.852946
642.505000	0.602188
642.700000	0.466914
642.895000	0.419095
643.090000	0.621333
643.285000	0.812872
643.480000	0.633796
643.675000	0.541053
643.870000	0.871971
644.065000	0.730444
644.260000	0.317214
644.455000	0.356428
644.650000	0.257751
644.846000	0.456883
645.041000	0.196830
645.236000	-0.079810
645.431000	-0.018871
645.626000	-0.135347
645.821000	0.080955
646.016000	0.108997
646.211000	0.554926
646.406000	0.455495
646.601000	0.310057
646.796000	0.120428
646.991000	-0.219704
647.186000	-0.114007
647.381000	0.171121
647.577000	0.126505
647.772000	0.160099
647.967000	0.132368
648.162000	0.115634
648.357000	0.149515
648.552000	0.312396
648.747000	0.256358
648.942000	0.262148
649.137000	0.116239
649.332000	-0.070061
649.527000	-0.041793
649.722000	0.172759
649.917000	0.229890
650.113000	0.031671
650.308000	-0.092882
650.503000	-0.081511
650.698000	0.219125
650.893000	0.151111
651.088000	0.145525
651.283000	0.197116
651.478000	-0.064946
651.673000	0.037562
651.868000	-0.201875
652.063000	0.100566
652.258000	0.317942
652.453000	0.419756
652.648000	0.014849
652.844000	-0.036577
653.039000	0.026334
653.234000	-0.305803
653.429000	-0.535823
653.624000	-0.340517
653.819000	0.037918
654.014000	0.037926
654.209000	-0.134817
654.404000	0.003453
654.599000	-0.071549
654.794000	-0.198149
654.989000	0.009244
655.184000	-0.019666
655.380000	-0.239263
655.575000	-0.245070
655.770000	-0.286004
655.965000	-0.176046
656.160000	-0.176139
656.355000	-0.100796
656.550000	-0.066242
656.745000	0.073264
656.940000	-0.095438
657.135000	-0.153594
657.330000	-0.043070
657.525000	-0.322676
657.720000	-0.031507
657.915000	0.137571
658.111000	-0.159783
658.306000	0.067699
658.501000	-0.125181
658.696000	-0.429187
658.891000	-0.154438
659.086000	-0.160223
659.281000	-0.137057
659.476000	-0.360138
659.671000	-0.758916
659.866000	-0.407202
660.061000	-0.072806
660.256000	-0.025846
660.451000	-0.049386
660.646000	-0.261386
660.842000	-0.226324
661.037000	-0.403292
661.232000	-0.203116
661.427000	-0.008260
661.622000	-0.244704
661.817000	-0.374639
662.012000	-0.073457
662.207000	-0.197996
662.402000	-0.376782
662.597000	-0.222418
662.792000	-0.507408
662.987000	-0.530739
663.182000	-0.186806
663.378000	-0.085737
663.573000	-0.456002
663.768000	-0.359756
663.963000	-0.157416
664.158000	-0.276419
664.353000	0.069387
664.548000	0.188955
664.743000	-0.140080
664.938000	-0.367524
665.133000	-0.344119
665.328000	0.087658
665.523000	0.027673
665.718000	-0.206966
665.913000	-0.249456
666.109000	-0.256053
666.304000	-0.074859
666.499000	-0.201509
666.694000	0.052033
666.889000	0.294015
667.084000	-0.117758
667.279000	-0.232949
667.474000	-0.184522
667.669000	-0.129862
667.864000	-0.166469
668.059000	-0.282333
668.254000	-0.264414
668.449000	-0.337906
668.644000	-0.222220
668.840000	-0.008536
669.035000	-0.252774
669.230000	-0.419046
669.425000	-0.039235
669.620000	-0.284436
669.815000	-0.365445
670.010000	-0.272909
670.205000	-0.187012
670.400000	-0.198960
670.595000	-0.224203
670.790000	-0.335523
670.985000	-0.230914
671.180000	0.003709
671.376000	-0.268496
671.571000	-0.386896
671.766000	-0.356719
671.961000	-0.530930
672.156000	-0.537815
672.351000	-0.232859
672.546000	-0.301981
672.741000	-0.245291
672.936000	-0.120936
673.131000	0.372543
673.326000	0.028833
673.521000	-0.504393
673.716000	-0.623577
673.911000	-0.824914
674.107000	-0.153468
674.302000	0.104481
674.497000	-0.210461
674.692000	-0.462840
674.887000	-0.401146
675.082000	-0.294027
675.277000	-0.021575
675.472000	-0.148684
675.667000	-0.320733
675.862000	-0.410034
676.057000	-0.257399
676.252000	-0.200480
676.447000	-0.296977
676.643000	-0.117670
676.838000	0.144804
677.033000	-0.137309
677.228000	0.016724
677.423000	-0.015447
677.618000	-0.389803
677.813000	-0.576622
678.008000	-0.339062
678.203000	-0.196916
678.398000	-0.353018
678.593000	-0.086986
678.788000	-0.061218
678.983000	-0.386374
679.178000	-0.132761
679.374000	-0.224196
679.569000	-0.296525
679.764000	-0.415318
679.959000	-0.534510
680.154000	-0.488643
680.349000	-0.655100
680.544000	-0.568660
680.739000	-0.377990
680.934000	-0.582717
681.129000	-0.584348
681.324000	-0.505648
681.519000	-0.248310
681.714000	-0.414438
681.909000	-0.539972
682.105000	-0.654580
682.300000	-0.243081
682.495000	-0.082765
682.690000	-0.096333
682.885000	-0.237009
683.080000	-0.378656
683.275000	-0.378846
683.470000	-0.117020
683.665000	0.186026
683.860000	0.422656
684.055000	0.010809
684.250000	-0.476055
684.445000	-0.468547
684.641000	0.037922
684.836000	-0.274032
685.031000	-0.261406
685.226000	-0.254943
685.421000	0.024609
685.616000	-0.132615
685.811000	-0.276830
686.006000	-0.078109
686.201000	-0.071352
686.396000	-0.484848
686.591000	-0.492723
686.786000	-0.147913
686.981000	-0.210140
687.176000	-0.072065
687.372000	-0.162328
687.567000	0.094387
687.762000	-0.002784
687.957000	0.045930
688.152000	-0.232928
688.347000	-0.310200
688.542000	-0.528089
688.737000	-0.940900
688.932000	-0.942498
689.127000	-0.466288
689.322000	-0.185920
689.517000	-0.404149
689.712000	-0.553961
689.908000	-0.328186
690.103000	-0.378430
690.298000	-0.144593
690.493000	-0.159184
690.688000	-0.500911
690.883000	-0.352701
691.078000	-0.045709
691.273000	-0.031429
691.468000	-0.203253
691.663000	-0.254314
691.858000	-0.089097
692.053000	-0.038799
692.248000	0.025892
692.443000	-0.002877
692.639000	-0.024504
692.834000	-0.010115
693.029000	0.459671
693.224000	0.505424
693.419000	-0.097399
693.614000	-0.294207
693.809000	-0.345436
694.004000	-0.528623
694.199000	-0.513886
694.394000	-0.259280
694.589000	-0.640821
694.784000	-0.546059
694.979000	-0.230468
695.174000	-0.216335
695.370000	0.276206
695.565000	-0.039764
695.760000	-0.549118
695.955000	-0.128734
696.150000	0.034044
696.345000	-0.396736
696.540000	-0.211368
696.740000	-0.263281
696.940000	-0.077407
697.140000	0.079302
697.340000	-0.235321
697.539000	-0.025494
697.739000	-0.175530
697.939000	-0.160638
698.139000	-0.483920
698.339000	-0.840231
698.539000	-0.673911
698.739000	-0.705956
698.939000	-0.579986
699.138000	-0.398449
699.338000	0.125796
699.538000	0.362090
699.738000	0.027465
699.938000	-0.224488
700.138000	-0.423732
700.338000	-0.578369
700.538000	-0.349114
700.737000	-0.325938
700.937000	-0.746516
701.137000	-0.747663
701.337000	-0.049383
701.537000	0.035572
701.737000	-0.227066
701.937000	-0.204357
702.137000	-0.320486
702.337000	-0.499369
702.536000	-0.570319
702.736000	-0.493212
702.936000	-0.727665
703.136000	-0.206286
703.336000	-0.385918
703.536000	-0.410491
703.736000	-0.851487
703.936000	-0.747819
704.135000	-0.637757
704.335000	-0.293844
704.535000	-0.499480
704.735000	-0.665604
704.935000	-0.058235
705.135000	0.004745
705.335000	-0.249138
705.535000	-0.106390
705.735000	-0.122248
705.934000	-0.217394
706.134000	-0.336519
706.334000	-0.440740
706.534000	-0.600714
706.734000	-0.393884
706.934000	-0.545348
707.134000	-0.553464
707.334000	-0.378819
707.533000	-0.235398
707.733000	-0.355241
707.933000	-0.587855
708.133000	-0.275173
708.333000	-0.188155
708.533000	-0.454342
708.733000	-0.188475
708.933000	-0.325689
709.132000	-0.431327
709.332000	-0.464420
709.532000	-0.570860
709.732000	-0.351409
709.932000	-0.766185
710.132000	-0.854928
710.332000	-0.895074
710.532000	-0.392769
710.732000	-0.149727
710.931000	-0.524431
711.131000	-0.575532
711.331000	-0.338712
711.531000	-0.429436
711.731000	-0.455165
711.931000	-0.464150
712.131000	-0.397835
712.331000	-0.340406
712.530000	-0.438541
712.730000	-0.324420
712.930000	-0.316080
713.130000	-0.333707
713.330000	-0.408553
713.530000	-0.335350
713.730000	0.345469
713.930000	0.079698
714.129000	-0.542377
714.329000	-0.660596
714.529000	-0.377434
714.729000	0.096635
714.929000	-0.011663
715.129000	-0.478986
715.329000	-0.454373
715.529000	-0.405915
715.729000	0.172441
715.928000	-0.028533
716.128000	-0.255273
716.328000	-0.112855
716.528000	-0.365934
716.728000	-0.399757
716.928000	-0.560053
717.128000	-0.366877
717.328000	-0.333009
717.527000	-0.460346
717.727000	-0.316797
717.927000	-0.130865
718.127000	-0.343505
718.327000	-0.787065
718.527000	-0.863294
718.727000	-0.259057
718.927000	-0.370509
719.127000	-0.646283
719.326000	-0.361953
719.526000	-0.020526
719.726000	-0.251966
719.926000	-0.777646
720.126000	-0.631509
720.326000	-0.467970
720.526000	-0.751988
720.726000	-0.486731
720.925000	-0.253883
721.125000	-0.740202
721.325000	-0.289142
721.525000	-0.194386
721.725000	-0.584958
721.925000	-0.525682
722.125000	-0.490909
722.325000	0.083550
722.524000	-0.221731
722.724000	-0.816354
722.924000	-0.912442
723.124000	-0.633553
723.324000	-0.231257
723.524000	-0.222699
723.724000	-0.924948
723.924000	-0.655246
724.124000	-0.408789
724.323000	0.155259
724.523000	0.111054
724.723000	0.155457
724.923000	-0.030040
725.123000	-0.091985
725.323000	-0.118731
725.523000	-0.349771
725.723000	-0.455821
725.922000	-0.456335
726.122000	-0.492401
726.322000	-0.591762
726.522000	-0.628024
726.722000	0.192467
726.922000	0.005343
727.122000	-0.316314
727.322000	-0.012526
727.521000	-0.272652
727.721000	-0.515568
727.921000	-0.335943
728.121000	-0.452602
728.321000	-0.723337
728.521000	-0.571853
728.721000	-0.518614
728.921000	-0.093932
729.121000	0.720125
729.320000	0.032605
729.520000	-0.519908
729.720000	-0.611492
729.920000	-0.541478
730.120000	-0.503732
730.320000	-0.413818
730.520000	-0.569005
730.720000	-0.497618
730.919000	-0.470088
731.119000	-0.186914
731.319000	-0.581847
731.519000	-0.719409
731.719000	-0.334265
731.919000	-0.582520
732.119000	-1.108071
732.319000	-1.139246
732.519000	-0.474785
732.718000	-0.854624
732.918000	-0.864616
733.118000	-0.523405
733.318000	-0.161940
733.518000	-0.366722
733.718000	-0.851904
733.918000	-0.973640
734.118000	-0.730908
734.317000	-0.181599
734.517000	-0.564608
734.717000	-0.727007
734.917000	-0.295602
735.117000	-0.154556
735.317000	-0.145095
735.517000	0.270195
735.717000	0.318370
735.916000	-0.449197
736.116000	-0.666582
736.316000	-0.318199
736.516000	-0.194288
736.716000	-0.375434
736.916000	-1.046699
737.116000	-0.849897
737.316000	-0.090359
737.516000	-0.225381
737.715000	-0.080958
737.915000	-0.601672
738.115000	-0.603583
738.315000	-0.400750
738.515000	-0.952323
738.715000	-0.675603
738.915000	-0.003899
739.115000	-0.540931
739.314000	-0.794080
739.514000	-0.199723
739.714000	0.035334
739.914000	-0.072844
740.114000	-0.368845
740.314000	-0.270424
740.514000	0.243162
740.714000	-0.519709
740.913000	-0.967431
741.113000	-0.789880
741.313000	-0.352164
741.513000	-0.393059
741.713000	-0.384112
741.913000	-0.355777
742.113000	-0.535864
742.313000	-0.838698
742.513000	-0.436852
742.712000	-0.397873
742.912000	-0.771714
743.112000	-0.652702
743.312000	-1.019257
743.512000	-0.502639
743.712000	-0.381761
743.912000	-0.954922
744.112000	-1.170375
744.311000	-1.101731
744.511000	-0.630993
744.711000	-0.271983
744.911000	-0.623154
745.111000	-0.551618
745.311000	-0.190437
745.511000	-0.501623
745.711000	-0.751069
745.911000	-0.305388
746.110000	-0.700441
746.310000	-1.112266
746.510000	-0.807364
746.710000	-0.360474
746.910000	-0.360795
747.110000	-0.624004
747.310000	-0.951324
747.510000	-0.764803
747.709000	-0.310821
747.909000	-0.481206
748.109000	-0.068064
748.309000	-0.132144
748.509000	-0.772762
748.709000	-0.979174
748.909000	-0.732547
749.109000	-0.660450
749.308000	-0.090446
749.508000	-0.177234
749.708000	-0.361073
749.908000	-0.220585
750.108000	-0.026028
750.308000	-0.766161
750.508000	-0.266224
750.708000	-0.571917
750.908000	-0.923171
751.107000	-0.443259
751.307000	0.116163
751.507000	-0.400589
751.707000	-0.411071
751.907000	-0.379027
752.107000	-0.291865
752.307000	-0.769834
752.507000	-0.605023
752.706000	-0.582384
752.906000	0.441057
753.106000	-0.339764
753.306000	-0.979818
753.506000	0.074192
753.706000	-0.477582
753.906000	-0.443860
754.106000	0.097012
754.305000	-0.027108
754.505000	-0.140425
754.705000	-0.403082
754.905000	-0.540519
755.105000	-0.198712
755.305000	-1.022394
755.505000	-0.864771
755.705000	-0.199812
755.905000	-0.338628
756.104000	-1.145876
756.304000	-1.345455
756.504000	-1.394560
756.704000	-0.400515
756.904000	-0.179198
757.104000	-0.492681
757.304000	-0.586200
757.504000	-0.051489
757.703000	-0.367377
757.903000	-0.039876
758.103000	0.042308
758.303000	-0.417195
758.503000	-0.595540
758.703000	-0.620618
758.903000	-0.834180
759.103000	-0.705786
759.303000	-0.589784
759.502000	-0.591646
759.702000	-0.316062
759.902000	-0.666639
760.102000	-0.619988
760.302000	-0.440536
760.502000	0.127905
760.702000	-0.041085
760.902000	-0.658754
761.101000	-0.964256
761.301000	-1.160595
761.501000	-0.662020
761.701000	-1.004780
761.901000	-0.813893
762.101000	-0.324289
762.301000	-0.410279
762.501000	-0.779434
762.700000	-0.918880
762.900000	-0.832723
763.100000	-0.462601
763.300000	-0.079485
763.500000	-0.228746
763.703000	-0.451007
763.905000	-0.689033
764.108000	-0.092364
764.311000	-0.242177
764.513000	-0.467441
764.716000	-0.695216
764.919000	-0.595620
765.121000	-0.759270
765.324000	-0.963288
765.527000	-0.727588
765.729000	-0.651514
765.932000	-0.017775
766.135000	-0.144693
766.337000	-0.576530
766.540000	-0.845977
766.743000	-0.223335
766.945000	-0.645619
767.148000	-1.404577
767.351000	-1.237497
767.553000	-0.340168
767.756000	-0.998372
767.958000	-1.372298
768.161000	-0.805505
768.364000	-1.028728
768.566000	-1.173811
768.769000	-0.435134
768.972000	-0.422047
769.174000	-0.959032
769.377000	-1.276255
769.580000	-1.187057
769.782000	-0.621875
769.985000	-1.124004
770.188000	-1.984218
770.390000	-1.118992
770.593000	0.272779
770.796000	-0.190822
770.998000	-0.522415
771.201000	-0.615878
771.404000	-0.470535
771.606000	-0.645884
771.809000	-0.325505
772.012000	-0.539989
772.214000	-1.516905
772.417000	-1.343154
772.620000	-0.458782
772.822000	-0.717697
773.025000	-0.892580
773.228000	-1.163598
773.430000	-1.152047
773.633000	-0.694702
773.836000	-0.573844
774.038000	-0.317894
774.241000	-0.304226
774.444000	-0.686612
774.646000	-0.046282
774.849000	-0.373818
775.052000	-0.455598
775.254000	-0.347161
775.457000	-0.756504
775.659000	-0.662500
775.862000	-0.785879
776.065000	-0.444327
776.267000	0.324201
776.470000	0.587827
776.673000	-0.336922
776.875000	0.091402
777.078000	0.063603
777.281000	-0.838310
777.483000	-0.228346
777.686000	-0.005580
777.889000	-0.145232
778.091000	0.064458
778.294000	-1.027065
778.497000	-1.154482
778.699000	-0.860944
778.902000	-0.695048
779.105000	-0.624741
779.307000	0.219817
779.510000	-0.641154
779.713000	-0.303394
779.915000	-0.674222
780.118000	0.264828
780.321000	0.521752
780.523000	-0.477241
780.726000	-1.177874
780.929000	-1.020266
781.131000	-1.050468
781.334000	-1.226745
781.537000	-1.460656
781.739000	-0.640162
781.942000	-1.116859
782.145000	-1.601277
782.347000	-1.500694
782.550000	-1.225724
782.753000	-1.317176
782.955000	-1.057773
783.158000	-0.867330
783.361000	-0.781646
783.563000	-0.635375
783.766000	-0.358141
783.968000	1.405365
784.171000	1.072151
784.374000	-0.448985
784.576000	-0.522676
784.779000	-0.359696
784.982000	0.038549
785.184000	-0.572429
785.387000	-0.214988
785.590000	0.605824
785.792000	0.368468
785.995000	-0.171015
786.198000	-0.156268
786.400000	-0.398354
786.603000	-0.444747
786.806000	-0.654504
787.008000	-0.006032
787.211000	-0.263326
787.414000	-0.810903
787.616000	-0.600568
787.819000	-0.540868
788.022000	-1.077077
788.224000	-0.619633
788.427000	-1.187791
788.630000	-1.007159
788.832000	-0.852234
789.035000	-1.434512
789.238000	-1.857544
789.440000	-1.402838
789.643000	-0.238484
789.846000	-0.580825
790.048000	-0.255310
790.251000	-0.333229
790.454000	-0.425804
790.656000	0.336909
790.859000	-0.381463
791.062000	-0.867634
791.264000	-0.366172
791.467000	-1.467740
791.669000	-1.989222
791.872000	-0.686420
792.075000	-1.064777
792.277000	-0.812142
792.480000	-0.498830
792.683000	-0.861855
792.885000	-1.132279
793.088000	-0.977268
793.291000	-1.586049
793.493000	-1.365145
793.696000	-0.534118
793.899000	-0.262985
794.101000	-0.424323
794.304000	-0.618593
794.507000	-0.232316
794.709000	-0.168250
794.912000	-0.981074
795.115000	-1.113155
795.317000	-0.722375
795.520000	-0.545785
795.723000	-0.794086
795.925000	-1.025277
796.128000	-1.106009
796.331000	-0.846227
796.533000	-1.310318
796.736000	-0.802745
796.939000	-0.605162
797.141000	-0.823459
797.344000	-0.056729
797.547000	0.310478
797.749000	-0.056836
797.952000	-0.729171
798.155000	-1.582567
798.357000	-1.828213
798.560000	-1.278833
798.763000	-0.684504
798.965000	-0.666929
799.168000	-0.583992
799.371000	-0.499692
799.573000	-0.927685
799.776000	-1.629296
799.978000	-1.412161
800.181000	-0.590672
800.384000	1.007758
800.586000	0.113768
800.789000	-1.454230
800.992000	-1.332715
801.194000	-1.387428
801.397000	-1.442918
801.600000	-1.465215
801.802000	0.010432
802.005000	-0.286042
802.208000	-1.423803
802.410000	-0.583713
802.613000	-0.691611
802.816000	-0.604548
803.018000	-1.416716
803.221000	-1.578244
803.424000	-0.077838
803.626000	-0.077959
803.829000	-0.789183
804.032000	-0.024950
804.234000	0.634245
804.437000	-0.812328
804.640000	-1.026178
804.842000	-1.028526
805.045000	-1.339773
805.248000	-0.566500
805.450000	-0.836304
805.653000	-0.877882
805.856000	-0.876924
806.058000	0.119947
806.261000	-1.136725
806.464000	-0.955512
806.666000	-0.372582
806.869000	-1.091825
807.072000	-2.102547
807.274000	-2.195882
807.477000	-1.021642
807.679000	-0.561079
807.882000	-1.172833
808.085000	-0.920009
808.287000	-0.156594
808.490000	-1.053431
808.693000	-1.241084
808.895000	-1.036647
809.098000	-0.737611
809.301000	-0.514674
809.503000	-0.724423
809.706000	-0.045524
809.909000	0.106204
810.111000	-0.045580
810.314000	-0.331208
810.517000	-1.164947
810.719000	-1.324152
810.922000	-0.716614
811.125000	0.221787
811.327000	0.184598
811.530000	-0.779928
811.735000	-0.971512
811.940000	-1.321430
812.146000	-1.385191
812.351000	-0.182378
812.556000	-0.689034
812.761000	-1.667522
812.967000	-0.360829
813.172000	0.011754
813.377000	-0.400866
813.582000	-0.126296
813.788000	-0.464956
813.993000	-1.018751
814.198000	-0.424565
814.403000	-1.257124
814.609000	-0.766204
814.814000	-0.348752
815.019000	1.012332
815.224000	0.131975
815.429000	-1.034637
815.635000	-0.391731
815.840000	-0.897513
816.045000	-0.881296
816.250000	-0.272544
816.456000	-1.434322
816.661000	-2.546139
816.866000	-2.079951
817.071000	-1.689153
817.277000	-2.442784
817.482000	-1.475644
817.687000	-1.061622
817.892000	-0.943006
818.097000	-0.445878
818.303000	0.012501
818.508000	0.636313
818.713000	1.911336
818.918000	0.701605
819.124000	0.221909
819.329000	-0.828334
819.534000	-1.020579
819.739000	-1.126104
819.945000	-1.194979
820.150000	-1.009999
820.355000	-0.584974
820.560000	-0.391772
820.766000	-0.712973
820.971000	-0.931782
821.176000	-1.967090
821.381000	-2.755423
821.586000	-2.167467
821.792000	-0.441942
821.997000	-0.594142
822.202000	-0.724959
822.407000	-1.532691
822.613000	-1.688628
822.818000	-0.861830
823.023000	-0.709577
823.228000	-0.978664
823.434000	-0.603471
823.639000	-0.229546
823.844000	-0.938308
824.049000	0.013288
824.255000	0.191074
824.460000	-0.410718
824.665000	-0.791286
824.870000	-0.076257
825.075000	-0.390748
825.281000	-0.346877
825.486000	1.055865
825.691000	-1.642923
825.896000	-3.101289
826.102000	-0.919134
826.307000	-1.035404
826.512000	-1.085059
826.717000	-1.065443
826.923000	-0.769126
827.128000	-0.447717
827.333000	-1.426160
827.538000	-0.452299
827.744000	0.200991
827.949000	-1.059033
828.154000	-0.360687
828.359000	-0.009364
828.564000	-0.738746
828.770000	-0.883546
828.975000	-0.127860
829.180000	-0.913836
829.385000	-1.627150
829.591000	-1.156218
829.796000	-0.945922
830.001000	-0.779350
830.206000	-1.433320
830.412000	-1.383647
830.617000	-1.121190
830.822000	-0.131134
831.027000	-0.809284
831.232000	-1.691768
831.438000	-1.335479
831.643000	-0.697139
831.848000	-0.895706
832.053000	-1.047333
832.259000	-1.567998
832.464000	-3.184483
832.669000	-2.648392
832.874000	-2.122228
833.080000	-1.832087
833.285000	0.040001
833.490000	-0.435323
833.695000	-1.672175
833.901000	-1.174005
834.106000	-1.758626
834.311000	-0.952714
834.516000	-0.443921
834.721000	-1.293094
834.927000	-0.113356
835.132000	-0.552402
835.337000	1.411498
835.542000	-0.036407
835.748000	-2.086774
835.953000	0.093761
836.158000	-0.088769
836.363000	-0.692032
836.569000	-1.040812
836.774000	-1.730678
836.979000	-1.812268
837.184000	-2.241618
837.390000	-2.086062
837.595000	-0.971123
837.800000	-0.625727
838.005000	-0.521942
838.210000	-0.737496
838.416000	-1.280758
838.621000	-0.092116
838.826000	-0.714815
839.031000	-0.827347
839.237000	-1.025461
839.442000	-2.015754
839.647000	-2.259538
839.852000	-1.690946
840.058000	-1.669417
840.263000	-1.927593
840.468000	-2.457791
840.673000	-1.651668
840.878000	-1.152249
841.084000	-1.747073
841.289000	-1.386580
841.494000	0.751825
841.699000	1.378181
841.905000	0.926891
842.110000	0.674626
842.315000	-1.758908
842.520000	-0.755514
842.726000	-1.244987
842.931000	-1.931892
843.136000	-0.733308
843.341000	-2.193063
843.547000	-1.608050
843.752000	-1.435534
843.957000	-2.209023
844.162000	-2.013452
844.367000	-1.427829
844.573000	-0.752541
844.778000	-0.189116
844.983000	-0.930126
845.188000	-1.262406
845.394000	-2.054919
845.599000	-1.989937
845.804000	-1.876440
846.009000	-1.283830
846.215000	-1.959004
846.420000	-1.476268
846.625000	-0.379449
846.830000	0.109767
847.036000	-1.299070
847.241000	-1.796873
847.446000	-0.196894
847.651000	-0.970075
847.856000	-2.256994
848.062000	-2.232423
848.267000	-0.825677
848.472000	-2.052523
848.677000	-3.002409
848.883000	-1.363003
849.088000	0.558336
849.293000	-0.872655
849.498000	-1.666746
849.704000	-0.778292
849.909000	-1.228029
850.114000	-1.771743
850.319000	-0.205136
850.524000	-0.238493
850.730000	-0.304669
850.935000	-1.347228
851.140000	-0.730857
851.345000	-0.437147
851.551000	-0.373020
851.756000	-0.342130
851.961000	-1.827349
852.166000	-2.125314
852.372000	-1.799951
852.577000	-1.479812
852.782000	-2.263419
852.987000	0.020092
853.193000	0.389841
853.398000	-0.181532
853.603000	-1.933928
853.808000	-2.912528
854.013000	-1.743706
854.219000	-0.183524
854.424000	1.658122
854.629000	0.841149
854.834000	-1.631571
855.040000	-2.404143
855.245000	-1.222223
855.450000	-3.180390
855.655000	-3.956418
855.861000	-2.833026
856.066000	-2.119218
856.271000	-2.895773
856.476000	-0.437272
856.682000	-1.182348
856.887000	-3.940051
857.092000	-2.672370
857.297000	-0.156575
857.502000	-0.549091
857.708000	-1.514729
857.913000	-0.300608
858.118000	-0.411729
858.323000	-1.101171
858.529000	-1.388802
858.734000	-1.138724
858.939000	-0.741989
859.144000	-1.985333
859.350000	-2.971120
859.555000	-3.126867
859.760000	-1.119146
859.965000	-0.750788
860.171000	-2.528231
860.376000	-0.979882
860.581000	-2.582796
860.786000	-5.321828
860.991000	-4.444187
861.197000	-2.753415
861.402000	-0.993169
861.607000	-1.407888
861.812000	-2.548129
862.018000	-2.975365
862.223000	-2.600743
862.428000	-1.468673
862.633000	-0.359682
862.839000	-1.093514
863.044000	-1.335611
863.249000	-1.796634
863.454000	-1.255792
863.659000	-2.192644
863.865000	-2.633315
864.070000	-2.091808
864.275000	-2.213022
864.480000	-2.420235
864.686000	-3.734759
864.891000	-3.223121
865.096000	-0.970579
865.301000	-0.573872
865.507000	-0.737595
865.712000	-0.256538
865.917000	-1.024679
866.122000	-1.229722
866.328000	-3.921627
866.533000	-3.065190
866.738000	0.553577
866.943000	-0.016316
867.148000	0.598882
867.354000	-2.248966
867.559000	-3.986453
867.764000	-2.717720
867.969000	-0.726730
868.175000	-1.764906
868.380000	-3.024231
868.585000	-3.739204
868.790000	-0.856186
868.996000	-1.622297
869.201000	-3.871519
869.406000	-4.271084
869.611000	-2.530492
869.817000	-2.570233
870.022000	1.734215
870.227000	-0.445323
870.432000	-2.943275
870.637000	-1.094220
870.843000	-0.840599
871.048000	-0.927707
871.253000	0.286281
871.458000	-0.889359
871.664000	-3.527403
871.869000	-4.254363
872.074000	-3.027749
872.279000	-1.964434
872.485000	-2.867676
872.690000	-3.058998
872.895000	-2.936920
873.100000	-2.850471
873.306000	-2.636834
873.511000	-1.700423
873.716000	-0.565013
873.921000	-3.063100
874.126000	-3.250051
874.332000	-2.914334
874.537000	-1.681491
874.742000	-0.617013
874.947000	-0.110978
875.153000	0.868152
875.358000	-0.860830
875.563000	-1.187218
875.768000	-3.914549
875.974000	-4.213414
876.179000	-2.427202
876.384000	-1.632325
876.589000	-2.269572
876.794000	-2.415962
877.000000	-2.705807
877.205000	-4.043983
877.410000	-1.800825
877.615000	-3.384056
877.821000	-4.529461
878.026000	-2.542403
878.231000	-3.706022
878.436000	-4.246729
878.642000	-3.004025
878.847000	-1.490646
879.052000	0.225237
879.257000	-2.489266
879.463000	-3.234578
879.668000	-2.790300
879.873000	-1.311296
880.078000	-3.306188
880.283000	-4.968595
880.489000	-4.668578
880.694000	-4.688864
880.899000	-2.701008
881.104000	-0.629747
881.310000	1.046166
881.515000	-1.491356
881.720000	-0.833914
881.925000	1.513601
882.131000	2.894432
882.336000	0.391642
882.541000	-2.825377
882.746000	-3.048087
882.952000	-4.035063
883.157000	-3.417871
883.362000	-3.423122
883.567000	-4.856583
883.772000	-5.007772
883.978000	-3.473165
884.183000	-1.245516
884.388000	-1.295708
884.593000	-3.102454
884.799000	1.259340
885.004000	0.032469
885.209000	-2.187208
885.414000	-1.424366
885.620000	-3.445380
885.825000	-0.459766
886.030000	-0.622748
886.235000	-2.220487
886.440000	-3.402801
886.646000	-5.860696
886.851000	-5.275448
887.056000	-0.807308
887.261000	-0.471307
887.467000	-3.177367
887.672000	-0.703330
887.877000	-3.044306
888.082000	-4.204470
888.288000	-4.360347
888.493000	-7.136396
888.698000	-5.737331
888.903000	-2.511465
889.109000	-3.372484
889.314000	0.670258
889.519000	-1.404492
889.724000	-0.368921
889.929000	-2.042979
890.135000	-2.106341
890.340000	-1.597375
890.545000	-4.277149
890.750000	-5.863405
890.956000	-3.070371
891.161000	-0.784037
891.366000	-3.133277
891.571000	-3.669951
891.777000	-2.201670
891.982000	0.331272
892.187000	-0.083173
892.392000	1.102384
892.598000	0.512614
892.803000	-1.226718
893.008000	-3.808669
893.213000	-4.697334
893.418000	-3.885720
893.624000	-3.298815
893.829000	-4.452901
894.034000	-2.760118
894.239000	-2.223845
894.445000	-4.047288
894.650000	-3.761386
894.855000	-3.336720
895.060000	-3.208682
895.266000	-3.598939
895.471000	-5.697572
895.676000	-0.891033
895.881000	-0.274604
896.087000	-3.645445
896.292000	-4.108956
896.497000	-0.909167
896.702000	-1.785892
896.907000	-4.181909
897.113000	-0.847057
897.318000	0.416996
897.523000	0.608139
897.728000	-1.170087
897.934000	-2.497437
898.139000	-2.250078
898.344000	-0.282299
898.549000	-1.832488
898.755000	-3.385857
898.960000	-4.902101
899.165000	-6.790576
899.370000	-2.573550
899.575000	0.235747
899.781000	-4.229223
899.986000	-4.820514
900.191000	-2.934577
900.396000	-3.070326
900.602000	-2.556213
900.807000	-3.512819
901.012000	-2.321145
901.217000	-0.365270
901.423000	-3.262681
901.628000	-4.761606
901.833000	-1.046789
902.038000	0.520613
902.244000	-3.169754
902.449000	-3.257135
902.654000	-2.319302
902.859000	-0.997597
903.064000	-0.445502
903.270000	-1.145704
903.475000	-5.760879
903.680000	-7.151845
903.885000	-5.941674
904.091000	-3.990933
904.296000	-5.285563
904.501000	-6.019781
904.706000	-4.536519
904.912000	0.694333
905.117000	-2.135306
905.322000	-5.447499
905.527000	-4.547682
905.733000	-3.602613
905.938000	-3.992079
906.143000	-4.708441
906.348000	-6.570350
906.553000	-2.350553
906.759000	-0.029925
906.964000	-1.308183
907.169000	-3.130106
907.374000	-5.687988
907.580000	-5.263243
907.785000	-4.582480
907.990000	24.060261
908.195000	15.761350
908.401000	-0.966921
908.606000	-6.303842
908.811000	-8.255779
909.016000	-2.769142
909.221000	-2.228606
909.427000	-2.872645
909.632000	-5.525055
909.837000	-4.842060
910.042000	-4.614890
910.248000	-6.334559
910.453000	-2.792833
910.658000	-4.123017
910.863000	-3.710116
911.069000	-4.789875
911.274000	-3.007394
911.479000	-1.363319
911.684000	-6.677667
911.890000	-4.634649
912.095000	-4.221558
912.300000	-8.638298
912.506000	-6.701581
912.711000	-5.845091
912.917000	-4.139693
913.123000	-4.057783
913.328000	-3.910583
913.534000	-3.598750
913.740000	5.567294
913.946000	1.460368
914.151000	-4.583974
914.357000	-4.864254
914.563000	-1.179888
914.768000	-6.602460
914.974000	-8.017565
915.180000	-5.469479
915.385000	-6.309648
915.591000	-8.750508
915.797000	-3.165655
916.002000	1.815623
916.208000	-2.250096
916.414000	-5.724310
916.620000	-6.390557
916.825000	-3.224032
917.031000	-4.352006
917.237000	-8.700633
917.442000	-5.558481
917.648000	-5.698031
917.854000	-7.323942
918.059000	-1.100355
918.265000	-1.870188
918.471000	-4.883239
918.676000	-6.795965
918.882000	-9.502229
919.088000	-7.347097
919.294000	-10.787127
919.499000	-7.955897
919.705000	-2.760434
919.911000	-2.155865
920.116000	-0.345949
920.322000	-6.580529
920.528000	-5.999364
920.733000	-7.853878
920.939000	-9.036783
921.145000	-6.824853
921.350000	-6.912366
921.556000	-5.797027
921.762000	-5.250996
921.968000	-5.052783
922.173000	-5.515891
922.379000	-8.489147
922.585000	-4.187190
922.790000	-6.707007
922.996000	-6.869331
923.202000	-7.732263
923.407000	-6.995870
923.613000	-4.198676
923.819000	-2.411936
924.024000	-1.500957
924.230000	-0.495961
924.436000	-5.943814
924.642000	3.973548
924.847000	-0.394516
925.053000	-6.769297
925.259000	-11.073123
925.464000	-2.733777
925.670000	-4.132364
925.876000	-5.949765
926.081000	-5.744300
926.287000	-0.999096
926.493000	-0.653605
926.698000	-4.413131
926.904000	-4.024578
927.110000	-3.927494
927.316000	-3.091949
927.521000	0.811608
927.727000	-5.167549
927.933000	-6.568940
928.138000	-7.101327
928.344000	-12.915484
928.550000	-8.725100
928.755000	-2.761130
928.961000	-7.391330
929.167000	-4.974866
929.372000	0.988516
929.578000	-0.183772
929.784000	-5.870844
929.990000	-8.953051
930.195000	-8.177627
930.401000	-5.689121
930.607000	-6.240839
930.812000	-4.536234
931.018000	-7.555376
931.224000	-13.875847
931.429000	-10.051181
931.635000	-10.306494
931.841000	-12.505580
932.046000	-9.737700
932.252000	-5.417401
932.458000	2.505418
932.664000	-1.641094
932.869000	-8.127588
933.075000	-12.680653
933.281000	-10.359535
933.486000	-1.997864
933.692000	-6.499860
933.898000	-9.723649
934.103000	-1.570779
934.309000	-7.617958
934.515000	-3.667830
934.720000	-3.523149
934.926000	-1.015056
935.132000	-0.063492
935.338000	-4.396330
935.543000	-14.712768
935.749000	-13.372262
935.955000	-13.103721
936.160000	-10.918286
936.366000	-0.907321
936.572000	-4.523206
936.777000	-3.916424
936.983000	-1.997860
937.189000	-4.486278
937.394000	-8.664193
937.600000	2.985399
937.806000	6.086750
938.012000	-8.354224
938.217000	7.897372
938.423000	0.485437
938.629000	-9.784848
938.834000	-20.198818
939.040000	-17.369611
939.246000	-11.191749
939.451000	-10.556617
939.657000	-3.997870
939.863000	-9.023016
940.068000	-0.080269
940.274000	-3.111496
940.480000	0.122840
940.686000	1.375921
940.891000	-4.630515
941.097000	21.773117
941.303000	4.556073
941.508000	-11.117353
941.714000	-4.138353
941.920000	-15.862665
942.125000	-6.603229
942.331000	-6.633974
942.537000	1.439181
942.742000	3.656533
942.948000	-8.900320
943.154000	-16.370705
943.360000	-23.500712
943.565000	-6.156672
943.771000	2.177604
943.977000	5.316696
944.182000	-13.808729
944.388000	-12.739301
944.594000	0.595126
944.799000	5.687928
945.005000	-3.046426
945.211000	4.469187
945.416000	1.759687
945.622000	-14.252501
945.828000	-12.763866
946.034000	-0.810785
946.239000	-0.575514
946.445000	-8.121748
946.651000	-17.248111
946.856000	-17.527701
947.062000	-2.458817
947.268000	-2.714139
947.473000	-18.502449
947.679000	-21.741670
947.885000	-8.540316
948.090000	-2.038963
948.296000	11.009039
948.502000	-1.800308
948.708000	-10.405345
948.913000	-16.488711
949.119000	-6.056883
949.325000	-9.538191
949.530000	-21.723547
949.736000	-28.088885
949.942000	-14.408889
950.147000	-12.028525
950.353000	-9.708687
950.559000	-7.742416
950.764000	10.353187
950.970000	6.665204
951.176000	-7.705767
951.382000	-12.891065
951.587000	-7.401028
951.793000	0.157393
951.999000	2.482490
952.204000	-11.593757
952.410000	-21.324612
952.616000	-8.576423
952.821000	-5.530736
953.027000	-15.637245
953.233000	-16.445387
953.438000	-16.563869
953.644000	0.689870
953.850000	-3.557861
954.056000	-12.986756
954.261000	-5.777763
954.467000	0.703616
954.673000	-0.918188
954.878000	-13.115593
955.084000	-12.317843
955.290000	-27.894995
955.495000	-24.151613
955.701000	-18.092610
955.907000	1.276363
956.112000	-2.053489
956.318000	7.865886
956.524000	6.009108
956.730000	-9.438013
956.935000	-13.434585
957.141000	-17.002861
957.347000	-6.112891
957.552000	-14.667014
957.758000	-34.094248
957.964000	-35.305969
958.169000	0.463753
958.375000	2.791139
958.581000	-10.342598
958.786000	-26.035720
958.992000	-30.228329
959.198000	-11.170880
959.404000	-6.071576
959.609000	-13.670111
959.815000	-19.348086
960.021000	1.697209
960.226000	-2.262596
960.432000	-30.187737
960.638000	-16.229620
960.843000	-4.462906
961.049000	-10.883030
961.255000	-2.006796
961.460000	-16.233115
961.666000	-35.460402
961.872000	-21.360121
962.078000	-17.687586
962.283000	-30.313852
962.489000	-29.584151
962.695000	-20.416930
962.900000	-18.957747
963.106000	-17.850342
963.312000	-21.406228
963.517000	-20.884820
963.723000	-21.809659
963.929000	-1.820105
964.134000	7.938962
964.340000	-19.525162
964.546000	-21.741100
964.752000	-23.598722
964.957000	-28.673913
965.163000	3.016459
965.369000	-9.381374
965.574000	-11.632454
965.780000	-12.720141
966.000000	-18.124786
966.220000	-10.274265
966.440000	-12.147053
966.661000	-2.341655
966.881000	-25.470371
967.101000	-43.012780
967.321000	-40.953477
967.541000	-17.253067
967.761000	-18.957352
967.981000	-15.185574
968.202000	-14.389621
968.422000	-5.562637
968.642000	-7.471054
968.862000	-8.020352
969.082000	-18.376271
969.302000	-14.067337
969.522000	-18.649610
969.743000	1.017625
969.963000	-16.561011
970.183000	-33.213769
970.403000	-38.367408
970.623000	-31.497184
970.843000	-7.604044
971.063000	-3.524987
971.284000	-20.011840
971.504000	-28.318488
971.724000	-14.753277
971.944000	-35.096402
972.164000	-41.887113
972.384000	-21.320502
972.604000	-30.380885
972.825000	-46.061205
973.045000	-29.866380
973.265000	23.871906
973.485000	14.787889
973.705000	-2.919421
973.925000	-2.500525
974.145000	-45.532648
974.365000	-19.160197
974.586000	-6.392359
974.806000	-32.132974
975.026000	-13.123186
975.246000	-20.670525
975.466000	-24.886504
975.686000	-7.817651
975.906000	-27.388875
976.127000	-49.342985
976.347000	-39.498489
976.567000	-12.150607
976.787000	-4.695419
977.007000	-20.002089
977.227000	-35.942926
977.447000	-36.229175
977.668000	-50.770782
977.888000	-33.403111
978.108000	-29.515149
978.328000	-15.274234
978.548000	4.555686
978.768000	1.942579
978.988000	-7.553885
979.209000	-20.426335
979.429000	-23.365837
979.649000	-8.496760
979.869000	-31.400253
980.089000	-47.364087
980.309000	-53.046491
980.529000	-64.097981
980.750000	-37.958980
980.970000	-52.419070
981.190000	-42.470927
981.410000	-40.640485
981.630000	-41.896697
981.850000	-23.873909
982.070000	-19.940013
982.291000	-63.849824
982.511000	-62.414630
982.731000	-11.883696
982.951000	-32.722100
983.171000	-31.564936
983.391000	-25.478494
983.611000	-6.814700
983.832000	-23.031151
984.052000	-47.103934
984.272000	-27.842050
984.492000	-22.019917
984.712000	-33.075350
984.932000	-55.264138
985.152000	-66.325664
985.373000	-48.057177
985.593000	-17.979545
985.813000	-16.446949
986.033000	-39.861196
986.253000	0.447860
986.473000	9.653056
986.693000	-25.871456
986.914000	-30.137017
987.134000	8.872286
987.354000	-39.217101
987.574000	178.435000
987.794000	118.012800
988.014000	-45.374608
988.234000	-33.049351
988.455000	-10.245526
988.675000	-17.770314
988.895000	-33.858514
989.115000	-35.145140
989.335000	-28.253756
989.555000	-13.848137
989.775000	-56.236029
989.995000	-35.784813
990.216000	-8.840360
990.436000	-22.833676
990.656000	15.185136
990.876000	-18.694164
991.096000	-26.839249
991.316000	-3.074965
991.536000	-16.558326
991.757000	-42.578039
991.977000	-93.944118
992.197000	-12.948409
992.417000	-25.962822
992.637000	-77.470207
992.857000	-84.661592
993.077000	-74.805541
993.298000	-42.580377
993.518000	-42.854271
993.738000	-82.830411
993.958000	-52.551092
994.178000	-52.028716
994.398000	-45.272664
994.618000	-86.171444
994.839000	-124.153387
995.059000	-34.406762
995.279000	19.049180
995.499000	-27.038590
995.719000	-30.504295
995.939000	-40.610460
996.159000	-35.029635
996.380000	-43.188179
996.600000	-78.002355
996.820000	-42.260693
997.040000	0.728605
997.260000	-76.961240
997.480000	-49.804858
997.700000	-91.268784
997.921000	-74.214603
998.141000	11.763970
998.361000	-19.058572
998.581000	-69.260050
998.801000	-93.482783
999.021000	-83.456934
999.241000	-60.579955
999.462000	-87.933443
999.682000	-127.740852
999.902000	-73.350288
1000.122000	-72.343106
1000.342000	-160.865522
1000.562000	-83.470062
1000.782000	-98.240743
1001.003000	-1034.991548
