Wavelength	Irradiance
(nm)	(mW/cm2/nm)

294.396000	0.000000
294.577000	0.000000
294.757000	0.000000
294.938000	0.000000
295.118000	0.000000
295.299000	0.000000
295.479000	-0.000000
295.660000	-0.000000
295.840000	-0.000000
296.021000	-0.000000
296.202000	-0.000000
296.382000	-0.000000
296.563000	-0.000000
296.743000	-0.000000
296.924000	0.000000
297.104000	-0.000000
297.285000	-0.000000
297.465000	-0.000000
297.646000	-0.000000
297.826000	-0.000000
298.007000	0.000000
298.187000	0.000000
298.368000	-0.000000
298.548000	0.000000
298.729000	0.000000
298.909000	-0.000000
299.090000	-0.000000
299.270000	-0.000000
299.451000	-0.000000
299.631000	-0.000000
299.812000	-0.000000
299.992000	0.000000
300.173000	0.000000
300.353000	-0.000000
300.534000	-0.000000
300.714000	0.000000
300.895000	-0.000000
301.075000	-0.000000
301.256000	0.000000
301.436000	-0.000000
301.617000	-0.000000
301.797000	-0.000000
301.978000	-0.000000
302.159000	0.000000
302.339000	0.000000
302.520000	-0.000000
302.700000	-0.000000
302.881000	0.000000
303.061000	0.000000
303.242000	0.000000
303.422000	0.000000
303.603000	-0.000000
303.783000	-0.000000
303.964000	-0.000000
304.144000	-0.000000
304.325000	-0.000000
304.505000	-0.000000
304.686000	-0.000000
304.866000	0.000000
305.047000	-0.000000
305.227000	-0.000000
305.408000	-0.000000
305.588000	-0.000000
305.769000	-0.000000
305.949000	-0.000000
306.130000	-0.000000
306.310000	-0.000000
306.491000	-0.000000
306.671000	0.000000
306.852000	-0.000000
307.032000	-0.000000
307.213000	-0.000000
307.393000	-0.000000
307.574000	0.000000
307.755000	0.000000
307.935000	-0.000000
308.116000	-0.000000
308.296000	-0.000000
308.477000	0.000000
308.657000	0.000000
308.838000	0.000000
309.018000	0.000000
309.199000	-0.000000
309.379000	-0.000000
309.560000	0.000000
309.740000	-0.000000
309.921000	-0.000000
310.101000	-0.000000
310.282000	-0.000000
310.462000	-0.000000
310.643000	-0.000000
310.823000	-0.000000
311.004000	-0.000000
311.184000	-0.000000
311.365000	0.000000
311.545000	0.000000
311.726000	0.000000
311.906000	-0.000000
312.087000	0.000000
312.267000	-0.000000
312.448000	-0.000000
312.628000	-0.000000
312.809000	-0.000000
312.989000	-0.000000
313.170000	-0.000000
313.344000	-0.000000
313.518000	-0.000000
313.691000	-0.000000
313.865000	-0.000000
314.039000	-0.000000
314.213000	-0.000000
314.387000	-0.000000
314.560000	-0.000000
314.734000	-0.000000
314.908000	-0.000000
315.082000	-0.000000
315.255000	0.000000
315.429000	0.000000
315.603000	0.000000
315.777000	-0.000000
315.951000	0.000000
316.124000	-0.000000
316.298000	-0.000000
316.472000	-0.000000
316.646000	-0.000000
316.820000	-0.000000
316.993000	-0.000000
317.167000	-0.000000
317.341000	-0.000000
317.515000	-0.000000
317.688000	-0.000000
317.862000	-0.000000
318.036000	-0.000000
318.210000	-0.000000
318.384000	-0.000000
318.557000	-0.000000
318.731000	-0.000000
318.905000	0.000000
319.079000	-0.000000
319.253000	-0.000000
319.426000	0.000000
319.600000	0.000000
319.774000	-0.000000
319.948000	-0.000000
320.122000	0.000000
320.295000	0.000000
320.469000	-0.000000
320.643000	-0.000000
320.817000	-0.000000
320.990000	-0.000000
321.164000	-0.000000
321.338000	-0.000000
321.512000	-0.000000
321.686000	-0.000000
321.859000	-0.000000
322.033000	-0.000000
322.207000	-0.000000
322.381000	-0.000000
322.555000	0.000000
322.728000	0.000000
322.902000	-0.000000
323.076000	-0.000000
323.250000	-0.000000
323.423000	-0.000000
323.597000	-0.000000
323.771000	-0.000000
323.945000	-0.000000
324.119000	-0.000000
324.292000	0.000000
324.466000	-0.000000
324.640000	0.000000
324.814000	0.000000
324.988000	-0.000000
325.161000	-0.000000
325.335000	-0.000000
325.509000	-0.000000
325.683000	-0.000000
325.856000	-0.000000
326.030000	-0.000000
326.204000	-0.000000
326.378000	-0.000000
326.552000	-0.000000
326.725000	-0.000000
326.899000	-0.000000
327.073000	-0.000000
327.247000	-0.000000
327.421000	0.000000
327.594000	-0.000000
327.768000	-0.000000
327.942000	-0.000000
328.116000	0.000000
328.289000	0.000000
328.463000	-0.000000
328.637000	0.000000
328.811000	-0.000000
328.985000	-0.000000
329.158000	-0.000000
329.332000	-0.000000
329.506000	0.000000
329.680000	-0.000000
329.854000	-0.000000
330.027000	-0.000000
330.201000	0.000000
330.375000	0.000000
330.549000	0.000000
330.723000	-0.000000
330.896000	-0.000000
331.070000	-0.000000
331.244000	-0.000000
331.418000	-0.000000
331.591000	-0.000000
331.765000	-0.000000
331.939000	-0.000000
332.113000	-0.000000
332.287000	-0.000000
332.460000	0.000000
332.634000	0.000000
332.808000	-0.000000
332.982000	-0.000000
333.156000	-0.000000
333.329000	-0.000000
333.503000	-0.000000
333.677000	-0.000000
333.851000	-0.000000
334.024000	0.000000
334.198000	-0.000000
334.372000	-0.000000
334.546000	-0.000000
334.720000	-0.000000
334.893000	-0.000000
335.067000	-0.000000
335.241000	0.000000
335.415000	-0.000000
335.589000	-0.000000
335.762000	-0.000000
335.936000	-0.000000
336.110000	-0.000000
336.284000	-0.000000
336.458000	-0.000000
336.631000	-0.000000
336.805000	-0.000000
336.979000	-0.000000
337.153000	-0.000000
337.326000	-0.000000
337.500000	-0.000000
337.674000	-0.000000
337.848000	-0.000000
338.022000	-0.000000
338.195000	-0.000000
338.369000	-0.000000
338.543000	-0.000000
338.717000	-0.000000
338.891000	-0.000000
339.064000	0.000000
339.238000	-0.000000
339.412000	-0.000000
339.586000	-0.000000
339.759000	-0.000000
339.933000	-0.000000
340.107000	0.000000
340.281000	0.000000
340.455000	-0.000000
340.628000	-0.000000
340.802000	-0.000000
340.976000	-0.000000
341.150000	-0.000000
341.324000	-0.000000
341.497000	-0.000000
341.671000	-0.000000
341.845000	-0.000000
342.019000	-0.000000
342.192000	-0.000000
342.366000	-0.000000
342.540000	-0.000000
342.714000	-0.000000
342.888000	-0.000000
343.061000	-0.000000
343.235000	-0.000000
343.409000	-0.000000
343.583000	-0.000000
343.757000	-0.000000
343.930000	-0.000000
344.104000	-0.000000
344.278000	0.000000
344.452000	0.000000
344.626000	-0.000000
344.799000	-0.000000
344.973000	-0.000000
345.147000	-0.000000
345.321000	-0.000000
345.494000	-0.000000
345.668000	0.000000
345.842000	0.000000
346.016000	-0.000000
346.190000	0.000000
346.363000	0.000000
346.537000	-0.000000
346.711000	-0.000000
346.885000	-0.000000
347.059000	-0.000000
347.232000	0.000000
347.406000	0.000000
347.580000	-0.000000
347.754000	-0.000000
347.927000	-0.000000
348.101000	0.000000
348.275000	-0.000000
348.449000	-0.000000
348.623000	-0.000000
348.796000	0.000000
348.970000	0.000000
349.144000	-0.000000
349.318000	-0.000000
349.492000	-0.000000
349.665000	-0.000000
349.839000	-0.000000
350.013000	-0.000000
350.187000	-0.000000
350.361000	-0.000000
350.534000	-0.000000
350.708000	-0.000000
350.882000	-0.000000
351.056000	0.000000
351.229000	0.000000
351.403000	-0.000000
351.577000	-0.000000
351.751000	-0.000000
351.925000	-0.000000
352.098000	-0.000000
352.272000	-0.000000
352.446000	-0.000000
352.620000	-0.000000
352.794000	-0.000000
352.967000	-0.000000
353.141000	0.000000
353.315000	0.000000
353.489000	-0.000000
353.662000	-0.000000
353.836000	-0.000000
354.010000	-0.000000
354.184000	0.000000
354.358000	-0.000000
354.531000	-0.000000
354.705000	-0.000000
354.879000	-0.000000
355.053000	-0.000000
355.227000	0.000000
355.400000	-0.000000
355.574000	0.000000
355.748000	0.000000
355.922000	-0.000000
356.095000	-0.000000
356.269000	-0.000000
356.443000	-0.000000
356.617000	-0.000000
356.791000	-0.000000
356.964000	-0.000000
357.138000	-0.000000
357.312000	-0.000000
357.486000	-0.000000
357.660000	-0.000000
357.833000	0.000000
358.007000	-0.000000
358.181000	-0.000000
358.355000	-0.000000
358.529000	-0.000000
358.702000	-0.000000
358.876000	-0.000000
359.050000	-0.000000
359.224000	-0.000000
359.397000	-0.000000
359.571000	-0.000000
359.745000	-0.000000
359.919000	-0.000000
360.093000	-0.051912
360.266000	0.040262
360.440000	0.072478
360.614000	0.113145
360.788000	0.020105
360.962000	-0.244011
361.135000	-0.121892
361.309000	-0.218619
361.483000	-0.293708
361.657000	-0.261419
361.830000	-0.298197
362.004000	-0.068207
362.178000	-0.389738
362.352000	-0.270449
362.526000	-0.043836
362.699000	-0.040988
362.873000	-0.425884
363.047000	-0.417235
363.221000	-0.351761
363.395000	-0.230108
363.568000	-0.214093
363.742000	-0.183453
363.916000	-0.202523
364.090000	-0.311462
364.263000	-0.288423
364.437000	-0.342931
364.611000	-0.094617
364.785000	-0.099250
364.959000	-0.317721
365.132000	-0.291366
365.306000	-0.362600
365.480000	-0.200056
365.656000	-0.202698
365.831000	-0.144947
366.007000	-0.179108
366.183000	-0.203873
366.358000	-0.327196
366.534000	-0.265500
366.710000	-0.388226
366.886000	-0.321332
367.061000	-0.148197
367.237000	-0.020133
367.413000	-0.144256
367.588000	-0.385189
367.764000	-0.372616
367.940000	-0.304928
368.115000	-0.300136
368.291000	-0.395002
368.467000	-0.228971
368.643000	0.158744
368.818000	-0.179497
368.994000	-0.366883
369.170000	-0.277174
369.345000	-0.224769
369.521000	-0.291363
369.697000	-0.168281
369.872000	-0.237139
370.048000	-0.406748
370.224000	-0.339638
370.399000	-0.480211
370.575000	-0.406937
370.751000	-0.542507
370.927000	-0.495175
371.102000	-0.402828
371.278000	-0.338649
371.454000	-0.297772
371.629000	-0.053628
371.805000	-0.154234
371.981000	-0.057497
372.156000	0.207173
372.332000	0.065468
372.508000	0.014623
372.683000	-0.008075
372.859000	-0.115487
373.035000	-0.189064
373.211000	0.206207
373.386000	-0.001646
373.562000	-0.447633
373.738000	-0.527607
373.913000	-0.644376
374.089000	-0.502183
374.265000	-0.096904
374.440000	-0.051367
374.616000	0.034722
374.792000	-0.168895
374.968000	0.169140
375.143000	-0.076214
375.319000	-0.350000
375.495000	-0.419807
375.670000	-0.315085
375.846000	-0.154813
376.022000	-0.304630
376.197000	-0.285791
376.373000	-0.460900
376.549000	-0.430511
376.724000	-0.492628
376.900000	-0.346645
377.076000	-0.206764
377.252000	0.045566
377.427000	0.166022
377.603000	-0.283308
377.779000	-0.286615
377.954000	-0.395792
378.130000	-0.284734
378.306000	-0.189018
378.481000	-0.156604
378.657000	-0.256530
378.833000	-0.274953
379.009000	-0.125867
379.184000	-0.001586
379.360000	-0.130488
379.536000	-0.188637
379.711000	-0.288463
379.887000	-0.322331
380.063000	-0.331477
380.238000	-0.340138
380.414000	-0.058202
380.590000	-0.306536
380.765000	-0.340420
380.941000	-0.067324
381.117000	-0.048226
381.293000	-0.240568
381.468000	-0.406711
381.644000	-0.281935
381.820000	-0.132516
381.995000	-0.017317
382.171000	0.229350
382.347000	0.162721
382.522000	-0.300050
382.698000	0.014067
382.874000	0.098324
383.050000	-0.331491
383.225000	-0.051761
383.401000	0.259656
383.577000	-0.074488
383.752000	-0.237804
383.928000	-0.221763
384.104000	-0.154196
384.279000	-0.249774
384.455000	-0.134500
384.631000	-0.174950
384.806000	-0.433143
384.982000	-0.184455
385.158000	-0.251712
385.334000	-0.155491
385.509000	-0.171598
385.685000	-0.400418
385.861000	-0.296810
386.036000	-0.447599
386.212000	-0.530576
386.388000	-0.281038
386.563000	-0.289702
386.739000	-0.379511
386.915000	-0.581306
387.090000	-0.288408
387.266000	-0.066802
387.442000	0.045010
387.618000	-0.103167
387.793000	-0.340118
387.969000	-0.538632
388.145000	-0.407073
388.320000	-0.327454
388.496000	-0.331181
388.672000	-0.543977
388.847000	-0.121060
389.023000	-0.078656
389.199000	-0.417035
389.375000	-0.203252
389.550000	-0.265409
389.726000	-0.214386
389.902000	-0.424741
390.077000	-0.181906
390.253000	-0.178932
390.429000	-0.383039
390.604000	-0.206234
390.780000	-0.101844
390.956000	-0.285072
391.131000	-0.383886
391.307000	-0.004519
391.483000	-0.149086
391.659000	-0.315768
391.834000	-0.160967
392.010000	-0.316991
392.186000	-0.359432
392.361000	-0.251693
392.537000	-0.413463
392.713000	0.022225
392.888000	0.268585
393.064000	-0.040209
393.240000	-0.313430
393.416000	-0.400082
393.591000	-0.498138
393.767000	-0.604138
393.943000	-0.478718
394.118000	-0.042479
394.294000	0.174196
394.470000	-0.016061
394.645000	0.045118
394.821000	0.241539
394.997000	-0.120744
395.172000	-0.125896
395.348000	-0.207339
395.524000	-0.520918
395.700000	-0.378066
395.875000	-0.104861
396.051000	-0.156369
396.227000	-0.252923
396.402000	-0.260077
396.578000	-0.192748
396.754000	-0.407908
396.929000	-0.342949
397.105000	-0.041551
397.281000	-0.107425
397.457000	-0.201371
397.632000	-0.252948
397.808000	-0.519072
397.984000	-0.628980
398.159000	-0.544360
398.335000	-0.332168
398.511000	0.169335
398.686000	-0.072496
398.862000	-0.371327
399.038000	-0.443600
399.213000	-0.211645
399.389000	-0.512507
399.565000	-0.181619
399.741000	0.091411
399.916000	-0.024138
400.092000	0.185099
400.268000	-0.147141
400.443000	-0.319062
400.619000	0.100494
400.795000	-0.021309
400.970000	-0.287372
401.146000	-0.347603
401.322000	-0.041087
401.497000	0.383673
401.673000	0.083961
401.849000	-0.253885
402.025000	-0.040958
402.200000	-0.198599
402.376000	-0.311142
402.552000	0.128647
402.727000	-0.074576
402.903000	-0.400176
403.079000	-0.259938
403.254000	-0.054845
403.430000	-0.018160
403.606000	-0.102142
403.782000	-0.261323
403.957000	-0.427433
404.133000	-0.526890
404.309000	-0.349748
404.484000	-0.141359
404.660000	-0.152982
404.841000	-0.256998
405.023000	-0.023744
405.204000	-0.079847
405.385000	-0.336328
405.566000	-0.393653
405.748000	-0.276025
405.929000	-0.024184
406.110000	-0.080150
406.292000	-0.224128
406.473000	-0.154905
406.654000	-0.310865
406.835000	-0.175227
407.017000	-0.196910
407.198000	-0.178142
407.379000	-0.141845
407.560000	-0.189258
407.742000	-0.251982
407.923000	-0.205784
408.104000	-0.360850
408.286000	-0.212735
408.467000	-0.153955
408.648000	-0.413206
408.829000	-0.406207
409.011000	-0.256799
409.192000	-0.455679
409.373000	-0.257453
409.555000	-0.123877
409.736000	-0.095396
409.917000	-0.206765
410.098000	-0.191612
410.280000	-0.088954
410.461000	-0.132511
410.642000	-0.149179
410.823000	0.121762
411.005000	0.094520
411.186000	-0.124740
411.367000	-0.273019
411.549000	-0.278306
411.730000	-0.078123
411.911000	0.050626
412.092000	-0.167795
412.274000	-0.226103
412.455000	-0.099040
412.636000	-0.033949
412.818000	-0.279978
412.999000	-0.358689
413.180000	-0.231110
413.361000	-0.234683
413.543000	-0.322484
413.724000	-0.359342
413.905000	-0.348586
414.087000	-0.381684
414.268000	-0.385504
414.449000	-0.356824
414.630000	-0.390409
414.812000	-0.469951
414.993000	-0.102209
415.174000	-0.006640
415.355000	-0.255220
415.537000	-0.435013
415.718000	-0.123847
415.899000	-0.224384
416.081000	-0.316019
416.262000	-0.088409
416.443000	-0.243502
416.624000	-0.237687
416.806000	-0.151307
416.987000	-0.048915
417.168000	-0.077532
417.350000	-0.274583
417.531000	-0.319945
417.712000	-0.241572
417.893000	-0.035243
418.075000	0.037712
418.256000	-0.168241
418.437000	-0.074638
418.618000	0.058713
418.800000	0.076858
418.981000	-0.136102
419.162000	-0.096590
419.344000	0.102409
419.525000	-0.019550
419.706000	-0.150048
419.887000	0.029949
420.069000	0.274465
420.250000	0.079327
420.431000	-0.079134
420.613000	-0.097757
420.794000	-0.314720
420.975000	0.024555
421.156000	-0.097116
421.338000	-0.135852
421.519000	-0.122889
421.700000	-0.172555
421.882000	-0.146581
422.063000	0.016822
422.244000	0.508544
422.425000	0.285614
422.607000	-0.108389
422.788000	-0.118285
422.969000	-0.158774
423.150000	-0.171882
423.332000	-0.243549
423.513000	-0.024562
423.694000	-0.042884
423.876000	0.060892
424.057000	0.161973
424.238000	0.204202
424.419000	0.202187
424.601000	0.024781
424.782000	0.014333
424.963000	0.200282
425.145000	0.146411
425.326000	0.158683
425.507000	0.209978
425.688000	0.099696
425.870000	-0.045497
426.051000	-0.171706
426.232000	-0.045182
426.413000	-0.024672
426.595000	0.001292
426.776000	-0.037442
426.957000	-0.016857
427.139000	0.125247
427.320000	0.208803
427.501000	0.287734
427.682000	0.275963
427.864000	0.345730
428.045000	0.554523
428.226000	0.483522
428.408000	0.144528
428.589000	0.250228
428.770000	0.244486
428.951000	0.135595
429.133000	0.055364
429.314000	0.271288
429.495000	0.285765
429.677000	0.281633
429.858000	0.297387
430.039000	0.300314
430.220000	0.408653
430.402000	0.559016
430.583000	0.287247
430.764000	0.314328
430.945000	0.505190
431.127000	0.590926
431.308000	0.435762
431.489000	0.655347
431.671000	0.722168
431.852000	0.554249
432.033000	0.513533
432.214000	0.581203
432.396000	0.734416
432.577000	0.550438
432.758000	0.406595
432.940000	0.538577
433.121000	0.616863
433.302000	0.645244
433.483000	0.851452
433.665000	1.013938
433.846000	0.930207
434.027000	0.750825
434.208000	0.676992
434.390000	0.646713
434.571000	0.995073
434.752000	1.473457
434.934000	1.318477
435.115000	1.251875
435.296000	1.286409
435.477000	1.138322
435.659000	0.892460
435.840000	1.043358
436.026000	1.119060
436.211000	1.098157
436.397000	0.858782
436.582000	1.025439
436.768000	1.193524
436.953000	1.160121
437.139000	1.228343
437.325000	1.614000
437.510000	1.511771
437.696000	1.674890
437.881000	1.737541
438.067000	1.429439
438.252000	1.485851
438.438000	1.451138
438.624000	1.487274
438.809000	1.567418
438.995000	1.675622
439.180000	1.701453
439.366000	1.673476
439.551000	1.744989
439.737000	1.862536
439.923000	1.933910
440.108000	1.900502
440.294000	1.986997
440.479000	2.140326
440.665000	2.257640
440.850000	2.242774
441.036000	2.268907
441.222000	2.255058
441.407000	2.198279
441.593000	2.354050
441.778000	2.576173
441.964000	2.657132
442.149000	2.363616
442.335000	2.351735
442.521000	2.540765
442.706000	2.771903
442.892000	2.752160
443.077000	2.703826
443.263000	2.873699
443.448000	2.815120
443.634000	2.826247
443.820000	3.200845
444.005000	3.128462
444.191000	3.014523
444.376000	3.059151
444.562000	3.447323
444.747000	3.571535
444.933000	3.534297
445.119000	3.393199
445.304000	3.353237
445.490000	3.614953
445.675000	3.716478
445.861000	3.670137
446.046000	3.693547
446.232000	3.822954
446.418000	3.975434
446.603000	4.057829
446.789000	4.138434
446.974000	4.180093
447.160000	4.004131
447.345000	4.143202
447.531000	4.243984
447.717000	4.589565
447.902000	4.763570
448.088000	4.789212
448.273000	4.735740
448.459000	4.815384
448.644000	4.826834
448.830000	4.742618
449.016000	4.783088
449.201000	5.033600
449.387000	5.284990
449.572000	5.450900
449.758000	5.487205
449.943000	5.455121
450.129000	5.437789
450.315000	5.476073
450.500000	5.516145
450.686000	5.776100
450.871000	5.770580
451.057000	5.981629
451.243000	6.049754
451.428000	6.082203
451.614000	6.244159
451.799000	6.291110
451.985000	6.420484
452.170000	6.673980
452.356000	6.559268
452.542000	6.551713
452.727000	6.757110
452.913000	6.746280
453.098000	6.941189
453.284000	7.237304
453.469000	7.155689
453.655000	7.393586
453.841000	7.360048
454.026000	7.129224
454.212000	7.165380
454.397000	7.203373
454.583000	7.211211
454.768000	7.237498
454.954000	7.485078
455.140000	7.533108
455.325000	7.357900
455.511000	7.339262
455.696000	7.387811
455.882000	7.614333
456.067000	7.937155
456.253000	7.711850
456.439000	7.649914
456.624000	7.598778
456.810000	7.562772
456.995000	7.652937
457.181000	7.533595
457.366000	7.647502
457.552000	7.714345
457.738000	7.797460
457.923000	7.787681
458.109000	7.909914
458.294000	7.792782
458.480000	7.789530
458.665000	7.623157
458.851000	7.456104
459.037000	7.198798
459.222000	7.337098
459.408000	7.309721
459.593000	7.310298
459.779000	7.343665
459.964000	7.306042
460.150000	7.492033
460.336000	7.334747
460.521000	6.949091
460.707000	6.790907
460.892000	6.577614
461.078000	6.772700
461.263000	6.763203
461.449000	6.509719
461.635000	6.471461
461.820000	6.366945
462.006000	6.335687
462.191000	6.262855
462.377000	6.018003
462.562000	6.243726
462.748000	6.308216
462.934000	5.781552
463.119000	5.524983
463.305000	5.638379
463.490000	5.484929
463.676000	5.431595
463.861000	5.377520
464.047000	5.197173
464.233000	5.146798
464.418000	5.025742
464.604000	4.838854
464.789000	4.975942
464.975000	4.996438
465.160000	4.778595
465.346000	4.652731
465.532000	4.491686
465.717000	4.371357
465.903000	4.559883
466.088000	4.334840
466.274000	4.008345
466.459000	4.008973
466.645000	4.285570
466.831000	4.170888
467.016000	4.132177
467.202000	4.006646
467.387000	3.855696
467.573000	3.579830
467.758000	3.768528
467.944000	3.650117
468.130000	3.470164
468.315000	3.499885
468.501000	3.538948
468.686000	3.389962
468.872000	3.406942
469.057000	3.390216
469.243000	3.216757
469.429000	3.141149
469.614000	3.027034
469.800000	2.902763
469.985000	3.029508
470.171000	3.063288
470.356000	2.866079
470.542000	2.881022
470.728000	2.841564
470.913000	2.776495
471.099000	2.870516
471.284000	2.770695
471.470000	2.679959
471.655000	2.613234
471.841000	2.581330
472.027000	2.469643
472.212000	2.652007
472.398000	2.680373
472.583000	2.462829
472.769000	2.443770
472.954000	2.373036
473.140000	2.213916
473.326000	2.175546
473.511000	2.410085
473.697000	2.403115
473.882000	2.237780
474.068000	2.111841
474.253000	1.975109
474.439000	2.027434
474.625000	2.092462
474.810000	2.074304
474.996000	1.995691
475.181000	1.823847
475.367000	1.910010
475.552000	2.110126
475.738000	1.798361
475.924000	1.763115
476.109000	1.892008
476.295000	1.743695
476.480000	1.725823
476.666000	1.632870
476.851000	1.610412
477.037000	1.634621
477.223000	1.531902
477.408000	1.402583
477.594000	1.277533
477.779000	1.406101
477.965000	1.447936
478.151000	1.301988
478.336000	1.370170
478.522000	1.315800
478.707000	1.260640
478.893000	1.290817
479.078000	1.114367
479.264000	1.079111
479.450000	1.095347
479.635000	1.208279
479.821000	1.109615
480.006000	1.146291
480.192000	1.109695
480.377000	1.137812
480.563000	1.150523
480.749000	0.929909
480.934000	0.905222
481.120000	0.996322
481.305000	1.093165
481.491000	1.022667
481.676000	1.022994
481.862000	1.057058
482.048000	0.848374
482.233000	0.863116
482.419000	0.821666
482.604000	0.737591
482.790000	0.737608
482.975000	0.779801
483.161000	0.909510
483.347000	0.849024
483.532000	0.766538
483.718000	0.569646
483.903000	0.637674
484.089000	0.671641
484.274000	0.509092
484.460000	0.640355
484.646000	0.650276
484.831000	0.506574
485.017000	0.577829
485.202000	0.616032
485.388000	0.798251
485.573000	0.812358
485.759000	0.588461
485.945000	0.698635
486.130000	0.542971
486.316000	0.529429
486.501000	0.563296
486.687000	0.382501
486.872000	0.314307
487.058000	0.494800
487.244000	0.467655
487.429000	0.311843
487.615000	0.446828
487.800000	0.532781
487.986000	0.435315
488.171000	0.516363
488.357000	0.458194
488.543000	0.464280
488.728000	0.532301
488.914000	0.456970
489.099000	0.317068
489.285000	0.289712
489.470000	0.470693
489.656000	0.494257
489.842000	0.517413
490.027000	0.598458
490.213000	0.366602
490.398000	0.066558
490.584000	0.347008
490.769000	0.358542
490.955000	0.394388
491.141000	0.441391
491.326000	0.373059
491.512000	0.479697
491.697000	0.366412
491.883000	0.248500
492.068000	0.202824
492.254000	0.256605
492.440000	0.286960
492.625000	0.217670
492.811000	0.173594
492.996000	0.275664
493.182000	0.286117
493.367000	0.084280
493.553000	0.006631
493.739000	0.106876
493.924000	0.194112
494.110000	0.202937
494.295000	0.070577
494.481000	0.147923
494.666000	0.174427
494.852000	0.320998
495.038000	0.192580
495.223000	0.059271
495.409000	0.115449
495.594000	0.098717
495.780000	0.139719
495.965000	0.085418
496.151000	0.235320
496.337000	0.287553
496.522000	0.092370
496.708000	0.141399
496.893000	0.233155
497.079000	0.079390
497.264000	0.032628
497.450000	0.079269
497.636000	0.217489
497.821000	0.090307
498.007000	0.259757
498.192000	0.264461
498.378000	0.135263
498.563000	0.043858
498.749000	0.040166
498.935000	0.114721
499.120000	0.240980
499.306000	0.068018
499.491000	-0.010222
499.677000	0.078961
499.862000	0.166913
500.048000	0.240068
500.234000	0.138832
500.419000	0.073743
500.605000	0.165369
500.790000	0.055062
500.976000	-0.057020
501.161000	-0.073825
501.347000	0.094380
501.533000	0.184206
501.718000	0.066350
501.904000	0.015924
502.089000	0.106003
502.275000	0.191807
502.460000	0.068101
502.646000	0.094330
502.832000	0.111201
503.017000	0.096444
503.203000	-0.070325
503.388000	-0.091172
503.574000	0.072184
503.759000	0.122774
503.945000	0.169923
504.131000	0.089186
504.316000	-0.004691
504.502000	0.014079
504.687000	-0.029174
504.873000	-0.108286
505.058000	-0.113921
505.244000	-0.134602
505.430000	-0.085817
505.615000	0.004721
505.801000	0.033108
505.986000	-0.127087
506.172000	-0.034852
506.358000	-0.019826
506.543000	-0.044349
506.729000	0.155786
506.914000	0.095570
507.100000	0.221226
507.285000	-0.008560
507.471000	-0.152952
507.657000	0.099739
507.842000	-0.006640
508.028000	-0.171810
508.213000	-0.126563
508.399000	-0.096311
508.584000	0.039135
508.770000	-0.065745
508.956000	-0.124919
509.141000	-0.067644
509.327000	0.046780
509.512000	-0.006656
509.698000	-0.006667
509.883000	0.033426
510.069000	-0.045007
510.255000	-0.022034
510.440000	-0.016306
510.626000	-0.091077
510.811000	-0.152654
510.997000	-0.024007
511.182000	0.202381
511.368000	0.121945
511.554000	-0.225778
511.739000	-0.162263
511.925000	0.047076
512.110000	0.022076
512.296000	0.152996
512.481000	0.187408
512.667000	0.058688
512.853000	-0.127982
513.038000	-0.029872
513.224000	-0.078072
513.409000	-0.193715
513.595000	-0.080121
513.780000	-0.242169
513.966000	-0.145336
514.152000	-0.120326
514.337000	-0.193563
514.523000	-0.114607
514.708000	-0.047239
514.894000	-0.045436
515.079000	-0.178147
515.265000	-0.149771
515.451000	-0.136300
515.636000	-0.215408
515.822000	-0.082209
516.007000	-0.180888
516.193000	-0.016428
516.378000	0.078409
516.564000	-0.057030
516.750000	-0.043513
516.935000	0.039665
517.121000	0.059002
517.306000	0.099718
517.492000	0.043631
517.677000	-0.140431
517.863000	-0.177267
518.049000	-0.090114
518.234000	-0.161696
518.420000	-0.002908
518.605000	0.179286
518.791000	0.121079
518.976000	-0.041816
519.162000	-0.113571
519.348000	-0.002913
519.533000	-0.061077
519.719000	0.113544
519.904000	0.030118
520.090000	0.006787
520.275000	0.210542
520.461000	0.187627
520.647000	-0.084562
520.832000	-0.254373
521.018000	-0.121510
521.203000	-0.093983
521.389000	-0.266254
521.574000	-0.175423
521.760000	-0.033966
521.946000	0.010708
522.131000	-0.104246
522.317000	-0.117704
522.502000	-0.133211
522.688000	-0.045720
522.873000	-0.090553
523.059000	-0.117900
523.245000	-0.096374
523.430000	-0.197865
523.616000	-0.178321
523.801000	-0.241003
523.987000	-0.188653
524.172000	-0.067438
524.358000	-0.014667
524.544000	-0.069309
524.729000	0.061337
524.915000	0.112232
525.100000	-0.020486
525.286000	-0.032241
525.471000	-0.032332
525.657000	0.024519
525.843000	-0.191473
526.028000	-0.095313
526.214000	-0.150282
526.399000	-0.229522
526.585000	-0.247304
526.770000	-0.243334
526.956000	-0.137279
527.142000	-0.249823
527.327000	-0.030646
527.513000	-0.121746
527.698000	-0.215028
527.884000	-0.180008
528.069000	-0.229272
528.255000	-0.116277
528.441000	-0.196017
528.626000	-0.164681
528.812000	0.138620
528.997000	-0.002998
529.183000	-0.172801
529.368000	-0.085296
529.554000	-0.069424
529.740000	-0.071638
529.925000	-0.150370
530.111000	-0.102042
530.296000	-0.035413
530.482000	0.017243
530.667000	-0.090309
530.853000	-0.015269
531.039000	-0.074473
531.224000	0.003077
531.410000	0.064596
531.595000	-0.025657
531.781000	0.003079
531.967000	-0.149667
532.152000	0.034169
532.338000	-0.052911
532.523000	-0.235953
532.709000	-0.257691
532.894000	-0.126858
533.080000	-0.059824
533.266000	-0.221620
533.451000	-0.260396
533.637000	-0.191437
533.822000	-0.013804
534.008000	-0.155959
534.193000	-0.177835
534.379000	-0.043817
534.565000	-0.121251
534.750000	-0.173396
534.936000	0.037838
535.121000	-0.105136
535.307000	-0.046687
535.492000	-0.064163
535.678000	-0.265842
535.864000	-0.095649
536.049000	0.162546
536.235000	-0.067526
536.420000	-0.112317
536.606000	-0.172862
536.791000	-0.241199
536.977000	-0.239553
537.163000	0.010161
537.348000	0.048832
537.534000	0.117754
537.719000	-0.104295
537.905000	-0.288792
538.090000	-0.063531
538.276000	0.015070
538.462000	-0.019770
538.647000	0.008174
538.833000	-0.090403
539.018000	0.029489
539.204000	0.015345
539.389000	-0.193718
539.575000	0.105861
539.761000	0.072919
539.946000	-0.193365
540.132000	-0.068725
540.317000	-0.214023
540.503000	-0.078765
540.688000	-0.025608
540.874000	0.152890
541.060000	0.257992
541.245000	0.126530
541.431000	-0.062889
541.616000	-0.028439
541.802000	-0.043314
541.987000	0.045920
542.173000	0.043604
542.359000	-0.053634
542.544000	0.090920
542.730000	-0.073776
542.915000	-0.131613
543.101000	0.051422
543.286000	-0.139504
543.472000	-0.213724
543.658000	-0.087324
543.843000	-0.062165
544.029000	0.141275
544.214000	0.031860
544.400000	-0.322782
544.585000	-0.218644
544.771000	-0.144957
544.957000	0.088705
545.142000	0.196856
545.328000	0.277355
545.513000	0.306305
545.699000	0.227151
545.884000	0.068841
546.070000	0.063675
546.261000	0.061298
546.451000	-0.087654
546.642000	-0.339426
546.833000	-0.156222
547.023000	-0.237560
547.214000	-0.230615
547.405000	-0.043479
547.595000	0.251977
547.786000	0.197326
547.977000	-0.102252
548.167000	-0.251193
548.358000	-0.190895
548.549000	0.213034
548.740000	-0.062972
548.930000	-0.381987
549.121000	-0.184150
549.312000	-0.219936
549.502000	-0.342198
549.693000	-0.222992
549.884000	-0.104094
550.074000	-0.014923
550.265000	-0.232536
550.456000	-0.091332
550.646000	0.004099
550.837000	-0.034172
551.028000	-0.176563
551.218000	-0.064312
551.409000	-0.182785
551.600000	-0.171937
551.790000	-0.051094
551.981000	-0.227841
552.172000	-0.211665
552.362000	0.062227
552.553000	0.134816
552.744000	-0.043057
552.934000	-0.132063
553.125000	-0.154580
553.316000	-0.218780
553.506000	0.135449
553.697000	-0.015417
553.888000	-0.062960
554.079000	0.133020
554.269000	0.121941
554.460000	-0.172834
554.651000	-0.206770
554.841000	-0.384433
555.032000	-0.291939
555.223000	-0.199136
555.413000	-0.032339
555.604000	-0.069189
555.795000	-0.137326
555.985000	-0.015605
556.176000	-0.117533
556.367000	-0.434636
556.557000	-0.322447
556.748000	-0.254760
556.939000	-0.291315
557.129000	-0.330825
557.320000	-0.154860
557.511000	-0.205622
557.701000	-0.210960
557.892000	-0.143574
558.083000	0.083779
558.273000	-0.044027
558.464000	-0.285486
558.655000	-0.234152
558.845000	-0.089141
559.036000	-0.086372
559.227000	-0.137447
559.418000	0.069560
559.608000	0.089399
559.799000	-0.282035
559.990000	-0.345383
560.180000	-0.261141
560.371000	-0.428358
560.562000	-0.362772
560.752000	-0.170955
560.943000	-0.267152
561.134000	-0.455337
561.324000	-0.254849
561.515000	-0.029513
561.706000	-0.158987
561.896000	-0.349573
562.087000	-0.267844
562.278000	-0.262133
562.468000	-0.416742
562.659000	-0.334442
562.850000	0.026604
563.040000	0.099417
563.231000	-0.368550
563.422000	-0.219286
563.612000	-0.278255
563.803000	-0.277748
563.994000	-0.281972
564.185000	-0.348061
564.375000	-0.131889
564.566000	-0.198286
564.757000	-0.204400
564.947000	-0.343039
565.138000	-0.164710
565.329000	-0.186480
565.519000	-0.354819
565.710000	-0.275020
565.901000	-0.087127
566.091000	0.023493
566.282000	-0.186134
566.473000	-0.100339
566.663000	-0.124935
566.854000	-0.354173
567.045000	-0.195040
567.235000	-0.121366
567.426000	-0.091332
567.617000	-0.104586
567.807000	-0.172573
567.998000	-0.131539
568.189000	-0.226409
568.379000	-0.136583
568.570000	-0.068872
568.761000	-0.130715
568.951000	-0.203161
569.142000	-0.276185
569.333000	-0.292347
569.524000	-0.412047
569.714000	-0.449588
569.905000	-0.489010
570.096000	-0.073672
570.286000	-0.012039
570.477000	0.084046
570.668000	-0.137280
570.858000	-0.169259
571.049000	-0.290846
571.240000	-0.378689
571.430000	-0.134027
571.621000	-0.194377
571.812000	-0.133007
572.002000	-0.069920
572.193000	-0.201514
572.384000	-0.109271
572.574000	-0.101454
572.765000	-0.198593
572.956000	-0.260902
573.146000	-0.009191
573.337000	-0.124490
573.528000	-0.139971
573.718000	-0.030009
573.909000	0.048206
574.100000	-0.029859
574.290000	-0.192817
574.481000	-0.207880
574.672000	-0.233971
574.863000	-0.057938
575.053000	-0.116941
575.244000	-0.096151
575.435000	-0.226698
575.625000	-0.279253
575.816000	-0.240701
576.007000	-0.098064
576.197000	-0.136485
576.388000	-0.207108
576.579000	-0.024134
576.769000	0.003806
576.960000	-0.335952
577.155000	-0.481676
577.350000	-0.188140
577.545000	-0.016384
577.740000	-0.182207
577.935000	0.139195
578.130000	0.084084
578.326000	-0.218952
578.521000	0.013756
578.716000	0.065975
578.911000	-0.212628
579.106000	-0.122638
579.301000	-0.013585
579.496000	-0.121879
579.691000	-0.397307
579.886000	-0.300577
580.081000	-0.128621
580.276000	-0.089203
580.471000	-0.174710
580.666000	-0.284173
580.861000	-0.310895
581.057000	-0.274497
581.252000	-0.140332
581.447000	-0.237421
581.642000	-0.252455
581.837000	-0.205833
582.032000	-0.178529
582.227000	0.030186
582.422000	0.020488
582.617000	-0.152363
582.812000	-0.283600
583.007000	-0.247567
583.202000	-0.309187
583.397000	-0.051153
583.592000	0.148439
583.788000	-0.164538
583.983000	-0.159651
584.178000	-0.083832
584.373000	-0.206007
584.568000	-0.193829
584.763000	-0.250458
584.958000	-0.316284
585.153000	-0.201072
585.348000	-0.200963
585.543000	-0.109408
585.738000	-0.107006
585.933000	-0.318747
586.128000	-0.118753
586.324000	-0.095487
586.519000	-0.095417
586.714000	-0.031831
586.909000	0.046060
587.104000	0.077022
587.299000	-0.041355
587.494000	-0.057818
587.689000	-0.135963
587.884000	-0.096053
588.079000	-0.160100
588.274000	-0.100989
588.469000	-0.129245
588.664000	-0.010686
588.859000	-0.003567
589.055000	-0.060709
589.250000	-0.151250
589.445000	-0.211052
589.640000	-0.106208
589.835000	0.099284
590.030000	0.168614
590.225000	0.211704
590.420000	0.041920
590.615000	-0.109091
590.810000	-0.056281
591.005000	0.034868
591.200000	-0.095026
591.395000	-0.167171
591.591000	-0.068434
591.786000	0.101966
591.981000	-0.006016
592.176000	0.008439
592.371000	0.037388
592.566000	0.027719
592.761000	0.218108
592.956000	0.153296
593.151000	0.259647
593.346000	0.202238
593.541000	0.214127
593.736000	0.185662
593.931000	0.076482
594.126000	0.144681
594.322000	0.190874
594.517000	0.149508
594.712000	0.057154
594.907000	0.079327
595.102000	0.194302
595.297000	0.377359
595.492000	0.434460
595.687000	0.246483
595.882000	0.204892
596.077000	0.323301
596.272000	0.514965
596.467000	0.615945
596.662000	0.518096
596.857000	0.530049
597.053000	0.513615
597.248000	0.580195
597.443000	0.714748
597.638000	0.661836
597.833000	0.408915
598.028000	0.698867
598.223000	0.869383
598.418000	0.756306
598.613000	0.716341
598.808000	0.913881
599.003000	0.879920
599.198000	0.726070
599.393000	0.860776
599.589000	1.010941
599.784000	0.801041
599.979000	0.955386
600.174000	1.242484
600.369000	1.062686
600.564000	1.144655
600.759000	1.420831
600.954000	1.501508
601.149000	1.387436
601.344000	1.141155
601.539000	1.372759
601.734000	1.312841
601.929000	1.123602
602.124000	1.225966
602.320000	1.522733
602.515000	1.848146
602.710000	1.823961
602.905000	1.551359
603.100000	1.465002
603.295000	1.574623
603.490000	1.747641
603.685000	1.834760
603.880000	1.888130
604.075000	1.790381
604.270000	1.853253
604.465000	1.993012
604.660000	1.881597
604.856000	2.090689
605.051000	2.354458
605.246000	2.290852
605.441000	2.084236
605.636000	2.102838
605.831000	2.390172
606.026000	2.340236
606.221000	2.330542
606.416000	2.591795
606.611000	2.951173
606.806000	2.948479
607.001000	3.099689
607.196000	2.923947
607.391000	2.850259
607.587000	3.162553
607.782000	3.177139
607.977000	3.029512
608.172000	3.507506
608.367000	3.645405
608.562000	3.530107
608.757000	3.560260
608.952000	3.558101
609.147000	4.033940
609.342000	3.995745
609.537000	3.890467
609.732000	3.977942
609.927000	3.993626
610.122000	4.155179
610.318000	4.526739
610.513000	4.673537
610.708000	4.534020
610.903000	4.689125
611.098000	4.796737
611.293000	4.877202
611.488000	5.009805
611.683000	5.113750
611.878000	5.117967
612.073000	5.365400
612.268000	5.559245
612.463000	5.744194
612.658000	5.717744
612.854000	5.804212
613.049000	5.931868
613.244000	6.158897
613.439000	6.334382
613.634000	6.243366
613.829000	6.480181
614.024000	6.546403
614.219000	6.649836
614.414000	7.101498
614.609000	7.141564
614.804000	7.049544
614.999000	7.099401
615.194000	7.335547
615.389000	7.570194
615.585000	7.522081
615.780000	7.900679
615.975000	8.127298
616.170000	8.268419
616.365000	8.712825
616.560000	9.005810
616.755000	9.030462
616.950000	9.039821
617.145000	9.363937
617.340000	9.413758
617.535000	9.312766
617.730000	9.800266
617.925000	9.810715
618.120000	9.988778
618.316000	10.651731
618.511000	10.700009
618.706000	10.608422
618.901000	10.988065
619.096000	11.457926
619.291000	11.541703
619.486000	11.819062
619.681000	11.764619
619.876000	11.787246
620.071000	12.188312
620.266000	12.754043
620.461000	13.121967
620.656000	13.112969
620.852000	13.271868
621.047000	13.516431
621.242000	13.620894
621.437000	14.266897
621.632000	14.724201
621.827000	14.664415
622.022000	14.709403
622.217000	15.149561
622.412000	15.561165
622.607000	15.791021
622.802000	15.655039
622.997000	15.913870
623.192000	16.323833
623.387000	16.540101
623.583000	16.726336
623.778000	17.576523
623.973000	17.776399
624.168000	17.984361
624.363000	18.119391
624.558000	18.633667
624.753000	18.650484
624.948000	19.191389
625.143000	19.559112
625.338000	19.646795
625.533000	19.822903
625.728000	20.282893
625.923000	20.928277
626.119000	21.156234
626.314000	21.150536
626.509000	21.543871
626.704000	21.810509
626.899000	22.050930
627.094000	22.496215
627.289000	22.904946
627.484000	23.281561
627.679000	23.566647
627.874000	23.741136
628.069000	24.414704
628.264000	24.666179
628.459000	24.694603
628.654000	25.015082
628.850000	25.434447
629.045000	25.735524
629.240000	26.052054
629.435000	26.329610
629.630000	26.775292
629.825000	27.093044
630.020000	27.370193
630.215000	27.179005
630.410000	27.610568
630.605000	27.729204
630.800000	27.775993
630.995000	28.142092
631.190000	28.690855
631.385000	28.690078
631.581000	28.760217
631.776000	28.669779
631.971000	28.665434
632.166000	28.778567
632.361000	28.301305
632.556000	28.456472
632.751000	28.466091
632.946000	28.224977
633.141000	27.833118
633.336000	27.732575
633.531000	27.522715
633.726000	26.987908
633.921000	26.703779
634.117000	26.237983
634.312000	25.785234
634.507000	25.225157
634.702000	24.895244
634.897000	24.465057
635.092000	24.016019
635.287000	23.668472
635.482000	22.945597
635.677000	22.474384
635.872000	22.073275
636.067000	21.625651
636.262000	20.951308
636.457000	19.975984
636.652000	19.176892
636.848000	18.576908
637.043000	18.154665
637.238000	17.669950
637.433000	16.973152
637.628000	16.398658
637.823000	16.048118
638.018000	15.487347
638.213000	14.865161
638.408000	14.342858
638.603000	13.622034
638.798000	13.075345
638.993000	12.702854
639.188000	12.325527
639.383000	11.703523
639.579000	11.585377
639.774000	11.045282
639.969000	10.531904
640.164000	10.049708
640.359000	9.566647
640.554000	9.485276
640.749000	9.193768
640.944000	8.901893
641.139000	8.501228
641.334000	8.009894
641.529000	7.407599
641.724000	7.286394
641.919000	7.158109
642.115000	7.158951
642.310000	6.874223
642.505000	6.479779
642.700000	6.298425
642.895000	5.943373
643.090000	5.898840
643.285000	5.899611
643.480000	5.636731
643.675000	5.444005
643.870000	5.596341
644.065000	5.339516
644.260000	4.796207
644.455000	4.596599
644.650000	4.332545
644.846000	4.276227
645.041000	4.002396
645.236000	3.719497
645.431000	3.594962
645.626000	3.309901
645.821000	3.368496
646.016000	3.411711
646.211000	3.658834
646.406000	3.401145
646.601000	3.250578
646.796000	2.982263
646.991000	2.701689
647.186000	2.714377
647.381000	2.800010
647.577000	2.748956
647.772000	2.759187
647.967000	2.606416
648.162000	2.433364
648.357000	2.298370
648.552000	2.428932
648.747000	2.464076
648.942000	2.404897
649.137000	2.188788
649.332000	1.886552
649.527000	1.834927
649.722000	2.034157
649.917000	2.084297
650.113000	1.691555
650.308000	1.541040
650.503000	1.519837
650.698000	1.524228
650.893000	1.361702
651.088000	1.458097
651.283000	1.536479
651.478000	1.194668
651.673000	1.333466
651.868000	1.154791
652.063000	1.321649
652.258000	1.418729
652.453000	1.586060
652.648000	1.207886
652.844000	1.030447
653.039000	1.052796
653.234000	0.723275
653.429000	0.535249
653.624000	0.730908
653.819000	0.963470
654.014000	0.853329
654.209000	0.606678
654.404000	0.827057
654.599000	0.694144
654.794000	0.589264
654.989000	0.868313
655.184000	0.782572
655.380000	0.476793
655.575000	0.400551
655.770000	0.331742
655.965000	0.443011
656.160000	0.436292
656.355000	0.616943
656.550000	0.552595
656.745000	0.601812
656.940000	0.466132
657.135000	0.525361
657.330000	0.557005
657.525000	0.274333
657.720000	0.449854
657.915000	0.599834
658.111000	0.537082
658.306000	0.688082
658.501000	0.405375
658.696000	0.145596
658.891000	0.412420
659.086000	0.331557
659.281000	0.328585
659.476000	0.149569
659.671000	-0.255122
659.866000	0.005281
660.061000	0.336432
660.256000	0.438796
660.451000	0.365106
660.646000	0.143056
660.842000	0.242238
661.037000	0.136200
661.232000	0.139938
661.427000	0.274343
661.622000	0.132991
661.817000	-0.037227
662.012000	0.186604
662.207000	-0.026676
662.402000	-0.083795
662.597000	0.094558
662.792000	-0.215678
662.987000	-0.229749
663.182000	0.101732
663.378000	0.141110
663.573000	-0.223823
663.768000	-0.244801
663.963000	-0.012522
664.158000	0.019659
664.353000	0.454009
664.548000	0.636825
664.743000	0.321466
664.938000	-0.041302
665.133000	-0.044963
665.328000	0.311607
665.523000	0.261686
665.718000	0.092052
665.913000	-0.001808
666.109000	0.081526
666.304000	0.258988
666.499000	0.110408
666.694000	0.234149
666.889000	0.520879
667.084000	0.213058
667.279000	0.009100
667.474000	-0.071017
667.669000	-0.009102
667.864000	-0.034630
668.059000	-0.020080
668.254000	0.034727
668.449000	-0.126257
668.644000	-0.122710
668.840000	0.104258
669.035000	-0.078763
669.230000	-0.365746
669.425000	-0.027587
669.620000	-0.218844
669.815000	-0.260241
670.010000	-0.212057
670.205000	-0.094121
670.400000	0.001842
670.595000	0.042500
670.790000	-0.057360
670.985000	-0.057420
671.180000	0.042649
671.376000	-0.313658
671.571000	-0.325513
671.766000	-0.300166
671.961000	-0.374884
672.156000	-0.323063
672.351000	-0.218538
672.546000	-0.275152
672.741000	-0.046692
672.936000	0.054234
673.131000	0.560690
673.326000	0.129750
673.521000	-0.333126
673.716000	-0.389579
673.911000	-0.408690
674.107000	0.130197
674.302000	0.273791
674.497000	0.013233
674.692000	-0.240248
674.887000	-0.411903
675.082000	-0.199609
675.277000	0.062822
675.472000	-0.078154
675.667000	-0.181367
675.862000	-0.196740
676.057000	-0.059253
676.252000	0.024900
676.447000	-0.213132
676.643000	-0.055638
676.838000	0.182607
677.033000	-0.148217
677.228000	0.229635
677.423000	0.156401
677.618000	-0.265246
677.813000	-0.454719
678.008000	-0.258179
678.203000	-0.106879
678.398000	-0.317327
678.593000	-0.056476
678.788000	0.017584
678.983000	-0.400034
679.178000	-0.208903
679.374000	-0.209207
679.569000	-0.127362
679.764000	-0.237792
679.959000	-0.443236
680.154000	-0.419682
680.349000	-0.527902
680.544000	-0.460062
680.739000	-0.341771
680.934000	-0.417262
681.129000	-0.414464
681.324000	-0.454686
681.519000	-0.225072
681.714000	-0.288911
681.909000	-0.344282
682.105000	-0.556792
682.300000	-0.130222
682.495000	0.126150
682.690000	0.062215
682.885000	-0.090385
683.080000	-0.312190
683.275000	-0.280104
683.470000	0.034299
683.665000	0.236576
683.860000	0.500300
684.055000	0.265493
684.250000	-0.265753
684.445000	-0.354448
684.641000	0.144237
684.836000	-0.115989
685.031000	-0.206266
685.226000	-0.333335
685.421000	0.014355
685.616000	-0.194821
685.811000	-0.351520
686.006000	-0.084275
686.201000	-0.109086
686.396000	-0.506198
686.591000	-0.420263
686.786000	0.035250
686.981000	-0.126499
687.176000	-0.031182
687.372000	-0.272628
687.567000	0.022903
687.762000	-0.031317
687.957000	-0.073070
688.152000	-0.177835
688.347000	-0.165580
688.542000	-0.397118
688.737000	-0.728777
688.932000	-0.801544
689.127000	-0.482439
689.322000	-0.128876
689.517000	-0.264035
689.712000	-0.430309
689.908000	-0.396794
690.103000	-0.359296
690.298000	-0.219016
690.493000	-0.266491
690.688000	-0.574198
690.883000	-0.361983
691.078000	0.044995
691.273000	0.053572
691.468000	-0.225439
691.663000	-0.221986
691.858000	0.002156
692.053000	-0.028021
692.248000	0.058258
692.443000	0.110037
692.639000	-0.054052
692.834000	-0.015172
693.029000	0.418474
693.224000	0.363818
693.419000	-0.141737
693.614000	-0.255610
693.809000	-0.408839
694.004000	-0.444657
694.199000	-0.479579
694.394000	-0.274661
694.589000	-0.512511
694.784000	-0.464590
694.979000	-0.156337
695.174000	-0.214128
695.370000	0.341584
695.565000	0.033137
695.760000	-0.325485
695.955000	-0.006659
696.150000	0.046625
696.345000	-0.394507
696.540000	-0.100474
696.740000	-0.229813
696.940000	-0.033493
697.140000	0.065088
697.340000	-0.213588
697.539000	-0.159713
697.739000	-0.249792
697.939000	-0.186911
698.139000	-0.507214
698.339000	-0.812324
698.539000	-0.567623
698.739000	-0.564613
698.939000	-0.343892
699.138000	-0.545206
699.338000	0.088663
699.538000	0.335466
699.738000	-0.189968
699.938000	-0.345895
700.138000	-0.461210
700.338000	-0.453337
700.538000	-0.186861
700.737000	-0.255984
700.937000	-0.646112
701.137000	-0.665527
701.337000	0.081019
701.537000	0.150794
701.737000	-0.229383
701.937000	-0.294925
702.137000	-0.392479
702.337000	-0.495492
702.536000	-0.627040
702.736000	-0.599789
702.936000	-0.694164
703.136000	-0.208630
703.336000	-0.180460
703.536000	-0.350171
703.736000	-0.714023
703.936000	-0.637292
704.135000	-0.618169
704.335000	-0.238061
704.535000	-0.437242
704.735000	-0.631693
704.935000	-0.054300
705.135000	-0.149459
705.335000	-0.521285
705.535000	-0.283441
705.735000	-0.188134
705.934000	-0.116631
706.134000	-0.330963
706.334000	-0.451082
706.534000	-0.595137
706.734000	-0.514282
706.934000	-0.509469
707.134000	-0.562237
707.334000	-0.381216
707.533000	-0.271428
707.733000	-0.348040
707.933000	-0.511770
708.133000	-0.170383
708.333000	-0.142323
708.533000	-0.374590
708.733000	0.089405
708.933000	-0.244267
709.132000	-0.394979
709.332000	-0.405356
709.532000	-0.523018
709.732000	-0.342502
709.932000	-0.825434
710.132000	-0.742182
710.332000	-0.834268
710.532000	-0.279970
710.732000	-0.168442
710.931000	-0.437297
711.131000	-0.512583
711.331000	-0.429527
711.531000	-0.567937
711.731000	-0.386973
711.931000	-0.343175
712.131000	-0.406877
712.331000	-0.209670
712.530000	-0.362166
712.730000	-0.600259
712.930000	-0.407447
713.130000	-0.369226
713.330000	-0.573132
713.530000	-0.425828
713.730000	0.316403
713.930000	0.052302
714.129000	-0.475202
714.329000	-0.651444
714.529000	-0.291805
714.729000	0.017494
714.929000	-0.182447
715.129000	-0.518207
715.329000	-0.448526
715.529000	-0.430236
715.729000	0.243593
715.928000	-0.153572
716.128000	-0.476118
716.328000	-0.240028
716.528000	-0.387014
716.728000	-0.235300
716.928000	-0.331477
717.128000	-0.245993
717.328000	-0.291594
717.527000	-0.347798
717.727000	-0.353220
717.927000	-0.333962
718.127000	-0.400473
718.327000	-0.789620
718.527000	-0.717709
718.727000	-0.319561
718.927000	-0.432829
719.127000	-0.737997
719.326000	-0.458417
719.526000	-0.023091
719.726000	-0.280248
719.926000	-0.802592
720.126000	-0.802722
720.326000	-0.503239
720.526000	-0.596256
720.726000	-0.510032
720.925000	-0.272018
721.125000	-0.657861
721.325000	-0.360995
721.525000	-0.330629
721.725000	-0.575411
721.925000	-0.592698
722.125000	-0.540522
722.325000	-0.033942
722.524000	-0.353547
722.724000	-0.631931
722.924000	-0.804941
723.124000	-0.784940
723.324000	-0.354769
723.524000	-0.128885
723.724000	-0.634475
723.924000	-0.499361
724.124000	-0.298662
724.323000	-0.050283
724.523000	-0.156005
724.723000	0.140442
724.923000	-0.023856
725.123000	-0.082256
725.323000	0.050505
725.523000	-0.210395
725.723000	-0.577314
725.922000	-0.530024
726.122000	-0.391965
726.322000	-0.510662
726.522000	-0.511162
726.722000	0.264643
726.922000	-0.013357
727.122000	-0.184964
727.322000	0.115414
727.521000	-0.153367
727.721000	-0.568561
727.921000	-0.471578
728.121000	-0.444519
728.321000	-0.715240
728.521000	-0.376124
728.721000	-0.355079
728.921000	-0.035224
729.121000	0.730076
729.320000	0.040756
729.520000	-0.470091
729.720000	-0.683165
729.920000	-0.609846
730.120000	-0.335519
730.320000	-0.232431
730.520000	-0.560798
730.720000	-0.518657
730.919000	-0.458199
731.119000	-0.217150
731.319000	-0.691058
731.519000	-0.845122
731.719000	-0.438034
731.919000	-0.587114
732.119000	-1.101629
732.319000	-1.027537
732.519000	-0.412897
732.718000	-0.724211
732.918000	-0.574868
733.118000	-0.414826
733.318000	-0.136812
733.518000	-0.449561
733.718000	-0.936722
733.918000	-0.886908
734.118000	-0.590134
734.317000	-0.362262
734.517000	-0.726325
734.717000	-0.673467
734.917000	-0.132739
735.117000	-0.093299
735.317000	-0.189377
735.517000	0.280587
735.717000	0.508824
735.916000	-0.406552
736.116000	-0.616399
736.316000	-0.437286
736.516000	-0.357148
736.716000	-0.448805
736.916000	-0.915622
737.116000	-0.631654
737.316000	-0.037489
737.516000	-0.095354
737.715000	-0.164806
737.915000	-0.650847
738.115000	-0.798006
738.315000	-0.473350
738.515000	-0.693918
738.715000	-0.446833
738.915000	-0.038017
739.115000	-0.530190
739.314000	-0.523859
739.514000	-0.014685
739.714000	-0.014723
739.914000	-0.162421
740.114000	-0.446756
740.314000	-0.257594
740.514000	0.299504
740.714000	-0.419536
740.913000	-1.016101
741.113000	-0.898314
741.313000	-0.498401
741.513000	-0.445933
741.713000	-0.315092
741.913000	-0.310551
742.113000	-0.490707
742.313000	-0.986526
742.513000	-0.619041
742.712000	-0.475630
742.912000	-0.766664
743.112000	-0.598986
743.312000	-1.026364
743.512000	-0.631860
743.712000	-0.407280
743.912000	-1.064319
744.112000	-1.255289
744.311000	-1.246372
744.511000	-0.755342
744.711000	-0.349251
744.911000	-0.745928
745.111000	-0.647687
745.311000	-0.170772
745.511000	-0.531679
745.711000	-0.781153
745.911000	-0.507941
746.110000	-0.894777
746.310000	-0.962780
746.510000	-0.672803
746.710000	-0.154040
746.910000	-0.110126
747.110000	-0.772127
747.310000	-1.013412
747.510000	-0.738394
747.709000	-0.453545
747.909000	-0.429270
748.109000	-0.309480
748.309000	-0.521117
748.509000	-0.707654
748.709000	-0.877400
748.909000	-0.568688
749.109000	-0.442093
749.308000	0.080756
749.508000	-0.262609
749.708000	-0.638905
749.908000	-0.256268
750.108000	-0.191959
750.308000	-0.930493
750.508000	-0.075285
750.708000	-0.553363
750.908000	-1.118962
751.107000	-0.444356
751.307000	0.233422
751.507000	-0.293839
751.707000	-0.333034
751.907000	-0.433016
752.107000	-0.334982
752.307000	-0.635612
752.507000	-0.603911
752.706000	-0.836899
752.906000	0.257283
753.106000	-0.526410
753.306000	-1.193943
753.506000	-0.293397
753.706000	-0.631896
753.906000	-0.327826
754.106000	-0.179359
754.305000	-0.240584
754.505000	-0.146088
754.705000	-0.297187
754.905000	-0.372890
755.105000	-0.325477
755.305000	-1.169921
755.505000	-0.884269
755.705000	-0.347948
755.905000	-0.404281
756.104000	-0.964887
756.304000	-1.355858
756.504000	-1.539344
756.704000	-0.695080
756.904000	-0.324652
757.104000	-0.491519
757.304000	-0.485011
757.504000	-0.080744
757.703000	-0.473846
757.903000	-0.193514
758.103000	0.045833
758.303000	-0.371233
758.503000	-0.620355
758.703000	-0.792354
758.903000	-0.870912
759.103000	-0.445572
759.303000	-0.397567
759.502000	-0.477868
759.702000	-0.190356
759.902000	-0.617303
760.102000	-0.799712
760.302000	-0.613604
760.502000	-0.228057
760.702000	-0.105129
760.902000	-0.403245
761.101000	-0.885318
761.301000	-1.164245
761.501000	-0.799535
761.701000	-0.830407
761.901000	-0.533198
762.101000	-0.173200
762.301000	-0.372200
762.501000	-0.792957
762.700000	-0.974457
762.900000	-0.878436
763.100000	-0.515788
763.300000	-0.301795
763.500000	-0.652672
763.703000	-0.635623
763.905000	-0.988774
764.108000	-0.280837
764.311000	-0.378245
764.513000	-0.536182
764.716000	-0.350118
764.919000	-0.395824
765.121000	-0.923946
765.324000	-1.183937
765.527000	-0.855614
765.729000	-0.665457
765.932000	0.003809
766.135000	-0.133270
766.337000	-0.407635
766.540000	-0.745326
766.743000	-0.542934
766.945000	-0.903098
767.148000	-1.313420
767.351000	-1.174596
767.553000	-0.282185
767.756000	-0.793280
767.958000	-1.141432
768.161000	-0.731925
768.364000	-1.030024
768.566000	-1.234839
768.769000	-0.660518
768.972000	-0.386876
769.174000	-0.685956
769.377000	-1.277565
769.580000	-1.319682
769.782000	-0.610068
769.985000	-1.093733
770.188000	-2.164961
770.390000	-1.356314
770.593000	0.433003
770.796000	0.155043
770.998000	-0.505178
771.201000	-0.903907
771.404000	-0.434647
771.606000	-0.772659
771.809000	-0.652344
772.012000	-0.525286
772.214000	-1.360399
772.417000	-1.545162
772.620000	-0.308077
772.822000	-0.512065
773.025000	-1.092872
773.228000	-0.997947
773.430000	-0.886294
773.633000	-0.709569
773.836000	-0.645574
774.038000	-0.501294
774.241000	-0.525605
774.444000	-0.886874
774.646000	0.151096
774.849000	-0.200552
775.052000	-0.601553
775.254000	-0.619149
775.457000	-0.962699
775.659000	-0.891090
775.862000	-0.957019
776.065000	-0.654149
776.267000	-0.119515
776.470000	0.244238
776.673000	-0.517811
776.875000	0.029082
777.078000	-0.111997
777.281000	-1.036784
777.483000	-0.204676
777.686000	-0.046034
777.889000	-0.347718
778.091000	-0.029427
778.294000	-1.036860
778.497000	-0.928909
778.699000	-0.786628
778.902000	-0.865292
779.105000	-0.595192
779.307000	0.207135
779.510000	-0.716002
779.713000	-0.455091
779.915000	-0.669955
780.118000	0.192214
780.321000	0.312196
780.523000	-0.672995
780.726000	-1.067806
780.929000	-1.050274
781.131000	-1.034725
781.334000	-1.374702
781.537000	-1.542764
781.739000	-0.506074
781.942000	-1.017294
782.145000	-1.640439
782.347000	-1.484729
782.550000	-0.928007
782.753000	-1.088418
782.955000	-0.977418
783.158000	-0.933037
783.361000	-0.768472
783.563000	-0.847654
783.766000	-0.682523
783.968000	1.256890
784.171000	0.890505
784.374000	-0.589293
784.576000	-0.624553
784.779000	-0.260927
784.982000	-0.040032
785.184000	-0.675287
785.387000	0.058226
785.590000	0.711769
785.792000	0.372961
785.995000	0.058505
786.198000	-0.265956
786.400000	-0.574897
786.603000	-0.567280
786.806000	-0.891272
787.008000	-0.348330
787.211000	-0.286026
787.414000	-1.088796
787.616000	-0.754521
787.819000	-0.820470
788.022000	-1.565127
788.224000	-0.924848
788.427000	-1.487040
788.630000	-0.817739
788.832000	-0.475344
789.035000	-1.092011
789.238000	-1.624580
789.440000	-1.187136
789.643000	-0.125436
789.846000	-0.824647
790.048000	-0.611811
790.251000	-0.247586
790.454000	-0.573436
790.656000	0.004679
790.859000	-0.605025
791.062000	-0.953771
791.264000	-0.267587
791.467000	-1.032446
791.669000	-1.713816
791.872000	-0.517188
792.075000	-0.990527
792.277000	-0.905365
792.480000	-0.843563
792.683000	-1.345064
792.885000	-1.451030
793.088000	-1.122107
793.291000	-1.421699
793.493000	-1.616115
793.696000	-0.580494
793.899000	-0.149132
794.101000	-0.708813
794.304000	-0.865063
794.507000	-0.498512
794.709000	-0.383415
794.912000	-0.998941
795.115000	-1.274269
795.317000	-0.737018
795.520000	-0.475519
795.723000	-0.871198
795.925000	-1.355534
796.128000	-1.363640
796.331000	-0.933484
796.533000	-1.539706
796.736000	-0.870747
796.939000	-0.573574
797.141000	-0.985150
797.344000	-0.215238
797.547000	0.035054
797.749000	-0.245730
797.952000	-1.113918
798.155000	-1.443422
798.357000	-1.563426
798.560000	-1.358548
798.763000	-0.645535
798.965000	-0.563674
799.168000	-0.494017
799.371000	-0.586374
799.573000	-0.925980
799.776000	-1.521701
799.978000	-1.598964
800.181000	-0.880856
800.384000	0.717125
800.586000	0.067227
800.789000	-1.452507
800.992000	-1.389536
801.194000	-1.444375
801.397000	-1.323540
801.600000	-1.192657
801.802000	0.067806
802.005000	-0.204067
802.208000	-1.652941
802.410000	-0.802169
802.613000	-0.658259
802.816000	-0.690660
803.018000	-1.326850
803.221000	-1.202220
803.424000	0.100836
803.626000	-0.473068
803.829000	-0.975814
804.032000	0.155046
804.234000	1.042229
804.437000	-0.477734
804.640000	-0.713319
804.842000	-0.596688
805.045000	-1.129083
805.248000	-0.741502
805.450000	-0.675892
805.653000	-0.854302
805.856000	-1.114273
806.058000	-0.005452
806.261000	-1.054749
806.464000	-0.946395
806.666000	-0.279437
806.869000	-0.865740
807.072000	-2.067627
807.274000	-2.466230
807.477000	-1.399686
807.679000	-1.024337
807.882000	-1.681555
808.085000	-1.279446
808.287000	-0.117445
808.490000	-1.204722
808.693000	-1.396219
808.895000	-1.094654
809.098000	-0.780669
809.301000	-0.726930
809.503000	-1.171528
809.706000	-0.130880
809.909000	0.438092
810.111000	0.142437
810.314000	-0.291235
810.517000	-0.961935
810.719000	-1.310796
810.922000	-0.741523
811.125000	0.005736
811.327000	0.098068
811.530000	-0.295369
811.735000	-1.011991
811.940000	-1.593830
812.146000	-1.030163
812.351000	-0.110591
812.556000	-0.601445
812.761000	-1.646043
812.967000	-0.464763
813.172000	-0.452520
813.377000	-0.760466
813.582000	-0.159843
813.788000	-0.387463
813.993000	-1.397315
814.198000	-0.553522
814.403000	-1.457392
814.609000	-0.844022
814.814000	-0.571231
815.019000	0.198065
815.224000	-0.101981
815.429000	-1.141321
815.635000	-0.551251
815.840000	-0.309278
816.045000	-0.420342
816.250000	-0.262375
816.456000	-1.460809
816.661000	-2.339418
816.866000	-1.901494
817.071000	-1.801899
817.277000	-2.321058
817.482000	-1.457043
817.687000	-0.514288
817.892000	-0.679214
818.097000	-0.418792
818.303000	0.056255
818.508000	0.517784
818.713000	1.420983
818.918000	0.006264
819.124000	0.094207
819.329000	-1.116358
819.534000	-1.220900
819.739000	-1.145084
819.945000	-1.430161
820.150000	-1.003606
820.355000	-0.723745
820.560000	-0.466294
820.766000	-0.569951
820.971000	-0.676293
821.176000	-2.072547
821.381000	-2.800489
821.586000	-1.884660
821.792000	-0.448441
821.997000	-0.982286
822.202000	-0.905113
822.407000	-1.534868
822.613000	-1.956975
822.818000	-1.135253
823.023000	-0.466481
823.228000	-0.786898
823.434000	0.059466
823.639000	0.152295
823.844000	-1.121986
824.049000	-0.006644
824.255000	0.126642
824.460000	-0.756703
824.665000	-1.186928
824.870000	-0.195128
825.075000	-0.397485
825.281000	-0.168933
825.486000	0.713729
825.691000	-1.558962
825.896000	-2.776154
826.102000	-1.276323
826.307000	-1.033123
826.512000	-1.160601
826.717000	-1.136626
826.923000	-1.305671
827.128000	-0.934667
827.333000	-1.721147
827.538000	-1.140072
827.744000	-0.399644
827.949000	-1.322624
828.154000	-0.920454
828.359000	-0.105343
828.564000	-0.684634
828.770000	-1.041828
828.975000	0.092343
829.180000	-0.492614
829.385000	-2.033938
829.591000	-1.698493
829.796000	-1.044355
830.001000	-0.974188
830.206000	-1.541905
830.412000	-1.511405
830.617000	-1.500558
830.822000	-0.225842
831.027000	-0.966780
831.232000	-1.689330
831.438000	-1.671803
831.643000	-1.067801
831.848000	-1.055654
832.053000	-0.852193
832.259000	-0.971961
832.464000	-2.924070
832.669000	-2.247648
832.874000	-1.483572
833.080000	-1.744726
833.285000	-0.412514
833.490000	-0.232673
833.695000	-1.699876
833.901000	-1.525701
834.106000	-2.044973
834.311000	-1.138672
834.516000	-0.267883
834.721000	-1.239215
834.927000	-0.285966
835.132000	-0.658236
835.337000	0.752282
835.542000	-0.382278
835.748000	-1.767529
835.953000	0.039067
836.158000	-0.415126
836.363000	-0.699896
836.569000	-0.467573
836.774000	-1.802128
836.979000	-2.217644
837.184000	-2.207091
837.390000	-2.035507
837.595000	-1.544726
837.800000	-1.211343
838.005000	-1.057337
838.210000	-1.316189
838.416000	-1.710379
838.621000	-0.950961
838.826000	-1.145329
839.031000	-1.428806
839.237000	-1.735607
839.442000	-2.463395
839.647000	-2.871040
839.852000	-2.189417
840.058000	-1.799322
840.263000	-1.758165
840.468000	-2.060207
840.673000	-1.276289
840.878000	-1.193997
841.084000	-1.789070
841.289000	-1.271499
841.494000	1.704325
841.699000	1.897125
841.905000	0.827378
842.110000	0.780394
842.315000	-1.349260
842.520000	-1.176198
842.726000	-1.437186
842.931000	-1.986352
843.136000	-1.221218
843.341000	-2.626440
843.547000	-1.715446
843.752000	-1.298955
843.957000	-1.907260
844.162000	-1.545413
844.367000	-1.212475
844.573000	-0.897716
844.778000	-0.540753
844.983000	-0.470987
845.188000	-0.562724
845.394000	-2.045906
845.599000	-1.717220
845.804000	-1.777205
846.009000	-0.971956
846.215000	-2.290575
846.420000	-2.022243
846.625000	-0.963924
846.830000	-0.155503
847.036000	-1.240857
847.241000	-1.726106
847.446000	0.027688
847.651000	-0.769264
847.856000	-1.767563
848.062000	-1.435129
848.267000	-0.178271
848.472000	-1.195736
848.677000	-2.615306
848.883000	-1.422674
849.088000	0.314064
849.293000	-1.251655
849.498000	-1.956200
849.704000	-0.621996
849.909000	-0.873052
850.114000	-2.158712
850.319000	-1.221199
850.524000	-1.189240
850.730000	-1.273774
850.935000	-1.415566
851.140000	0.068518
851.345000	-0.264246
851.551000	-0.716592
851.756000	-0.049346
851.961000	-1.335878
852.166000	-1.990007
852.372000	-1.677528
852.577000	-1.289837
852.782000	-1.843646
852.987000	-0.311423
853.193000	-0.534351
853.398000	-0.756383
853.603000	-1.849698
853.808000	-2.760834
854.013000	-1.984568
854.219000	-0.173328
854.424000	1.422710
854.629000	1.425850
854.834000	-1.208188
855.040000	-0.883367
855.245000	-0.611111
855.450000	-3.170064
855.655000	-4.430220
855.861000	-4.019834
856.066000	-2.726212
856.271000	-2.625173
856.476000	-0.476063
856.682000	-0.838972
856.887000	-4.042620
857.092000	-2.371108
857.297000	0.608507
857.502000	-0.181842
857.708000	-0.975285
857.913000	-0.139568
858.118000	-1.224353
858.323000	-1.553955
858.529000	-1.139251
858.734000	-1.534014
858.939000	-1.342127
859.144000	-1.872198
859.350000	-2.879869
859.555000	-3.130529
859.760000	-0.762050
859.965000	0.298107
860.171000	-1.674399
860.376000	-0.144755
860.581000	-2.489756
860.786000	-4.966791
860.991000	-4.267771
861.197000	-3.049764
861.402000	-0.959311
861.607000	-1.773036
861.812000	-3.481938
862.018000	-3.905167
862.223000	-1.996184
862.428000	-0.470434
862.633000	0.126271
862.839000	-0.381190
863.044000	-1.455971
863.249000	-2.241921
863.454000	-0.848822
863.659000	-1.714461
863.865000	-2.660663
864.070000	-2.573629
864.275000	-2.836905
864.480000	-2.566079
864.686000	-3.714978
864.891000	-3.052858
865.096000	-1.133668
865.301000	-0.561916
865.507000	-0.517118
865.712000	-0.228479
865.917000	-1.391789
866.122000	-0.376198
866.328000	-3.649066
866.533000	-3.890434
866.738000	0.109901
866.943000	-0.061185
867.148000	0.184587
867.354000	-2.319246
867.559000	-3.287583
867.764000	-2.131790
867.969000	-0.889618
868.175000	-2.160345
868.380000	-2.719301
868.585000	-3.500798
868.790000	-1.523508
868.996000	-1.913803
869.201000	-3.697852
869.406000	-4.887924
869.611000	-3.846859
869.817000	-3.153217
870.022000	1.242996
870.227000	-0.089921
870.432000	-2.026729
870.637000	-1.408701
870.843000	-2.066834
871.048000	-1.781717
871.253000	-0.091089
871.458000	-1.242487
871.664000	-3.487917
871.869000	-4.170511
872.074000	-3.226943
872.279000	-1.898068
872.485000	-2.578237
872.690000	-2.938248
872.895000	-2.977336
873.100000	-3.304569
873.306000	-3.508254
873.511000	-2.577914
873.716000	-0.615135
873.921000	-2.385946
874.126000	-3.618754
874.332000	-2.330548
874.537000	-1.177968
874.742000	-0.732127
874.947000	-1.151402
875.153000	-0.434076
875.358000	-1.726339
875.563000	-1.640605
875.768000	-3.984955
875.974000	-4.538611
876.179000	-1.317489
876.384000	-1.124596
876.589000	-2.829782
876.794000	-2.976811
877.000000	-4.015532
877.205000	-5.102893
877.410000	-2.267884
877.615000	-3.273498
877.821000	-5.077457
878.026000	-3.595269
878.231000	-3.885502
878.436000	-4.008640
878.642000	-2.891496
878.847000	-1.044433
879.052000	-0.279098
879.257000	-2.770790
879.463000	-4.406742
879.668000	-3.012930
879.873000	-0.610945
880.078000	-3.181708
880.283000	-4.723664
880.489000	-5.263397
880.694000	-4.623601
880.899000	-2.321653
881.104000	-0.411367
881.310000	1.295012
881.515000	0.106525
881.720000	0.961035
881.925000	2.101656
882.131000	3.789354
882.336000	0.170055
882.541000	-3.287617
882.746000	-3.554362
882.952000	-3.863025
883.157000	-3.903899
883.362000	-4.035516
883.567000	-4.052408
883.772000	-3.994547
883.978000	-3.775873
884.183000	-2.570873
884.388000	-2.278109
884.593000	-3.968378
884.799000	0.016009
885.004000	0.016235
885.209000	-1.770339
885.414000	-1.926132
885.620000	-4.255098
885.825000	-1.001633
886.030000	-1.360213
886.235000	-3.149354
886.440000	-3.142326
886.646000	-5.488147
886.851000	-4.677490
887.056000	-0.285921
887.261000	-1.060440
887.467000	-4.073114
887.672000	-1.514429
887.877000	-3.198232
888.082000	-5.894278
888.288000	-5.804283
888.493000	-8.002631
888.698000	-6.666617
888.903000	-3.350548
889.109000	-3.828693
889.314000	-0.814710
889.519000	-2.814741
889.724000	-0.017293
889.929000	-0.813729
890.135000	-2.308873
890.340000	-3.095643
890.545000	-4.457792
890.750000	-5.378682
890.956000	-3.779369
891.161000	-1.421798
891.366000	-3.397317
891.571000	-2.664244
891.777000	-2.596087
891.982000	-0.408175
892.187000	-1.336709
892.392000	-0.906800
892.598000	-0.411284
892.803000	-1.136518
893.008000	-4.379369
893.213000	-4.331852
893.418000	-4.108968
893.624000	-3.874895
893.829000	-5.696559
894.034000	-3.082335
894.239000	-2.474333
894.445000	-4.443483
894.650000	-4.465880
894.855000	-4.324241
895.060000	-3.912877
895.266000	-4.048806
895.471000	-5.420093
895.676000	-2.134768
895.881000	-1.329332
896.087000	-3.052436
896.292000	-4.919439
896.497000	-0.435642
896.702000	-1.754450
896.907000	-3.570998
897.113000	0.967162
897.318000	0.928765
897.523000	-0.209048
897.728000	-2.651772
897.934000	-3.023547
898.139000	-2.917473
898.344000	0.288714
898.549000	-1.529224
898.755000	-3.586166
898.960000	-4.115425
899.165000	-6.419826
899.370000	-2.762974
899.575000	1.944911
899.781000	-2.383863
899.986000	-3.802558
900.191000	-2.081964
900.396000	-3.156348
900.602000	-2.895710
900.807000	-3.519522
901.012000	-3.178079
901.217000	-1.724887
901.423000	-3.619958
901.628000	-4.768369
901.833000	-0.224312
902.038000	-0.760369
902.244000	-4.693148
902.449000	-4.061111
902.654000	-4.270570
902.859000	-3.720207
903.064000	-0.647370
903.270000	0.607782
903.475000	-4.383581
903.680000	-6.935334
903.885000	-5.681198
904.091000	-5.200950
904.296000	-6.500390
904.501000	-4.557631
904.706000	-4.100040
904.912000	-0.238677
905.117000	-2.636450
905.322000	-5.864848
905.527000	-4.963095
905.733000	-3.653663
905.938000	-3.676528
906.143000	-5.102049
906.348000	-7.068329
906.553000	-2.133464
906.759000	-0.157104
906.964000	-1.375848
907.169000	-2.744513
907.374000	-6.178331
907.580000	-5.801702
907.785000	-4.744487
907.990000	26.236994
908.195000	17.023187
908.401000	-0.350899
908.606000	-8.067976
908.811000	-10.080823
909.016000	-3.731302
909.221000	-2.801452
909.427000	-3.906482
909.632000	-5.803696
909.837000	-5.507442
910.042000	-7.356488
910.248000	-9.332163
910.453000	-3.872620
910.658000	-4.343893
910.863000	-4.535494
911.069000	-6.323620
911.274000	-2.999132
911.479000	-1.421509
911.684000	-8.048083
911.890000	-5.044573
912.095000	-4.095917
912.300000	-7.263256
912.506000	-7.013871
912.711000	-5.409273
912.917000	-2.334992
913.123000	-2.439806
913.328000	-3.540198
913.534000	-2.633868
913.740000	7.064161
913.946000	3.246240
914.151000	-4.361018
914.357000	-6.357508
914.563000	-2.298139
914.768000	-5.883644
914.974000	-7.990661
915.180000	-8.122719
915.385000	-5.918704
915.591000	-8.998164
915.797000	-4.113511
916.002000	0.694754
916.208000	-3.679460
916.414000	-7.467707
916.620000	-7.483678
916.825000	-3.795735
917.031000	-4.248834
917.237000	-10.423811
917.442000	-6.081968
917.648000	-6.647703
917.854000	-8.886511
918.059000	-1.766359
918.265000	-1.070056
918.471000	-5.086707
918.676000	-8.901343
918.882000	-10.202082
919.088000	-7.554474
919.294000	-12.568397
919.499000	-7.424836
919.705000	-0.272014
919.911000	-2.448015
920.116000	-2.167269
920.322000	-9.165737
920.528000	-8.043668
920.733000	-7.405978
920.939000	-8.691628
921.145000	-9.047626
921.350000	-7.831901
921.556000	-5.338806
921.762000	-6.026953
921.968000	-6.683744
922.173000	-7.887510
922.379000	-9.907614
922.585000	-4.874151
922.790000	-7.242257
922.996000	-8.685740
923.202000	-8.857563
923.407000	-7.971256
923.613000	-7.308390
923.819000	-4.835143
924.024000	-5.410167
924.230000	-2.400903
924.436000	-4.117566
924.642000	4.513308
924.847000	-0.174051
925.053000	-7.337269
925.259000	-12.222221
925.464000	-5.432506
925.670000	-5.217985
925.876000	-7.330960
926.081000	-7.939952
926.287000	-5.245256
926.493000	-4.175810
926.698000	-6.365093
926.904000	-3.940231
927.110000	-5.054830
927.316000	-3.980580
927.521000	3.357107
927.727000	-3.407587
927.933000	-6.807127
928.138000	-7.970106
928.344000	-13.182965
928.550000	-6.390753
928.755000	-1.199930
928.961000	-6.219534
929.167000	-7.656630
929.372000	-0.507265
929.578000	-1.535805
929.784000	-7.417890
929.990000	-10.400948
930.195000	-7.791387
930.401000	-6.641781
930.607000	-4.317477
930.812000	-3.137336
931.018000	-6.014297
931.224000	-12.894587
931.429000	-11.203457
931.635000	-13.257143
931.841000	-12.883266
932.046000	-8.039917
932.252000	-3.343552
932.458000	4.484129
932.664000	-1.079667
932.869000	-6.528010
933.075000	-7.965307
933.281000	-8.166963
933.486000	-2.996795
933.692000	-5.616238
933.898000	-11.106370
934.103000	-3.307698
934.309000	-7.078224
934.515000	-5.783886
934.720000	-3.350137
934.926000	1.855649
935.132000	1.095238
935.338000	-2.454885
935.543000	-10.302193
935.749000	-12.862999
935.955000	-15.199656
936.160000	-11.869880
936.366000	-3.377249
936.572000	-2.004603
936.777000	-2.255440
936.983000	1.104081
937.189000	-3.974066
937.394000	-12.190734
937.600000	-2.751603
937.806000	4.836792
938.012000	-3.809084
938.217000	7.174373
938.423000	1.736372
938.629000	-7.898837
938.834000	-17.885545
939.040000	-17.580967
939.246000	-10.750978
939.451000	-11.585111
939.657000	-5.702844
939.863000	-8.645401
940.068000	-3.551913
940.274000	-9.516327
940.480000	-4.483654
940.686000	-2.689299
940.891000	-7.627947
941.097000	19.356217
941.303000	5.631813
941.508000	-12.284251
941.714000	-6.975471
941.920000	-15.624941
942.125000	-5.669220
942.331000	-2.291340
942.537000	2.420440
942.742000	-0.991229
942.948000	-10.640730
943.154000	-14.456389
943.360000	-28.426143
943.565000	-11.392090
943.771000	0.476351
943.977000	3.041330
944.182000	-15.585422
944.388000	-16.059650
944.594000	-1.579373
944.799000	4.369994
945.005000	-6.070117
945.211000	1.710148
945.416000	-0.347307
945.622000	-15.807741
945.828000	-12.881181
946.034000	-1.359257
946.239000	0.503574
946.445000	-6.445457
946.651000	-18.117567
946.856000	-14.347271
947.062000	0.638347
947.268000	0.785672
947.473000	-16.996436
947.679000	-20.130285
947.885000	-7.888936
948.090000	-1.966142
948.296000	14.143899
948.502000	-0.218956
948.708000	-11.706014
948.913000	-15.271924
949.119000	-6.776758
949.325000	-10.954016
949.530000	-24.830462
949.736000	-27.420102
949.942000	-13.397306
950.147000	-15.284180
950.353000	-14.119486
950.559000	-9.542404
950.764000	12.916596
950.970000	5.637860
951.176000	-11.178431
951.382000	-18.339074
951.587000	-8.365246
951.793000	1.180450
951.999000	3.646157
952.204000	-11.672093
952.410000	-28.959030
952.616000	-14.251241
952.821000	-7.055566
953.027000	-16.077367
953.233000	-20.635798
953.438000	-17.121307
953.644000	3.582020
953.850000	-5.814712
954.056000	-12.315953
954.261000	-12.554485
954.467000	-0.568305
954.673000	7.534545
954.878000	-4.796405
955.084000	-8.058148
955.290000	-22.637442
955.495000	-21.883984
955.701000	-19.700236
955.907000	2.580472
956.112000	1.082244
956.318000	6.023179
956.524000	2.420335
956.730000	-13.478839
956.935000	-16.750717
957.141000	-17.650321
957.347000	-6.255716
957.552000	-10.529432
957.758000	-28.354764
957.964000	-36.950120
958.169000	1.130399
958.375000	3.401700
958.581000	-9.553756
958.786000	-24.039846
958.992000	-30.138896
959.198000	-10.125476
959.404000	1.517894
959.609000	-8.573281
959.815000	-16.493943
960.021000	3.364112
960.226000	-1.559357
960.432000	-28.517389
960.638000	-18.509061
960.843000	-12.180013
961.049000	-16.419456
961.255000	-3.668673
961.460000	-18.664924
961.666000	-37.338466
961.872000	-22.293018
962.078000	-18.825574
962.283000	-30.538637
962.489000	-31.271838
962.695000	-20.907721
962.900000	-17.821581
963.106000	-14.076832
963.312000	-18.248477
963.517000	-23.395014
963.723000	-27.126610
963.929000	-2.123455
964.134000	6.963412
964.340000	-17.450188
964.546000	-23.727066
964.752000	-27.842352
964.957000	-30.379037
965.163000	-0.947028
965.369000	-8.208702
965.574000	-10.016835
965.780000	-13.259130
966.000000	-24.490038
966.220000	-15.302867
966.440000	-16.474895
966.661000	-4.500369
966.881000	-21.469981
967.101000	-35.585316
967.321000	-37.166935
967.541000	-16.397850
967.761000	-23.809531
967.981000	-17.703974
968.202000	-16.505741
968.422000	-6.142079
968.642000	-1.501913
968.862000	-1.297410
969.082000	-12.000022
969.302000	-9.691741
969.522000	-18.448645
969.743000	0.352255
969.963000	-18.841151
970.183000	-33.662604
970.403000	-29.946296
970.623000	-25.671812
970.843000	-1.611727
971.063000	-3.902664
971.284000	-25.204786
971.504000	-34.683653
971.724000	-10.936296
971.944000	-27.983418
972.164000	-43.478307
972.384000	-32.239707
972.604000	-45.308669
972.825000	-50.737248
973.045000	-32.879217
973.265000	21.778660
973.485000	6.668159
973.705000	-8.895111
973.925000	-16.253415
974.145000	-56.798940
974.365000	-19.207623
974.586000	-16.744164
974.806000	-34.246986
975.026000	-1.293161
975.246000	-13.601596
975.466000	-27.743126
975.686000	-19.305785
975.906000	-25.050800
976.127000	-50.948822
976.347000	-41.040622
976.567000	-11.204453
976.787000	-10.339913
977.007000	-17.809347
977.227000	-23.222162
977.447000	-30.985479
977.668000	-48.320857
977.888000	-33.034307
978.108000	-36.948192
978.328000	-21.781918
978.548000	4.926497
978.768000	8.579724
978.988000	-4.904388
979.209000	-22.390406
979.429000	-25.228331
979.649000	-15.062438
979.869000	-35.575819
980.089000	-50.675083
980.309000	-54.497434
980.529000	-59.234971
980.750000	-34.481371
980.970000	-47.497370
981.190000	-35.372886
981.410000	-26.285818
981.630000	-34.640492
981.850000	-26.235767
982.070000	-26.861865
982.291000	-61.318061
982.511000	-59.787320
982.731000	-27.319583
982.951000	-43.824241
983.171000	-26.570484
983.391000	-23.861838
983.611000	0.196578
983.832000	-33.140755
984.052000	-59.660458
984.272000	-38.661857
984.492000	-30.787106
984.712000	-40.797488
984.932000	-59.845986
985.152000	-56.384071
985.373000	-37.861070
985.593000	-16.351476
985.813000	-33.261018
986.033000	-47.251193
986.253000	-3.806813
986.473000	4.045766
986.693000	-37.491686
986.914000	-37.862496
987.134000	0.229456
987.354000	-29.646261
987.574000	188.035833
987.794000	94.271944
988.014000	-59.998828
988.234000	-40.002804
988.455000	-13.633160
988.675000	-4.733215
988.895000	-17.788610
989.115000	-40.451708
989.335000	-20.555876
989.555000	-10.892742
989.775000	-55.615126
989.995000	-48.772702
990.216000	-42.076713
990.436000	-41.256301
990.656000	1.921011
990.876000	-37.663243
991.096000	-37.520175
991.316000	4.069807
991.536000	-29.976279
991.757000	-50.345654
991.977000	-85.359902
992.197000	-24.640630
992.417000	-34.396002
992.637000	-86.589879
992.857000	-93.682909
993.077000	-79.933340
993.298000	-47.825786
993.518000	-45.355916
993.738000	-89.444633
993.958000	-52.651380
994.178000	-63.487421
994.398000	-60.398323
994.618000	-94.634711
994.839000	-141.840042
995.059000	-35.651744
995.279000	23.754098
995.499000	-25.305347
995.719000	-18.369375
995.939000	-41.168296
996.159000	-44.680657
996.380000	-38.453646
996.600000	-83.673149
996.820000	-44.767683
997.040000	10.564779
997.260000	-61.543508
997.480000	-50.436899
997.700000	-101.731918
997.921000	-55.660952
998.141000	26.101308
998.361000	-18.192273
998.581000	-59.313128
998.801000	-99.989397
999.021000	-90.584467
999.241000	-60.989279
999.462000	-75.187390
999.682000	-129.245294
999.902000	-81.656505
1000.122000	-92.157670
1000.342000	-161.568605
1000.562000	-90.794422
1000.782000	-58.003843
1001.003000	-1052.293839
