Wavelength	Irradiance
(nm)	(mW/cm2/nm)

294.396000	0.000000
294.577000	0.000000
294.757000	0.000000
294.938000	0.000000
295.118000	0.000000
295.299000	0.000000
295.479000	-0.000000
295.660000	-0.000000
295.840000	-0.000000
296.021000	-0.000000
296.202000	-0.000000
296.382000	-0.000000
296.563000	-0.000000
296.743000	-0.000000
296.924000	0.000000
297.104000	-0.000000
297.285000	-0.000000
297.465000	-0.000000
297.646000	-0.000000
297.826000	-0.000000
298.007000	0.000000
298.187000	0.000000
298.368000	-0.000000
298.548000	0.000000
298.729000	0.000000
298.909000	-0.000000
299.090000	-0.000000
299.270000	-0.000000
299.451000	-0.000000
299.631000	-0.000000
299.812000	-0.000000
299.992000	0.000000
300.173000	0.000000
300.353000	-0.000000
300.534000	0.000000
300.714000	0.000000
300.895000	0.000000
301.075000	-0.000000
301.256000	0.000000
301.436000	0.000000
301.617000	0.000000
301.797000	-0.000000
301.978000	0.000000
302.159000	0.000000
302.339000	0.000000
302.520000	-0.000000
302.700000	-0.000000
302.881000	0.000000
303.061000	0.000000
303.242000	0.000000
303.422000	0.000000
303.603000	-0.000000
303.783000	-0.000000
303.964000	-0.000000
304.144000	-0.000000
304.325000	-0.000000
304.505000	0.000000
304.686000	0.000000
304.866000	0.000000
305.047000	-0.000000
305.227000	-0.000000
305.408000	-0.000000
305.588000	-0.000000
305.769000	-0.000000
305.949000	-0.000000
306.130000	-0.000000
306.310000	-0.000000
306.491000	-0.000000
306.671000	0.000000
306.852000	-0.000000
307.032000	-0.000000
307.213000	-0.000000
307.393000	-0.000000
307.574000	0.000000
307.755000	0.000000
307.935000	0.000000
308.116000	-0.000000
308.296000	-0.000000
308.477000	0.000000
308.657000	0.000000
308.838000	0.000000
309.018000	0.000000
309.199000	-0.000000
309.379000	-0.000000
309.560000	0.000000
309.740000	-0.000000
309.921000	0.000000
310.101000	0.000000
310.282000	-0.000000
310.462000	-0.000000
310.643000	-0.000000
310.823000	-0.000000
311.004000	-0.000000
311.184000	-0.000000
311.365000	0.000000
311.545000	0.000000
311.726000	0.000000
311.906000	0.000000
312.087000	0.000000
312.267000	-0.000000
312.448000	-0.000000
312.628000	-0.000000
312.809000	-0.000000
312.989000	-0.000000
313.170000	-0.000000
313.344000	-0.000000
313.518000	-0.000000
313.691000	-0.000000
313.865000	-0.000000
314.039000	-0.000000
314.213000	-0.000000
314.387000	-0.000000
314.560000	-0.000000
314.734000	-0.000000
314.908000	-0.000000
315.082000	-0.000000
315.255000	0.000000
315.429000	0.000000
315.603000	0.000000
315.777000	-0.000000
315.951000	0.000000
316.124000	-0.000000
316.298000	-0.000000
316.472000	-0.000000
316.646000	-0.000000
316.820000	-0.000000
316.993000	-0.000000
317.167000	-0.000000
317.341000	-0.000000
317.515000	-0.000000
317.688000	-0.000000
317.862000	-0.000000
318.036000	-0.000000
318.210000	-0.000000
318.384000	-0.000000
318.557000	-0.000000
318.731000	-0.000000
318.905000	0.000000
319.079000	0.000000
319.253000	-0.000000
319.426000	0.000000
319.600000	0.000000
319.774000	-0.000000
319.948000	-0.000000
320.122000	0.000000
320.295000	0.000000
320.469000	-0.000000
320.643000	-0.000000
320.817000	-0.000000
320.990000	-0.000000
321.164000	-0.000000
321.338000	-0.000000
321.512000	-0.000000
321.686000	-0.000000
321.859000	-0.000000
322.033000	0.000000
322.207000	-0.000000
322.381000	-0.000000
322.555000	0.000000
322.728000	0.000000
322.902000	-0.000000
323.076000	-0.000000
323.250000	-0.000000
323.423000	-0.000000
323.597000	-0.000000
323.771000	-0.000000
323.945000	-0.000000
324.119000	-0.000000
324.292000	0.000000
324.466000	-0.000000
324.640000	0.000000
324.814000	0.000000
324.988000	-0.000000
325.161000	-0.000000
325.335000	-0.000000
325.509000	-0.000000
325.683000	-0.000000
325.856000	-0.000000
326.030000	-0.000000
326.204000	-0.000000
326.378000	-0.000000
326.552000	-0.000000
326.725000	-0.000000
326.899000	-0.000000
327.073000	-0.000000
327.247000	-0.000000
327.421000	0.000000
327.594000	0.000000
327.768000	-0.000000
327.942000	-0.000000
328.116000	0.000000
328.289000	0.000000
328.463000	0.000000
328.637000	0.000000
328.811000	-0.000000
328.985000	-0.000000
329.158000	-0.000000
329.332000	-0.000000
329.506000	0.000000
329.680000	-0.000000
329.854000	-0.000000
330.027000	0.000000
330.201000	0.000000
330.375000	0.000000
330.549000	0.000000
330.723000	-0.000000
330.896000	-0.000000
331.070000	-0.000000
331.244000	-0.000000
331.418000	-0.000000
331.591000	-0.000000
331.765000	-0.000000
331.939000	-0.000000
332.113000	-0.000000
332.287000	-0.000000
332.460000	0.000000
332.634000	0.000000
332.808000	-0.000000
332.982000	-0.000000
333.156000	-0.000000
333.329000	-0.000000
333.503000	-0.000000
333.677000	-0.000000
333.851000	-0.000000
334.024000	0.000000
334.198000	-0.000000
334.372000	-0.000000
334.546000	-0.000000
334.720000	-0.000000
334.893000	-0.000000
335.067000	-0.000000
335.241000	-0.000000
335.415000	-0.000000
335.589000	-0.000000
335.762000	-0.000000
335.936000	-0.000000
336.110000	-0.000000
336.284000	-0.000000
336.458000	-0.000000
336.631000	-0.000000
336.805000	-0.000000
336.979000	-0.000000
337.153000	-0.000000
337.326000	-0.000000
337.500000	-0.000000
337.674000	-0.000000
337.848000	-0.000000
338.022000	-0.000000
338.195000	-0.000000
338.369000	-0.000000
338.543000	-0.000000
338.717000	-0.000000
338.891000	0.000000
339.064000	0.000000
339.238000	-0.000000
339.412000	-0.000000
339.586000	-0.000000
339.759000	-0.000000
339.933000	-0.000000
340.107000	0.000000
340.281000	-0.000000
340.455000	-0.000000
340.628000	-0.000000
340.802000	-0.000000
340.976000	-0.000000
341.150000	-0.000000
341.324000	-0.000000
341.497000	-0.000000
341.671000	-0.000000
341.845000	-0.000000
342.019000	-0.000000
342.192000	-0.000000
342.366000	-0.000000
342.540000	-0.000000
342.714000	-0.000000
342.888000	-0.000000
343.061000	-0.000000
343.235000	-0.000000
343.409000	-0.000000
343.583000	-0.000000
343.757000	-0.000000
343.930000	-0.000000
344.104000	-0.000000
344.278000	0.000000
344.452000	0.000000
344.626000	-0.000000
344.799000	-0.000000
344.973000	-0.000000
345.147000	-0.000000
345.321000	-0.000000
345.494000	-0.000000
345.668000	0.000000
345.842000	0.000000
346.016000	-0.000000
346.190000	0.000000
346.363000	-0.000000
346.537000	-0.000000
346.711000	-0.000000
346.885000	-0.000000
347.059000	-0.000000
347.232000	0.000000
347.406000	0.000000
347.580000	-0.000000
347.754000	-0.000000
347.927000	0.000000
348.101000	0.000000
348.275000	-0.000000
348.449000	-0.000000
348.623000	-0.000000
348.796000	0.000000
348.970000	0.000000
349.144000	-0.000000
349.318000	-0.000000
349.492000	-0.000000
349.665000	-0.000000
349.839000	-0.000000
350.013000	-0.000000
350.187000	-0.000000
350.361000	-0.000000
350.534000	-0.000000
350.708000	-0.000000
350.882000	-0.000000
351.056000	0.000000
351.229000	-0.000000
351.403000	-0.000000
351.577000	-0.000000
351.751000	-0.000000
351.925000	-0.000000
352.098000	-0.000000
352.272000	-0.000000
352.446000	-0.000000
352.620000	-0.000000
352.794000	-0.000000
352.967000	-0.000000
353.141000	0.000000
353.315000	0.000000
353.489000	-0.000000
353.662000	-0.000000
353.836000	-0.000000
354.010000	-0.000000
354.184000	-0.000000
354.358000	-0.000000
354.531000	-0.000000
354.705000	-0.000000
354.879000	-0.000000
355.053000	-0.000000
355.227000	0.000000
355.400000	-0.000000
355.574000	0.000000
355.748000	0.000000
355.922000	-0.000000
356.095000	-0.000000
356.269000	-0.000000
356.443000	-0.000000
356.617000	-0.000000
356.791000	-0.000000
356.964000	-0.000000
357.138000	-0.000000
357.312000	-0.000000
357.486000	-0.000000
357.660000	-0.000000
357.833000	-0.000000
358.007000	-0.000000
358.181000	-0.000000
358.355000	-0.000000
358.529000	-0.000000
358.702000	-0.000000
358.876000	-0.000000
359.050000	-0.000000
359.224000	-0.000000
359.397000	0.000000
359.571000	-0.000000
359.745000	-0.000000
359.919000	-0.000000
360.093000	-0.098278
360.266000	0.016667
360.440000	0.107446
360.614000	0.109893
360.788000	-0.002904
360.962000	-0.216232
361.135000	-0.139082
361.309000	-0.197383
361.483000	-0.344481
361.657000	-0.298668
361.830000	-0.261660
362.004000	-0.000696
362.178000	-0.303665
362.352000	-0.187927
362.526000	-0.043129
362.699000	-0.057242
362.873000	-0.361463
363.047000	-0.356777
363.221000	-0.348142
363.395000	-0.188898
363.568000	-0.194696
363.742000	-0.193324
363.916000	-0.220015
364.090000	-0.341019
364.263000	-0.249625
364.437000	-0.367640
364.611000	-0.080850
364.785000	-0.028757
364.959000	-0.236924
365.132000	-0.237382
365.306000	-0.253618
365.480000	-0.073454
365.656000	-0.195942
365.831000	-0.213784
366.007000	-0.209488
366.183000	-0.130468
366.358000	-0.298481
366.534000	-0.218145
366.710000	-0.346207
366.886000	-0.262029
367.061000	-0.083979
367.237000	-0.013680
367.413000	-0.119697
367.588000	-0.267625
367.764000	-0.330952
367.940000	-0.365653
368.115000	-0.291494
368.291000	-0.347004
368.467000	-0.198078
368.643000	0.127571
368.818000	-0.223180
368.994000	-0.315972
369.170000	-0.259817
369.345000	-0.220839
369.521000	-0.220557
369.697000	-0.180535
369.872000	-0.283115
370.048000	-0.341117
370.224000	-0.314688
370.399000	-0.536209
370.575000	-0.355041
370.751000	-0.388715
370.927000	-0.370409
371.102000	-0.340623
371.278000	-0.371642
371.454000	-0.285163
371.629000	0.026272
371.805000	-0.027870
371.981000	0.092270
372.156000	0.273784
372.332000	0.057750
372.508000	0.015435
372.683000	-0.057335
372.859000	-0.163470
373.035000	-0.178926
373.211000	0.210881
373.386000	0.032092
373.562000	-0.361550
373.738000	-0.490228
373.913000	-0.623440
374.089000	-0.437025
374.265000	-0.028195
374.440000	-0.064347
374.616000	-0.022872
374.792000	-0.239402
374.968000	0.136117
375.143000	-0.049458
375.319000	-0.302074
375.495000	-0.346597
375.670000	-0.189320
375.846000	-0.128467
376.022000	-0.297220
376.197000	-0.224006
376.373000	-0.396931
376.549000	-0.422242
376.724000	-0.472954
376.900000	-0.346911
377.076000	-0.182455
377.252000	0.096107
377.427000	0.186314
377.603000	-0.163529
377.779000	-0.203619
377.954000	-0.363466
378.130000	-0.168585
378.306000	-0.156985
378.481000	-0.216979
378.657000	-0.278826
378.833000	-0.309780
379.009000	-0.125601
379.184000	0.075865
379.360000	-0.055811
379.536000	-0.064200
379.711000	-0.118984
379.887000	-0.246908
380.063000	-0.294035
380.238000	-0.304014
380.414000	-0.063707
380.590000	-0.313153
380.765000	-0.259406
380.941000	-0.068628
381.117000	-0.088933
381.293000	-0.179262
381.468000	-0.302603
381.644000	-0.208466
381.820000	-0.125500
381.995000	-0.042768
382.171000	0.241740
382.347000	0.228283
382.522000	-0.220718
382.698000	0.046110
382.874000	0.059046
383.050000	-0.325469
383.225000	0.080256
383.401000	0.251001
383.577000	-0.114373
383.752000	-0.202833
383.928000	-0.168777
384.104000	-0.112070
384.279000	-0.215569
384.455000	-0.137334
384.631000	-0.155597
384.806000	-0.360439
384.982000	-0.132529
385.158000	-0.193604
385.334000	-0.108536
385.509000	-0.142483
385.685000	-0.453545
385.861000	-0.338426
386.036000	-0.475735
386.212000	-0.605677
386.388000	-0.313033
386.563000	-0.235798
386.739000	-0.266690
386.915000	-0.528531
387.090000	-0.203444
387.266000	0.017348
387.442000	-0.000776
387.618000	-0.141919
387.793000	-0.324329
387.969000	-0.448343
388.145000	-0.387725
388.320000	-0.338369
388.496000	-0.280563
388.672000	-0.514097
388.847000	-0.141236
389.023000	-0.147286
389.199000	-0.437447
389.375000	-0.229996
389.550000	-0.352109
389.726000	-0.180682
389.902000	-0.361005
390.077000	-0.158604
390.253000	-0.166442
390.429000	-0.341761
390.604000	-0.204452
390.780000	-0.188235
390.956000	-0.244599
391.131000	-0.219041
391.307000	0.084615
391.483000	-0.111187
391.659000	-0.302926
391.834000	-0.128623
392.010000	-0.233612
392.186000	-0.314064
392.361000	-0.254456
392.537000	-0.423663
392.713000	0.100508
392.888000	0.305929
393.064000	0.024076
393.240000	-0.176521
393.416000	-0.293541
393.591000	-0.377445
393.767000	-0.502952
393.943000	-0.341976
394.118000	0.040770
394.294000	0.213963
394.470000	-0.003163
394.645000	0.081747
394.821000	0.348157
394.997000	-0.066191
395.172000	-0.167137
395.348000	-0.261711
395.524000	-0.504532
395.700000	-0.319434
395.875000	-0.110846
396.051000	-0.132220
396.227000	-0.181382
396.402000	-0.269522
396.578000	-0.148064
396.754000	-0.303409
396.929000	-0.280529
397.105000	-0.034148
397.281000	-0.115303
397.457000	-0.233981
397.632000	-0.217384
397.808000	-0.451047
397.984000	-0.583102
398.159000	-0.510308
398.335000	-0.307220
398.511000	0.129729
398.686000	-0.097846
398.862000	-0.327794
399.038000	-0.373891
399.213000	-0.178240
399.389000	-0.466621
399.565000	-0.181384
399.741000	0.088364
399.916000	-0.000710
400.092000	0.187690
400.268000	-0.173533
400.443000	-0.336315
400.619000	0.079499
400.795000	-0.031490
400.970000	-0.229664
401.146000	-0.298582
401.322000	0.037073
401.497000	0.442899
401.673000	0.143967
401.849000	-0.218189
402.025000	-0.007768
402.200000	-0.200242
402.376000	-0.296359
402.552000	0.192499
402.727000	-0.007739
402.903000	-0.368115
403.079000	-0.267666
403.254000	0.064923
403.430000	0.055177
403.606000	-0.082320
403.782000	-0.140444
403.957000	-0.337041
404.133000	-0.471391
404.309000	-0.274601
404.484000	-0.061349
404.660000	-0.049824
404.841000	-0.183269
405.023000	0.010941
405.204000	-0.084749
405.385000	-0.375965
405.566000	-0.357930
405.748000	-0.227190
405.929000	0.041966
406.110000	-0.005390
406.292000	-0.151507
406.473000	-0.135600
406.654000	-0.324228
406.835000	-0.129201
407.017000	-0.154316
407.198000	-0.166404
407.379000	-0.126926
407.560000	-0.127323
407.742000	-0.181678
407.923000	-0.138356
408.104000	-0.286311
408.286000	-0.125833
408.467000	-0.093159
408.648000	-0.343874
408.829000	-0.363460
409.011000	-0.225104
409.192000	-0.414106
409.373000	-0.176970
409.555000	-0.037813
409.736000	-0.060602
409.917000	-0.164903
410.098000	-0.166109
410.280000	-0.080515
410.461000	-0.041666
410.642000	-0.037181
410.823000	0.170330
411.005000	0.106620
411.186000	-0.135478
411.367000	-0.277364
411.549000	-0.274878
411.730000	0.040432
411.911000	0.140703
412.092000	-0.091628
412.274000	-0.194737
412.455000	-0.095648
412.636000	-0.023311
412.818000	-0.239627
412.999000	-0.298460
413.180000	-0.214666
413.361000	-0.158943
413.543000	-0.216563
413.724000	-0.269843
413.905000	-0.281067
414.087000	-0.324364
414.268000	-0.298577
414.449000	-0.261270
414.630000	-0.300298
414.812000	-0.422420
414.993000	-0.060396
415.174000	0.076804
415.355000	-0.125383
415.537000	-0.364285
415.718000	-0.060592
415.899000	-0.164415
416.081000	-0.331225
416.262000	-0.044644
416.443000	-0.154218
416.624000	-0.134164
416.806000	-0.040129
416.987000	0.080864
417.168000	0.001533
417.350000	-0.178019
417.531000	-0.231361
417.712000	-0.166053
417.893000	0.090719
418.075000	0.161903
418.256000	-0.070209
418.437000	0.032081
418.618000	0.131995
418.800000	0.181724
418.981000	-0.048176
419.162000	0.007942
419.344000	0.245652
419.525000	0.131853
419.706000	0.049364
419.887000	0.238077
420.069000	0.393920
420.250000	0.200917
420.431000	0.155025
420.613000	0.114484
420.794000	-0.096418
420.975000	0.270756
421.156000	0.122367
421.338000	0.072670
421.519000	0.046784
421.700000	-0.061194
421.882000	-0.009296
422.063000	0.180512
422.244000	0.666686
422.425000	0.455991
422.607000	0.103818
422.788000	0.105503
422.969000	0.014414
423.150000	-0.013570
423.332000	-0.043598
423.513000	0.232045
423.694000	0.218103
423.876000	0.232557
424.057000	0.349213
424.238000	0.428563
424.419000	0.490684
424.601000	0.371066
424.782000	0.418466
424.963000	0.531286
425.145000	0.392373
425.326000	0.455194
425.507000	0.536109
425.688000	0.493518
425.870000	0.324329
426.051000	0.165036
426.232000	0.289811
426.413000	0.369426
426.595000	0.361033
426.776000	0.319982
426.957000	0.409969
427.139000	0.487859
427.320000	0.576477
427.501000	0.663352
427.682000	0.621242
427.864000	0.707215
428.045000	0.940870
428.226000	0.889933
428.408000	0.548382
428.589000	0.660577
428.770000	0.736692
428.951000	0.688092
429.133000	0.501494
429.314000	0.757935
429.495000	0.787455
429.677000	0.768811
429.858000	0.866197
430.039000	0.966031
430.220000	1.034953
430.402000	1.123815
430.583000	0.883852
430.764000	0.888886
430.945000	1.137000
431.127000	1.273532
431.308000	1.127941
431.489000	1.353489
431.671000	1.401792
431.852000	1.330834
432.033000	1.246029
432.214000	1.319894
432.396000	1.466506
432.577000	1.384994
432.758000	1.242090
432.940000	1.380820
433.121000	1.536222
433.302000	1.602969
433.483000	1.753721
433.665000	1.879139
433.846000	1.845016
434.027000	1.781060
434.208000	1.713832
434.390000	1.781086
434.571000	2.210642
434.752000	2.670040
434.934000	2.535069
435.115000	2.514360
435.296000	2.673677
435.477000	2.533130
435.659000	2.293109
435.840000	2.415364
436.026000	2.461563
436.211000	2.385080
436.397000	2.192284
436.582000	2.355732
436.768000	2.627182
436.953000	2.576756
437.139000	2.650432
437.325000	2.995029
437.510000	3.012815
437.696000	3.214748
437.881000	3.290283
438.067000	3.002943
438.252000	3.111465
438.438000	3.145334
438.624000	3.225633
438.809000	3.410042
438.995000	3.551577
439.180000	3.532671
439.366000	3.596485
439.551000	3.740367
439.737000	3.859410
439.923000	3.981335
440.108000	3.908830
440.294000	4.070444
440.479000	4.295787
440.665000	4.429950
440.850000	4.471372
441.036000	4.594450
441.222000	4.649079
441.407000	4.633215
441.593000	4.847932
441.778000	5.086364
441.964000	5.240228
442.149000	4.949268
442.335000	5.036103
442.521000	5.267191
442.706000	5.563925
442.892000	5.555754
443.077000	5.614651
443.263000	5.784269
443.448000	5.912285
443.634000	5.984982
443.820000	6.387508
444.005000	6.379575
444.191000	6.303833
444.376000	6.445705
444.562000	6.897082
444.747000	7.072452
444.933000	7.101078
445.119000	7.140255
445.304000	7.138202
445.490000	7.421634
445.675000	7.582715
445.861000	7.589786
446.046000	7.780840
446.232000	7.992413
446.418000	8.209292
446.603000	8.338978
446.789000	8.531256
446.974000	8.663571
447.160000	8.602605
447.345000	8.781654
447.531000	8.922066
447.717000	9.326826
447.902000	9.582686
448.088000	9.799867
448.273000	9.784643
448.459000	9.941574
448.644000	10.042893
448.830000	10.132293
449.016000	10.221950
449.201000	10.488422
449.387000	10.875076
449.572000	11.058601
449.758000	11.090134
449.943000	11.287114
450.129000	11.354409
450.315000	11.524156
450.500000	11.734635
450.686000	12.032528
450.871000	12.095718
451.057000	12.426654
451.243000	12.647696
451.428000	12.872799
451.614000	13.026025
451.799000	13.168811
451.985000	13.539246
452.170000	13.814196
452.356000	13.749327
452.542000	13.967560
452.727000	14.190590
452.913000	14.292759
453.098000	14.661253
453.284000	14.858862
453.469000	14.903927
453.655000	15.251353
453.841000	15.254790
454.026000	15.235310
454.212000	15.313167
454.397000	15.504521
454.583000	15.546254
454.768000	15.519830
454.954000	15.900766
455.140000	16.040078
455.325000	15.933098
455.511000	15.945234
455.696000	16.011999
455.882000	16.292633
456.067000	16.627929
456.253000	16.442646
456.439000	16.407639
456.624000	16.366280
456.810000	16.337450
456.995000	16.514374
457.181000	16.540825
457.366000	16.667508
457.552000	16.508343
457.738000	16.591243
457.923000	16.558127
458.109000	16.778070
458.294000	16.614931
458.480000	16.481783
458.665000	16.377550
458.851000	16.254463
459.037000	15.816054
459.222000	15.956748
459.408000	15.928875
459.593000	15.820346
459.779000	15.776703
459.964000	15.799215
460.150000	15.916921
460.336000	15.688179
460.521000	15.148823
460.707000	14.810750
460.892000	14.596133
461.078000	14.806162
461.263000	14.604727
461.449000	14.343752
461.635000	14.196310
461.820000	13.968469
462.006000	13.955608
462.191000	13.751200
462.377000	13.168692
462.562000	13.391435
462.748000	13.374620
462.934000	12.752858
463.119000	12.317712
463.305000	12.304379
463.490000	11.907405
463.676000	11.910524
463.861000	11.732196
464.047000	11.473900
464.233000	11.310618
464.418000	11.116032
464.604000	10.764858
464.789000	10.818300
464.975000	10.667976
465.160000	10.323995
465.346000	10.111202
465.532000	9.883293
465.717000	9.693996
465.903000	9.760837
466.088000	9.550840
466.274000	9.195094
466.459000	9.048677
466.645000	9.255285
466.831000	8.992698
467.016000	8.821918
467.202000	8.586360
467.387000	8.357666
467.573000	7.999391
467.758000	8.112377
467.944000	7.919136
468.130000	7.777800
468.315000	7.740558
468.501000	7.732798
468.686000	7.511334
468.872000	7.358962
469.057000	7.269668
469.243000	7.033995
469.429000	6.893544
469.614000	6.676351
469.800000	6.520278
469.985000	6.626249
470.171000	6.563931
470.356000	6.378411
470.542000	6.420982
470.728000	6.270895
470.913000	6.073195
471.099000	6.100051
471.284000	6.016971
471.470000	5.923714
471.655000	5.802854
471.841000	5.618798
472.027000	5.464767
472.212000	5.666988
472.398000	5.677403
472.583000	5.430917
472.769000	5.330980
472.954000	5.237379
473.140000	5.064697
473.326000	4.892935
473.511000	5.126204
473.697000	5.075041
473.882000	4.861321
474.068000	4.757150
474.253000	4.550150
474.439000	4.547545
474.625000	4.565417
474.810000	4.512995
474.996000	4.452392
475.181000	4.231985
475.367000	4.285355
475.552000	4.414904
475.738000	4.006212
475.924000	4.010309
476.109000	4.003786
476.295000	3.786519
476.480000	3.815003
476.666000	3.720842
476.851000	3.658346
477.037000	3.669265
477.223000	3.451774
477.408000	3.365904
477.594000	3.243257
477.779000	3.305667
477.965000	3.203471
478.151000	3.055194
478.336000	3.143380
478.522000	2.960632
478.707000	2.891546
478.893000	2.961526
479.078000	2.751701
479.264000	2.681652
479.450000	2.684375
479.635000	2.785946
479.821000	2.611333
480.006000	2.596186
480.192000	2.585507
480.377000	2.558182
480.563000	2.516171
480.749000	2.259220
480.934000	2.241995
481.120000	2.320654
481.305000	2.335457
481.491000	2.280866
481.676000	2.234936
481.862000	2.228540
482.048000	2.017804
482.233000	2.056420
482.419000	2.021615
482.604000	1.906843
482.790000	1.867389
482.975000	1.841115
483.161000	1.945642
483.347000	1.881855
483.532000	1.780552
483.718000	1.574177
483.903000	1.545083
484.089000	1.577518
484.274000	1.471639
484.460000	1.553528
484.646000	1.543789
484.831000	1.437926
485.017000	1.484275
485.202000	1.453620
485.388000	1.699761
485.573000	1.688247
485.759000	1.468205
485.945000	1.548756
486.130000	1.349573
486.316000	1.359916
486.501000	1.402036
486.687000	1.189732
486.872000	1.132061
487.058000	1.294481
487.244000	1.305087
487.429000	1.089495
487.615000	1.231467
487.800000	1.317614
487.986000	1.124320
488.171000	1.200129
488.357000	1.137703
488.543000	1.130328
488.728000	1.205030
488.914000	1.123345
489.099000	0.990152
489.285000	0.958762
489.470000	1.098121
489.656000	1.116673
489.842000	1.033701
490.027000	1.096212
490.213000	0.920033
490.398000	0.666702
490.584000	0.946342
490.769000	0.903084
490.955000	0.944708
491.141000	0.941027
491.326000	0.864586
491.512000	0.996109
491.697000	0.895727
491.883000	0.712019
492.068000	0.620058
492.254000	0.673629
492.440000	0.763797
492.625000	0.683901
492.811000	0.646155
492.996000	0.755786
493.182000	0.704590
493.367000	0.485637
493.553000	0.427358
493.739000	0.516568
493.924000	0.656036
494.110000	0.633508
494.295000	0.526502
494.481000	0.615088
494.666000	0.587239
494.852000	0.725933
495.038000	0.550652
495.223000	0.410353
495.409000	0.493864
495.594000	0.493114
495.780000	0.496519
495.965000	0.398462
496.151000	0.566737
496.337000	0.656752
496.522000	0.420952
496.708000	0.450573
496.893000	0.555108
497.079000	0.402711
497.264000	0.370867
497.450000	0.392772
497.636000	0.502029
497.821000	0.326936
498.007000	0.525565
498.192000	0.596048
498.378000	0.428645
498.563000	0.315249
498.749000	0.374730
498.935000	0.386600
499.120000	0.453893
499.306000	0.277509
499.491000	0.231845
499.677000	0.355634
499.862000	0.412931
500.048000	0.422999
500.234000	0.314778
500.419000	0.285793
500.605000	0.441761
500.790000	0.335503
500.976000	0.209851
501.161000	0.119460
501.347000	0.289215
501.533000	0.359530
501.718000	0.261195
501.904000	0.213408
502.089000	0.343494
502.275000	0.372231
502.460000	0.238975
502.646000	0.262600
502.832000	0.293890
503.017000	0.285120
503.203000	0.082358
503.388000	0.007363
503.574000	0.210459
503.759000	0.271320
503.945000	0.307770
504.131000	0.220148
504.316000	0.162157
504.502000	0.241998
504.687000	0.220685
504.873000	0.035624
505.058000	0.026205
505.244000	0.013648
505.430000	0.040394
505.615000	0.136443
505.801000	0.183987
505.986000	0.043461
506.172000	0.129833
506.358000	0.167893
506.543000	0.128486
506.729000	0.254451
506.914000	0.195082
507.100000	0.358741
507.285000	0.137430
507.471000	0.016942
507.657000	0.300325
507.842000	0.148138
508.028000	-0.021041
508.213000	0.029658
508.399000	0.075809
508.584000	0.153836
508.770000	0.047165
508.956000	-0.002066
509.141000	0.067803
509.327000	0.153865
509.512000	0.081938
509.698000	0.082062
509.883000	0.152326
510.069000	0.071341
510.255000	0.047422
510.440000	0.097039
510.626000	0.029880
510.811000	0.001120
510.997000	0.106753
511.182000	0.332026
511.368000	0.212363
511.554000	-0.104562
511.739000	-0.051687
511.925000	0.105201
512.110000	0.121099
512.296000	0.276964
512.481000	0.254202
512.667000	0.103747
512.853000	-0.058217
513.038000	0.030033
513.224000	-0.006908
513.409000	-0.093645
513.595000	0.013997
513.780000	-0.127517
513.966000	-0.053418
514.152000	-0.061447
514.337000	-0.125671
514.523000	-0.087159
514.708000	-0.011730
514.894000	0.060743
515.079000	-0.061469
515.265000	-0.032692
515.451000	-0.008539
515.636000	-0.092249
515.822000	0.041427
516.007000	-0.079481
516.193000	0.049446
516.378000	0.131812
516.564000	0.038181
516.750000	0.039806
516.935000	0.115608
517.121000	0.102690
517.306000	0.149576
517.492000	0.107786
517.677000	-0.126388
517.863000	-0.157086
518.049000	0.007590
518.234000	-0.056965
518.420000	0.039909
518.605000	0.206259
518.791000	0.173869
518.976000	0.027067
519.162000	-0.078140
519.348000	0.025405
519.533000	0.028600
519.719000	0.245366
519.904000	0.125817
520.090000	0.091626
520.275000	0.287353
520.461000	0.227972
520.647000	0.005994
520.832000	-0.185663
521.018000	-0.092834
521.203000	-0.006944
521.389000	-0.205419
521.574000	-0.105480
521.760000	0.048038
521.946000	0.030338
522.131000	-0.076804
522.317000	-0.092898
522.502000	-0.133373
522.688000	-0.018321
522.873000	-0.041057
523.059000	-0.052454
523.245000	-0.028068
523.430000	-0.128824
523.616000	-0.102803
523.801000	-0.184249
523.987000	-0.114527
524.172000	0.012543
524.358000	0.046771
524.544000	0.009274
524.729000	0.132572
524.915000	0.165420
525.100000	0.004390
525.286000	0.053246
525.471000	0.063194
525.657000	0.063259
525.843000	-0.152687
526.028000	-0.026694
526.214000	-0.056151
526.399000	-0.143328
526.585000	-0.217253
526.770000	-0.246782
526.956000	-0.094318
527.142000	-0.156839
527.327000	-0.008732
527.513000	-0.134118
527.698000	-0.134268
527.884000	-0.056853
528.069000	-0.079898
528.255000	-0.008779
528.441000	-0.121557
528.626000	-0.083671
528.812000	0.172360
528.997000	-0.007162
529.183000	-0.135344
529.368000	-0.050676
529.554000	-0.052487
529.740000	-0.067770
529.925000	-0.119926
530.111000	-0.106588
530.296000	-0.003879
530.482000	0.072184
530.667000	-0.041095
530.853000	0.019850
531.039000	-0.019213
531.224000	-0.002222
531.410000	0.069552
531.595000	0.035407
531.781000	0.097000
531.967000	-0.074490
532.152000	0.059881
532.338000	-0.042018
532.523000	-0.201478
532.709000	-0.224827
532.894000	-0.093134
533.080000	-0.039008
533.266000	-0.173830
533.451000	-0.214888
533.637000	-0.145076
533.822000	0.061412
534.008000	-0.124307
534.193000	-0.160264
534.379000	-0.027252
534.565000	-0.059552
534.750000	-0.108238
534.936000	0.109370
535.121000	-0.000542
535.307000	0.057364
535.492000	0.039331
535.678000	-0.164647
535.864000	-0.044526
536.049000	0.237185
536.235000	0.012361
536.420000	-0.007970
536.606000	-0.058178
536.791000	-0.178188
536.977000	-0.171136
537.163000	0.067177
537.348000	0.065678
537.534000	0.094699
537.719000	-0.082710
537.905000	-0.240276
538.090000	-0.012129
538.276000	0.123068
538.462000	0.119592
538.647000	0.106453
538.833000	-0.002544
539.018000	0.103604
539.204000	0.082036
539.389000	-0.081805
539.575000	0.165928
539.761000	0.144841
539.946000	-0.088676
540.132000	0.027530
540.317000	-0.091292
540.503000	-0.024841
540.688000	0.027843
540.874000	0.303129
541.060000	0.439565
541.245000	0.292166
541.431000	0.118584
541.616000	0.203402
541.802000	0.141699
541.987000	0.260008
542.173000	0.271382
542.359000	0.138658
542.544000	0.294141
542.730000	0.153596
542.915000	0.120541
543.101000	0.287836
543.286000	0.131335
543.472000	-0.009063
543.658000	0.130142
543.843000	0.132577
544.029000	0.289975
544.214000	0.203264
544.400000	-0.087819
544.585000	0.084602
544.771000	0.157571
544.957000	0.378603
545.142000	0.507579
545.328000	0.513214
545.513000	0.555098
545.699000	0.496919
545.884000	0.304589
546.070000	0.239755
546.261000	0.208023
546.451000	0.029872
546.642000	-0.199418
546.833000	-0.075048
547.023000	-0.158155
547.214000	-0.141224
547.405000	0.027888
547.595000	0.271986
547.786000	0.217853
547.977000	0.036961
548.167000	-0.126925
548.358000	-0.109687
548.549000	0.267298
548.740000	0.140013
548.930000	-0.230756
549.121000	-0.161971
549.312000	-0.209816
549.502000	-0.273442
549.693000	-0.131318
549.884000	-0.038979
550.074000	0.067154
550.265000	-0.159330
550.456000	-0.075656
550.646000	0.049418
550.837000	-0.007518
551.028000	-0.117024
551.218000	0.006158
551.409000	-0.122086
551.600000	-0.110728
551.790000	0.015420
551.981000	-0.240039
552.172000	-0.198984
552.362000	0.151420
552.553000	0.226315
552.744000	0.043288
552.934000	-0.077152
553.125000	-0.158526
553.316000	-0.142369
553.506000	0.257632
553.697000	0.041346
553.888000	-0.014691
554.079000	0.218666
554.269000	0.172165
554.460000	-0.169321
554.651000	-0.237481
554.841000	-0.399688
555.032000	-0.322732
555.223000	-0.186661
555.413000	0.008671
555.604000	0.004001
555.795000	-0.045539
555.985000	0.039486
556.176000	-0.090392
556.367000	-0.387680
556.557000	-0.254028
556.748000	-0.178617
556.939000	-0.280183
557.129000	-0.324909
557.320000	-0.093058
557.511000	-0.163788
557.701000	-0.161170
557.892000	-0.071787
558.083000	0.146021
558.273000	-0.000710
558.464000	-0.185353
558.655000	-0.173367
558.845000	-0.102111
559.036000	-0.024307
559.227000	-0.036133
559.418000	0.103393
559.608000	0.150653
559.799000	-0.229832
559.990000	-0.320243
560.180000	-0.233615
560.371000	-0.384768
560.562000	-0.311250
560.752000	-0.092542
560.943000	-0.266917
561.134000	-0.433016
561.324000	-0.153238
561.515000	0.092990
561.706000	-0.094501
561.896000	-0.328280
562.087000	-0.225073
562.278000	-0.264702
562.468000	-0.426330
562.659000	-0.364528
562.850000	0.052976
563.040000	0.115986
563.231000	-0.360376
563.422000	-0.184600
563.612000	-0.305987
563.803000	-0.263558
563.994000	-0.285445
564.185000	-0.375101
564.375000	-0.109444
564.566000	-0.097757
564.757000	-0.135108
564.947000	-0.271515
565.138000	-0.134490
565.329000	-0.233215
565.519000	-0.348146
565.710000	-0.277093
565.901000	-0.104414
566.091000	0.043071
566.282000	-0.085714
566.473000	-0.044213
566.663000	-0.117384
566.854000	-0.322038
567.045000	-0.187083
567.235000	-0.121139
567.426000	-0.127910
567.617000	-0.107076
567.807000	-0.111651
567.998000	-0.073002
568.189000	-0.224376
568.379000	-0.174222
568.570000	-0.045689
568.761000	-0.081529
568.951000	-0.159883
569.142000	-0.261141
569.333000	-0.252155
569.524000	-0.340689
569.714000	-0.470390
569.905000	-0.487447
570.096000	-0.063180
570.286000	-0.002898
570.477000	0.112728
570.668000	-0.058422
570.858000	-0.076189
571.049000	-0.199874
571.240000	-0.357208
571.430000	-0.082495
571.621000	-0.135094
571.812000	-0.051140
572.002000	-0.035839
572.193000	-0.211393
572.384000	-0.158641
572.574000	-0.110457
572.765000	-0.134368
572.956000	-0.201686
573.146000	0.008097
573.337000	-0.092385
573.528000	-0.068242
573.718000	0.038489
573.909000	0.071006
574.100000	-0.007140
574.290000	-0.190444
574.481000	-0.168499
574.672000	-0.129912
574.863000	0.016523
575.053000	-0.103448
575.244000	-0.094655
575.435000	-0.258931
575.625000	-0.274790
575.816000	-0.215017
576.007000	-0.138606
576.197000	-0.106935
576.388000	-0.072636
576.579000	0.094629
576.769000	0.102977
576.960000	-0.218263
577.155000	-0.371476
577.350000	-0.118482
577.545000	-0.002731
577.740000	-0.195402
577.935000	0.204194
578.130000	0.112321
578.326000	-0.261283
578.521000	0.045229
578.716000	0.115560
578.911000	-0.195427
579.106000	-0.083204
579.301000	0.015849
579.496000	-0.168866
579.691000	-0.424983
579.886000	-0.243937
580.081000	-0.088401
580.276000	-0.063745
580.471000	-0.143148
580.666000	-0.285190
580.861000	-0.323697
581.057000	-0.271041
581.252000	-0.165347
581.447000	-0.242088
581.642000	-0.226234
581.837000	-0.217810
582.032000	-0.128128
582.227000	0.104040
582.422000	0.045596
582.617000	-0.134567
582.812000	-0.273827
583.007000	-0.215873
583.202000	-0.332864
583.397000	-0.075936
583.592000	0.159721
583.788000	-0.154476
583.983000	-0.085344
584.178000	0.032864
584.373000	-0.143812
584.568000	-0.161132
584.763000	-0.231840
584.958000	-0.359200
585.153000	-0.253398
585.348000	-0.188623
585.543000	-0.047645
585.738000	-0.106418
585.933000	-0.280913
586.128000	-0.088771
586.324000	-0.071320
586.519000	-0.043782
586.714000	0.005305
586.909000	0.076176
587.104000	0.117903
587.299000	0.019102
587.494000	0.003343
587.689000	-0.105026
587.884000	-0.067791
588.079000	-0.107326
588.274000	-0.103564
588.469000	-0.142881
588.664000	-0.022361
588.859000	-0.026356
589.055000	-0.014483
589.250000	-0.093886
589.445000	-0.207276
589.640000	-0.155732
589.835000	0.091110
590.030000	0.160841
590.225000	0.136950
590.420000	-0.046512
590.615000	-0.168431
590.810000	-0.166247
591.005000	-0.114825
591.200000	-0.183035
591.395000	-0.245145
591.591000	-0.140671
591.786000	0.023392
591.981000	-0.110890
592.176000	-0.101069
592.371000	-0.042815
592.566000	-0.060862
592.761000	0.144000
592.956000	0.136196
593.151000	0.216775
593.346000	0.084165
593.541000	0.096176
593.736000	0.041865
593.931000	-0.164498
594.126000	-0.055319
594.322000	0.007497
594.517000	-0.077590
594.712000	-0.205308
594.907000	-0.189775
595.102000	-0.053565
595.297000	0.074698
595.492000	0.087096
595.687000	-0.063971
595.882000	-0.123303
596.077000	-0.039542
596.272000	0.118192
596.467000	0.214536
596.662000	0.101937
596.857000	0.083811
597.053000	0.079827
597.248000	0.121029
597.443000	0.106737
597.638000	0.005588
597.833000	-0.160127
598.028000	0.059377
598.223000	0.237764
598.418000	0.123974
598.613000	0.030522
598.808000	0.192626
599.003000	0.149150
599.198000	-0.038116
599.393000	0.053512
599.589000	0.168490
599.784000	0.016088
599.979000	0.114454
600.174000	0.342761
600.369000	0.108365
600.564000	0.198751
600.759000	0.467937
600.954000	0.548959
601.149000	0.365480
601.344000	0.047811
601.539000	0.214454
601.734000	0.165737
601.929000	-0.013301
602.124000	0.069095
602.320000	0.270299
602.515000	0.494744
602.710000	0.461824
602.905000	0.143597
603.100000	0.126425
603.295000	0.203033
603.490000	0.350422
603.685000	0.418577
603.880000	0.408434
604.075000	0.230045
604.270000	0.262640
604.465000	0.326608
604.660000	0.093545
604.856000	0.245347
605.051000	0.520141
605.246000	0.481169
605.441000	0.235082
605.636000	0.224431
605.831000	0.400939
606.026000	0.334227
606.221000	0.283096
606.416000	0.464250
606.611000	0.742641
606.806000	0.713981
607.001000	0.824816
607.196000	0.605542
607.391000	0.453008
607.587000	0.668227
607.782000	0.675613
607.977000	0.507513
608.172000	0.858330
608.367000	0.899530
608.562000	0.705717
608.757000	0.681590
608.952000	0.676645
609.147000	1.091247
609.342000	1.034119
609.537000	0.872332
609.732000	0.889015
609.927000	0.841441
610.122000	0.945591
610.318000	1.359947
610.513000	1.526986
610.708000	1.357752
610.903000	1.444816
611.098000	1.540223
611.293000	1.518656
611.488000	1.551848
611.683000	1.453236
611.878000	1.422833
612.073000	1.418827
612.268000	1.451264
612.463000	1.662397
612.658000	1.551845
612.854000	1.486401
613.049000	1.413901
613.244000	1.570006
613.439000	1.719307
613.634000	1.476631
613.829000	1.588332
614.024000	1.485020
614.219000	1.462500
614.414000	1.860745
614.609000	1.689164
614.804000	1.452613
614.999000	1.453521
615.194000	1.649905
615.389000	1.707901
615.585000	1.569515
615.780000	1.757430
615.975000	1.774453
616.170000	1.854635
616.365000	2.059621
616.560000	2.201646
616.755000	2.219666
616.950000	2.145830
617.145000	2.220401
617.340000	2.077185
617.535000	1.893210
617.730000	2.218692
617.925000	2.083359
618.120000	2.084014
618.316000	2.490427
618.511000	2.424174
618.706000	2.267598
618.901000	2.413138
619.096000	2.638632
619.291000	2.539763
619.486000	2.587020
619.681000	2.404396
619.876000	2.410283
620.071000	2.576352
620.266000	2.978443
620.461000	3.069584
620.656000	3.010254
620.852000	3.006462
621.047000	2.964962
621.242000	2.915303
621.437000	3.326141
621.632000	3.483001
621.827000	3.301144
622.022000	3.069322
622.217000	3.272653
622.412000	3.558485
622.607000	3.601969
622.802000	3.401231
622.997000	3.488739
623.192000	3.691738
623.387000	3.727989
623.583000	3.588479
623.778000	4.097293
623.973000	4.066716
624.168000	4.073967
624.363000	4.217580
624.558000	4.246234
624.753000	3.968183
624.948000	4.320566
625.143000	4.455539
625.338000	4.441431
625.533000	4.380350
625.728000	4.543778
625.923000	4.830620
626.119000	4.844234
626.314000	4.665439
626.509000	4.648298
626.704000	4.757681
626.899000	4.866270
627.094000	4.868170
627.289000	4.976908
627.484000	5.115744
627.679000	5.201065
627.874000	5.237181
628.069000	5.593227
628.264000	5.585716
628.459000	5.468607
628.654000	5.493245
628.850000	5.485353
629.045000	5.674287
629.240000	5.721995
629.435000	5.692293
629.630000	5.844458
629.825000	5.864131
630.020000	6.074046
630.215000	5.866605
630.410000	6.029799
630.605000	6.089760
630.800000	6.088831
630.995000	6.182698
631.190000	6.449678
631.385000	6.239935
631.581000	6.102048
631.776000	6.116028
631.971000	6.009434
632.166000	6.036827
632.361000	5.900726
632.556000	5.974891
632.751000	6.004387
632.946000	5.784983
633.141000	5.626495
633.336000	5.474281
633.531000	5.437317
633.726000	5.448541
633.921000	5.211702
634.117000	4.983925
634.312000	4.777705
634.507000	4.837027
634.702000	4.850860
634.897000	4.723247
635.092000	4.683832
635.287000	4.623126
635.482000	4.322528
635.677000	4.404733
635.872000	4.340040
636.067000	4.248148
636.262000	3.981394
636.457000	3.505425
636.652000	3.366749
636.848000	3.284957
637.043000	3.251177
637.238000	3.175205
637.433000	2.897552
637.628000	2.823465
637.823000	3.020763
638.018000	3.005376
638.213000	2.640127
638.408000	2.427175
638.603000	2.278861
638.798000	2.111482
638.993000	2.131572
639.188000	2.068154
639.383000	1.989647
639.579000	2.324291
639.774000	2.017223
639.969000	1.709739
640.164000	1.600784
640.359000	1.554089
640.554000	1.709634
640.749000	1.641416
640.944000	1.615204
641.139000	1.533571
641.334000	1.290059
641.529000	0.861481
641.724000	1.020008
641.919000	1.106501
642.115000	1.321883
642.310000	1.298210
642.505000	1.014626
642.700000	0.981010
642.895000	0.937491
643.090000	0.975483
643.285000	1.172537
643.480000	1.139572
643.675000	1.063724
643.870000	1.348917
644.065000	1.103654
644.260000	0.671050
644.455000	0.779894
644.650000	0.643549
644.846000	0.693345
645.041000	0.505068
645.236000	0.351110
645.431000	0.343289
645.626000	0.079600
645.821000	0.276411
646.016000	0.366196
646.211000	0.773609
646.406000	0.671800
646.601000	0.607009
646.796000	0.400590
646.991000	0.121841
647.186000	0.247854
647.381000	0.454925
647.577000	0.413379
647.772000	0.508566
647.967000	0.414211
648.162000	0.352796
648.357000	0.327977
648.552000	0.502024
648.747000	0.499505
648.942000	0.511076
649.137000	0.408246
649.332000	0.146054
649.527000	0.058453
649.722000	0.400000
649.917000	0.508759
650.113000	0.202749
650.308000	0.021805
650.503000	0.058586
650.698000	0.282990
650.893000	0.192297
651.088000	0.291904
651.283000	0.335268
651.478000	-0.023643
651.673000	0.178422
651.868000	0.010550
652.063000	0.327698
652.258000	0.479486
652.453000	0.589426
652.648000	0.184752
652.844000	0.070582
653.039000	0.090739
653.234000	-0.301508
653.429000	-0.408178
653.624000	-0.244496
653.819000	0.039355
654.014000	0.053728
654.209000	-0.136258
654.404000	0.048058
654.599000	-0.052796
654.794000	-0.156388
654.989000	0.160895
655.184000	0.068540
655.380000	-0.246487
655.575000	-0.252295
655.770000	-0.197713
655.965000	-0.079047
656.160000	-0.110956
656.355000	0.025199
656.550000	-0.032830
656.745000	0.042737
656.940000	-0.123080
657.135000	-0.085233
657.330000	-0.067807
657.525000	-0.265888
657.720000	-0.012545
657.915000	0.106968
658.111000	-0.018369
658.306000	0.258833
658.501000	-0.012577
658.696000	-0.302009
658.891000	-0.021352
659.086000	-0.144143
659.281000	-0.068235
659.476000	-0.191506
659.671000	-0.587368
659.866000	-0.373464
660.061000	-0.109502
660.256000	-0.027315
660.451000	-0.039097
660.646000	-0.224592
660.842000	-0.101080
661.037000	-0.254416
661.232000	-0.237067
661.427000	-0.092333
661.622000	-0.255047
661.817000	-0.393843
662.012000	-0.110482
662.207000	-0.267650
662.402000	-0.330724
662.597000	-0.131726
662.792000	-0.434624
662.987000	-0.449110
663.182000	-0.125826
663.378000	-0.069364
663.573000	-0.406761
663.768000	-0.462501
663.963000	-0.266236
664.158000	-0.328545
664.353000	0.154626
664.548000	0.336949
664.743000	-0.012871
664.938000	-0.297191
665.133000	-0.315642
665.328000	0.047131
665.523000	0.026169
665.718000	-0.187413
665.913000	-0.253975
666.109000	-0.203212
666.304000	0.083613
666.499000	-0.031071
666.694000	0.135226
666.889000	0.392323
667.084000	0.032475
667.279000	-0.173802
667.474000	-0.234598
667.669000	-0.079798
667.864000	-0.104195
668.059000	-0.098269
668.254000	-0.049654
668.449000	-0.223542
668.644000	-0.190169
668.840000	0.096637
669.035000	-0.193244
669.230000	-0.540042
669.425000	-0.160314
669.620000	-0.267578
669.815000	-0.326994
670.010000	-0.302105
670.205000	-0.136260
670.400000	-0.136018
670.595000	-0.077917
670.790000	-0.241466
670.985000	-0.229370
671.180000	0.002163
671.376000	-0.335001
671.571000	-0.400846
671.766000	-0.367594
671.961000	-0.405036
672.156000	-0.430439
672.351000	-0.265546
672.546000	-0.272345
672.741000	-0.187703
672.936000	-0.094442
673.131000	0.367855
673.326000	0.033534
673.521000	-0.389901
673.716000	-0.493404
673.911000	-0.672675
674.107000	-0.060696
674.302000	0.238230
674.497000	-0.038753
674.692000	-0.379289
674.887000	-0.412219
675.082000	-0.298780
675.277000	-0.000952
675.472000	-0.074024
675.667000	-0.223686
675.862000	-0.255635
676.057000	-0.192093
676.252000	-0.205269
676.447000	-0.333779
676.643000	-0.160838
676.838000	0.101555
677.033000	-0.097207
677.228000	0.156628
677.423000	0.066615
677.618000	-0.333333
677.813000	-0.552435
678.008000	-0.301856
678.203000	-0.221207
678.398000	-0.422778
678.593000	-0.169753
678.788000	-0.014002
678.983000	-0.358729
679.178000	-0.235260
679.374000	-0.300775
679.569000	-0.213250
679.764000	-0.325245
679.959000	-0.542718
680.154000	-0.513273
680.349000	-0.669929
680.544000	-0.514361
680.739000	-0.294029
680.934000	-0.422865
681.129000	-0.486847
681.324000	-0.583414
681.519000	-0.342920
681.714000	-0.343041
681.909000	-0.412276
682.105000	-0.566437
682.300000	-0.124546
682.495000	0.145840
682.690000	0.069240
682.885000	-0.101432
683.080000	-0.299769
683.275000	-0.252900
683.470000	-0.001009
683.665000	0.113570
683.860000	0.414216
684.055000	0.164498
684.250000	-0.383076
684.445000	-0.422975
684.641000	0.110717
684.836000	-0.129894
685.031000	-0.286934
685.226000	-0.362306
685.421000	0.019482
685.616000	-0.226608
685.811000	-0.377901
686.006000	-0.011305
686.201000	-0.055915
686.396000	-0.455578
686.591000	-0.439241
686.786000	0.030066
686.981000	-0.222236
687.176000	-0.229706
687.372000	-0.240370
687.567000	0.023250
687.762000	-0.014963
687.957000	-0.084553
688.152000	-0.248620
688.347000	-0.200163
688.542000	-0.459802
688.737000	-0.781633
688.932000	-0.874125
689.127000	-0.478577
689.322000	-0.106693
689.517000	-0.279173
689.712000	-0.499201
689.908000	-0.439586
690.103000	-0.401462
690.298000	-0.273947
690.493000	-0.299536
690.688000	-0.623649
690.883000	-0.447302
691.078000	0.048923
691.273000	0.059643
691.468000	-0.301659
691.663000	-0.295622
691.858000	-0.101671
692.053000	-0.191479
692.248000	-0.137733
692.443000	-0.047827
692.639000	-0.163237
692.834000	-0.019146
693.029000	0.533754
693.224000	0.445514
693.419000	-0.193708
693.614000	-0.416186
693.809000	-0.456573
694.004000	-0.486640
694.199000	-0.548559
694.394000	-0.286746
694.589000	-0.620658
694.784000	-0.544224
694.979000	-0.224963
695.174000	-0.273362
695.370000	0.200910
695.565000	-0.034242
695.760000	-0.381209
695.955000	-0.075095
696.150000	0.009991
696.345000	-0.424596
696.540000	-0.176016
696.740000	-0.298608
696.940000	-0.127647
697.140000	0.002618
697.340000	-0.180987
697.539000	-0.019870
697.739000	-0.192408
697.939000	-0.170022
698.139000	-0.538398
698.339000	-0.898686
698.539000	-0.660719
698.739000	-0.662495
698.939000	-0.422464
699.138000	-0.483994
699.338000	0.089800
699.538000	0.246084
699.738000	-0.256724
699.938000	-0.390564
700.138000	-0.452414
700.338000	-0.507415
700.538000	-0.320278
700.737000	-0.201021
700.937000	-0.633465
701.137000	-0.699686
701.337000	-0.047454
701.537000	-0.097823
701.737000	-0.410494
701.937000	-0.368849
702.137000	-0.256621
702.337000	-0.365610
702.536000	-0.545066
702.736000	-0.502936
702.936000	-0.698449
703.136000	-0.196519
703.336000	-0.212099
703.536000	-0.275358
703.736000	-0.661002
703.936000	-0.632197
704.135000	-0.573119
704.335000	-0.174028
704.535000	-0.434485
704.735000	-0.718836
704.935000	-0.193985
705.135000	-0.285870
705.335000	-0.568494
705.535000	-0.314803
705.735000	-0.195676
705.934000	-0.136070
706.134000	-0.433744
706.334000	-0.562063
706.534000	-0.594739
706.734000	-0.503518
706.934000	-0.658962
707.134000	-0.639195
707.334000	-0.308889
707.533000	-0.293446
707.733000	-0.305235
707.933000	-0.441692
708.133000	-0.145186
708.333000	-0.017288
708.533000	-0.323437
708.733000	-0.081753
708.933000	-0.303519
709.132000	-0.493926
709.332000	-0.514988
709.532000	-0.593159
709.732000	-0.397967
709.932000	-0.788505
710.132000	-0.706898
710.332000	-0.828187
710.532000	-0.212209
710.732000	-0.102937
710.931000	-0.449105
711.131000	-0.422248
711.331000	-0.254852
711.531000	-0.419192
711.731000	-0.416139
711.931000	-0.293386
712.131000	-0.317693
712.331000	-0.202681
712.530000	-0.342046
712.730000	-0.577615
712.930000	-0.412797
713.130000	-0.385333
713.330000	-0.505729
713.530000	-0.374778
713.730000	0.310175
713.930000	-0.080113
714.129000	-0.486398
714.329000	-0.633557
714.529000	-0.367042
714.729000	0.015412
714.929000	-0.201191
715.129000	-0.518624
715.329000	-0.352056
715.529000	-0.265438
715.729000	0.392177
715.928000	0.019721
716.128000	-0.341344
716.328000	-0.207604
716.528000	-0.397553
716.728000	-0.271143
716.928000	-0.406123
717.128000	-0.292910
717.328000	-0.280184
717.527000	-0.466693
717.727000	-0.412090
717.927000	-0.324189
718.127000	-0.447662
718.327000	-0.882892
718.527000	-0.780285
718.727000	-0.320839
718.927000	-0.453745
719.127000	-0.644140
719.326000	-0.325672
719.526000	-0.022664
719.726000	-0.254108
719.926000	-0.719580
720.126000	-0.728301
720.326000	-0.495927
720.526000	-0.539040
720.726000	-0.428478
720.925000	-0.122192
721.125000	-0.551684
721.325000	-0.295635
721.525000	-0.309368
721.725000	-0.487320
721.925000	-0.497396
722.125000	-0.419100
722.325000	0.020452
722.524000	-0.280655
722.724000	-0.752986
722.924000	-0.796639
723.124000	-0.556984
723.324000	-0.207168
723.524000	-0.119679
723.724000	-0.672649
723.924000	-0.538552
724.124000	-0.278840
724.323000	-0.054252
724.523000	-0.195227
724.723000	0.223912
724.923000	0.016346
725.123000	-0.094196
725.323000	-0.023480
725.523000	-0.272093
725.723000	-0.489077
725.922000	-0.582848
726.122000	-0.436850
726.322000	-0.424660
726.522000	-0.572269
726.722000	0.167963
726.922000	-0.085928
727.122000	-0.220258
727.322000	0.034445
727.521000	-0.064127
727.721000	-0.347155
727.921000	-0.333698
728.121000	-0.320144
728.321000	-0.685101
728.521000	-0.465870
728.721000	-0.412452
728.921000	-0.073610
729.121000	0.631919
729.320000	0.066568
729.520000	-0.404423
729.720000	-0.536643
729.920000	-0.429809
730.120000	-0.265051
730.320000	-0.229240
730.520000	-0.525691
730.720000	-0.600526
730.919000	-0.472375
731.119000	-0.047187
731.319000	-0.630028
731.519000	-0.767584
731.719000	-0.318195
731.919000	-0.456185
732.119000	-1.022941
732.319000	-0.961527
732.519000	-0.398579
732.718000	-0.759820
732.918000	-0.575331
733.118000	-0.330840
733.318000	-0.099119
733.518000	-0.345780
733.718000	-0.849574
733.918000	-0.808103
734.118000	-0.621365
734.317000	-0.380516
734.517000	-0.660423
734.717000	-0.597855
734.917000	-0.043775
735.117000	-0.067382
735.317000	-0.213402
735.517000	0.286728
735.717000	0.623949
735.916000	-0.380491
736.116000	-0.654747
736.316000	-0.420614
736.516000	-0.325243
736.716000	-0.358758
736.916000	-0.886441
737.116000	-0.621560
737.316000	0.113910
737.516000	0.003371
737.715000	-0.165288
737.915000	-0.690862
738.115000	-0.784948
738.315000	-0.490290
738.515000	-0.785376
738.715000	-0.517411
738.915000	0.115513
739.115000	-0.401792
739.314000	-0.489227
739.514000	0.047483
739.714000	0.140846
739.914000	-0.075304
740.114000	-0.425553
740.314000	-0.129784
740.514000	0.295056
740.714000	-0.477557
740.913000	-0.920252
741.113000	-0.687912
741.313000	-0.285014
741.513000	-0.390565
741.713000	-0.416622
741.913000	-0.428641
742.113000	-0.523321
742.313000	-0.976973
742.513000	-0.595387
742.712000	-0.425644
742.912000	-0.748987
743.112000	-0.624830
743.312000	-0.864440
743.512000	-0.423784
743.712000	-0.353691
743.912000	-1.095502
744.112000	-1.249662
744.311000	-1.135070
744.511000	-0.664392
744.711000	-0.253954
744.911000	-0.568989
745.111000	-0.549036
745.311000	-0.239598
745.511000	-0.597491
745.711000	-0.800344
745.911000	-0.406664
746.110000	-0.853728
746.310000	-1.031251
746.510000	-0.632644
746.710000	-0.179713
746.910000	-0.132676
747.110000	-0.647641
747.310000	-0.964478
747.510000	-0.793852
747.709000	-0.413899
747.909000	-0.452058
748.109000	-0.219614
748.309000	-0.481154
748.509000	-0.796778
748.709000	-0.858652
748.909000	-0.612063
749.109000	-0.641626
749.308000	-0.060836
749.508000	-0.347443
749.708000	-0.450260
749.908000	-0.109752
750.108000	-0.158881
750.308000	-0.888594
750.508000	-0.176209
750.708000	-0.738363
750.908000	-1.100914
751.107000	-0.352742
751.307000	0.212052
751.507000	-0.331807
751.707000	-0.276429
751.907000	-0.387290
752.107000	-0.266991
752.307000	-0.800339
752.507000	-0.646730
752.706000	-0.618505
752.906000	0.399290
753.106000	-0.582851
753.306000	-1.156387
753.506000	-0.119720
753.706000	-0.531085
753.906000	-0.159407
754.106000	0.032149
754.305000	-0.221948
754.505000	-0.120607
754.705000	-0.292063
754.905000	-0.355214
755.105000	-0.121626
755.305000	-0.945200
755.505000	-0.724275
755.705000	-0.265842
755.905000	-0.364544
756.104000	-0.935491
756.304000	-1.354124
756.504000	-1.617527
756.704000	-0.514034
756.904000	-0.246107
757.104000	-0.536256
757.304000	-0.466983
757.504000	0.021649
757.703000	-0.510701
757.903000	-0.031079
758.103000	0.115758
758.303000	-0.314075
758.503000	-0.462607
758.703000	-0.576204
758.903000	-0.783821
759.103000	-0.453295
759.303000	-0.485318
759.502000	-0.480862
759.702000	-0.085600
759.902000	-0.633548
760.102000	-0.719499
760.302000	-0.776384
760.502000	-0.345705
760.702000	-0.322034
760.902000	-0.595180
761.101000	-0.900498
761.301000	-1.090643
761.501000	-0.768502
761.701000	-0.910277
761.901000	-0.614710
762.101000	-0.229090
762.301000	-0.474769
762.501000	-0.813242
762.700000	-0.810812
762.900000	-0.743150
763.100000	-0.434771
763.300000	-0.181946
763.500000	-0.387252
763.703000	-0.670935
763.905000	-1.059046
764.108000	-0.307673
764.311000	-0.557381
764.513000	-0.639294
764.716000	-0.303059
764.919000	-0.240636
765.121000	-0.699559
765.324000	-0.934919
765.527000	-0.876529
765.729000	-0.699047
765.932000	0.239322
766.135000	-0.033635
766.337000	-0.497162
766.540000	-0.600720
766.743000	-0.303555
766.945000	-0.815351
767.148000	-1.221622
767.351000	-1.073824
767.553000	-0.233866
767.756000	-0.769417
767.958000	-1.007943
768.161000	-0.621556
768.364000	-0.889448
768.566000	-1.105642
768.769000	-0.516559
768.972000	-0.262477
769.174000	-0.707515
769.377000	-1.214014
769.580000	-1.249430
769.782000	-0.546437
769.985000	-0.903547
770.188000	-1.855587
770.390000	-0.983096
770.593000	0.660098
770.796000	0.349178
770.998000	-0.399767
771.201000	-0.944390
771.404000	-0.560256
771.606000	-0.916115
771.809000	-0.749061
772.012000	-0.576746
772.214000	-1.379795
772.417000	-1.446834
772.620000	-0.342086
772.822000	-0.519457
773.025000	-0.949710
773.228000	-1.032289
773.430000	-0.939579
773.633000	-0.569682
773.836000	-0.313313
774.038000	-0.137890
774.241000	-0.341576
774.444000	-0.472046
774.646000	0.297428
774.849000	-0.261263
775.052000	-0.568134
775.254000	-0.528258
775.457000	-0.814539
775.659000	-0.672766
775.862000	-0.789301
776.065000	-0.564323
776.267000	-0.022667
776.470000	0.170415
776.673000	-0.471553
776.875000	0.046393
777.078000	0.004839
777.281000	-0.855659
777.483000	-0.378023
777.686000	-0.336882
777.889000	-0.323280
778.091000	0.124012
778.294000	-0.995581
778.497000	-1.024883
778.699000	-0.794340
778.902000	-0.839263
779.105000	-0.656400
779.307000	0.279703
779.510000	-0.814153
779.713000	-0.633015
779.915000	-0.812907
780.118000	0.410767
780.321000	0.546699
780.523000	-0.430802
780.726000	-0.995618
780.929000	-1.145299
781.131000	-1.147071
781.334000	-1.625366
781.537000	-1.493067
781.739000	-0.369823
781.942000	-0.824658
782.145000	-1.452608
782.347000	-1.482552
782.550000	-1.084127
782.753000	-1.247966
782.955000	-1.076036
783.158000	-0.863680
783.361000	-0.624292
783.563000	-0.785434
783.766000	-0.956266
783.968000	0.835721
784.171000	0.817404
784.374000	-0.467447
784.576000	-0.703545
784.779000	-0.319156
784.982000	-0.002224
785.184000	-0.665597
785.387000	-0.039564
785.590000	0.751311
785.792000	0.424636
785.995000	0.095258
786.198000	-0.047331
786.400000	-0.432304
786.603000	-0.614931
786.806000	-0.801542
787.008000	-0.447099
787.211000	-0.297377
787.414000	-1.088037
787.616000	-0.802536
787.819000	-0.605803
788.022000	-1.226246
788.224000	-0.822854
788.427000	-1.360434
788.630000	-0.687609
788.832000	-0.479189
789.035000	-1.092779
789.238000	-1.768833
789.440000	-1.313608
789.643000	-0.133954
789.846000	-0.623532
790.048000	-0.414880
790.251000	-0.158050
790.454000	-0.476310
790.656000	0.208228
790.859000	-0.424456
791.062000	-0.848058
791.264000	-0.307490
791.467000	-1.369524
791.669000	-1.764963
791.872000	-0.761547
792.075000	-1.234604
792.277000	-0.989897
792.480000	-0.780812
792.683000	-1.127224
792.885000	-1.286897
793.088000	-1.180202
793.291000	-1.302826
793.493000	-1.353156
793.696000	-0.554108
793.899000	-0.291047
794.101000	-0.613180
794.304000	-0.888422
794.507000	-0.446080
794.709000	-0.148027
794.912000	-0.773976
795.115000	-1.166046
795.317000	-0.693903
795.520000	-0.451825
795.723000	-0.970459
795.925000	-1.440153
796.128000	-1.643424
796.331000	-1.130224
796.533000	-1.339197
796.736000	-0.765428
796.939000	-0.717383
797.141000	-0.719276
797.344000	-0.035873
797.547000	-0.136043
797.749000	-0.311760
797.952000	-0.884582
798.155000	-1.251469
798.357000	-1.503554
798.560000	-1.147388
798.763000	-0.426121
798.965000	-0.671161
799.168000	-0.656142
799.371000	-0.614417
799.573000	-1.111005
799.776000	-1.804352
799.978000	-1.819185
800.181000	-0.809598
800.384000	0.831486
800.586000	0.135315
800.789000	-1.424077
800.992000	-1.345629
801.194000	-1.503910
801.397000	-1.525098
801.600000	-1.304632
801.802000	-0.028687
802.005000	-0.360169
802.208000	-1.603091
802.410000	-0.640512
802.613000	-0.704776
802.816000	-0.898913
803.018000	-1.447553
803.221000	-1.335505
803.424000	0.147715
803.626000	-0.268426
803.829000	-0.935822
804.032000	0.380486
804.234000	1.369150
804.437000	-0.405269
804.640000	-0.682033
804.842000	-0.773186
805.045000	-1.281248
805.248000	-1.022045
805.450000	-0.894882
805.653000	-0.809864
805.856000	-0.881453
806.058000	-0.057248
806.261000	-1.305229
806.464000	-1.051246
806.666000	-0.431940
806.869000	-0.894230
807.072000	-2.107142
807.274000	-2.375194
807.477000	-1.256767
807.679000	-0.842541
807.882000	-1.380947
808.085000	-0.980536
808.287000	-0.235823
808.490000	-1.263557
808.693000	-1.227066
808.895000	-0.723220
809.098000	-0.695488
809.301000	-0.876260
809.503000	-1.238499
809.706000	-0.287367
809.909000	0.262665
810.111000	0.215555
810.314000	-0.250310
810.517000	-1.017905
810.719000	-1.338462
810.922000	-1.066298
811.125000	0.044931
811.327000	0.122104
811.530000	-0.417957
811.735000	-0.793208
811.940000	-0.968856
812.146000	-1.031133
812.351000	-0.662576
812.556000	-0.752293
812.761000	-1.320935
812.967000	-0.169629
813.172000	-0.208629
813.377000	-0.572806
813.582000	0.125309
813.788000	-0.221550
813.993000	-1.340828
814.198000	-0.727117
814.403000	-1.559508
814.609000	-0.461917
814.814000	-0.433935
815.019000	0.427140
815.224000	0.066987
815.429000	-1.100057
815.635000	-0.517934
815.840000	-0.720638
816.045000	-0.642697
816.250000	-0.094577
816.456000	-1.459790
816.661000	-2.469386
816.866000	-1.797907
817.071000	-1.479034
817.277000	-2.489206
817.482000	-1.677150
817.687000	-0.746647
817.892000	-0.813187
818.097000	-0.284404
818.303000	0.246897
818.508000	0.547936
818.713000	7.279146
818.918000	3.912073
819.124000	0.174806
819.329000	-1.148945
819.534000	-1.310517
819.739000	-1.289537
819.945000	-1.104932
820.150000	-0.802246
820.355000	-0.793131
820.560000	-0.343865
820.766000	-0.451478
820.971000	-0.690248
821.176000	-2.037036
821.381000	-2.621300
821.586000	-1.687127
821.792000	-0.447358
821.997000	-0.892298
822.202000	-1.012555
822.407000	-1.549019
822.613000	-1.694082
822.818000	-0.900109
823.023000	-0.408445
823.228000	-0.598440
823.434000	-0.245573
823.639000	-0.058490
823.844000	-1.098750
824.049000	-0.147273
824.255000	0.052212
824.460000	-0.885053
824.665000	-1.389220
824.870000	-0.227649
825.075000	-0.261622
825.281000	-0.206099
825.486000	1.050201
825.691000	-1.546481
825.896000	-2.640870
826.102000	-0.970324
826.307000	-0.790237
826.512000	-1.033553
826.717000	-0.749714
826.923000	-0.809424
827.128000	-0.591956
827.333000	-1.641013
827.538000	-0.656299
827.744000	-0.120361
827.949000	-1.321458
828.154000	-0.741281
828.359000	0.136945
828.564000	-0.521121
828.770000	-0.665022
828.975000	0.209548
829.180000	-0.574717
829.385000	-2.013718
829.591000	-1.377189
829.796000	-0.651822
830.001000	-0.809418
830.206000	-1.475547
830.412000	-1.172725
830.617000	-1.151394
830.822000	-0.246484
831.027000	-0.839572
831.232000	-1.624731
831.438000	-1.648481
831.643000	-0.961021
831.848000	-0.877251
832.053000	-1.004106
832.259000	-1.178472
832.464000	-2.831065
832.669000	-2.194133
832.874000	-1.855086
833.080000	-2.225212
833.285000	-0.066252
833.490000	-0.166374
833.695000	-1.590329
833.901000	-1.357444
834.106000	-1.777632
834.311000	-1.226556
834.516000	-0.743695
834.721000	-1.504761
834.927000	-0.338779
835.132000	-0.907333
835.337000	0.797522
835.542000	-0.081917
835.748000	-1.703939
835.953000	0.347696
836.158000	0.113572
836.363000	-0.436452
836.569000	-0.624751
836.774000	-1.512359
836.979000	-1.765901
837.184000	-2.142020
837.390000	-1.773419
837.595000	-1.044491
837.800000	-0.913187
838.005000	-0.797711
838.210000	-1.134506
838.416000	-1.436124
838.621000	-1.358709
838.826000	-1.628642
839.031000	-1.446496
839.237000	-1.813750
839.442000	-2.297246
839.647000	-2.348659
839.852000	-2.014539
840.058000	-1.551950
840.263000	-1.434585
840.468000	-2.548151
840.673000	-1.561299
840.878000	-1.047878
841.084000	-1.670079
841.289000	-1.155015
841.494000	1.423097
841.699000	1.186767
841.905000	0.322706
842.110000	0.538843
842.315000	-1.465279
842.520000	-0.920067
842.726000	-1.596395
842.931000	-1.996384
843.136000	-0.812702
843.341000	-2.171248
843.547000	-1.266992
843.752000	-1.370151
843.957000	-2.289591
844.162000	-1.976656
844.367000	-1.361453
844.573000	-0.908086
844.778000	-0.551095
844.983000	-0.315473
845.188000	-0.183108
845.394000	-1.987323
845.599000	-1.727709
845.804000	-1.327641
846.009000	-0.534425
846.215000	-2.073077
846.420000	-1.636401
846.625000	-0.448301
846.830000	0.269843
847.036000	-1.046303
847.241000	-1.758413
847.446000	0.041532
847.651000	-0.437152
847.856000	-2.062157
848.062000	-2.193340
848.267000	-0.348724
848.472000	-1.181613
848.677000	-2.711295
848.883000	-0.774148
849.088000	1.295911
849.293000	-0.562130
849.498000	-1.372521
849.704000	-0.483243
849.909000	-1.076124
850.114000	-1.971624
850.319000	-0.966382
850.524000	-0.923353
850.730000	-0.815151
850.935000	-1.274009
851.140000	-0.298542
851.345000	-0.004893
851.551000	-0.037629
851.756000	-0.054280
851.961000	-1.423287
852.166000	-1.820048
852.372000	-1.030671
852.577000	-0.938214
852.782000	-1.281149
852.987000	0.514015
853.193000	-0.156273
853.398000	-0.223553
853.603000	-1.807583
853.808000	-2.482728
854.013000	-1.752187
854.219000	-0.276985
854.424000	1.479004
854.629000	1.294207
854.834000	-0.831275
855.040000	-0.542145
855.245000	-0.108757
855.450000	-2.535018
855.655000	-3.774851
855.861000	-3.468194
856.066000	-2.057817
856.271000	-2.763987
856.476000	-0.763463
856.682000	-1.385896
856.887000	-3.966578
857.092000	-2.504017
857.297000	0.279344
857.502000	-0.094486
857.708000	-1.023514
857.913000	0.012525
858.118000	-0.854158
858.323000	-1.273229
858.529000	-1.253176
858.734000	-1.528574
858.939000	-0.896570
859.144000	-2.049200
859.350000	-3.326997
859.555000	-3.300786
859.760000	-0.925873
859.965000	0.270504
860.171000	-1.557967
860.376000	-0.617994
860.581000	-2.554884
860.786000	-4.751899
860.991000	-3.984379
861.197000	-2.800306
861.402000	-1.754975
861.607000	-2.508977
861.812000	-3.370410
862.018000	-3.079731
862.223000	-2.115956
862.428000	-0.579437
862.633000	0.549089
862.839000	-0.390816
863.044000	-1.520034
863.249000	-2.503284
863.454000	-0.819753
863.659000	-1.774720
863.865000	-2.623547
864.070000	-2.199532
864.275000	-2.615211
864.480000	-2.114749
864.686000	-3.764432
864.891000	-3.312212
865.096000	-1.278857
865.301000	-0.743244
865.507000	-0.707530
865.712000	-0.747567
865.917000	-2.002965
866.122000	-0.572387
866.328000	-3.321586
866.533000	-3.156658
866.738000	0.156711
866.943000	-0.006119
867.148000	0.609137
867.354000	-1.990583
867.559000	-3.521229
867.764000	-1.813891
867.969000	-0.695406
868.175000	-1.983438
868.380000	-2.721390
868.585000	-3.435968
868.790000	-1.664107
868.996000	-1.738477
869.201000	-2.738443
869.406000	-4.111556
869.611000	-3.286658
869.817000	-2.644702
870.022000	1.702179
870.227000	0.036397
870.432000	-2.201001
870.637000	-0.674195
870.843000	-1.783023
871.048000	-2.282418
871.253000	-0.483641
871.458000	-1.488804
871.664000	-3.494498
871.869000	-3.669608
872.074000	-2.662560
872.279000	-1.090615
872.485000	-2.166342
872.690000	-2.332262
872.895000	-2.611344
873.100000	-3.288833
873.306000	-2.896454
873.511000	-1.916386
873.716000	-0.143531
873.921000	-1.892850
874.126000	-2.009661
874.332000	-1.293983
874.537000	-0.699851
874.742000	-0.651547
874.947000	-1.093600
875.153000	0.319723
875.358000	-1.036271
875.563000	-1.455979
875.768000	-3.949752
875.974000	-4.437282
876.179000	-0.432080
876.384000	-0.600259
876.589000	-2.568830
876.794000	-2.475882
877.000000	-3.053627
877.205000	-3.864304
877.410000	-1.018381
877.615000	-3.203798
877.821000	-5.220518
878.026000	-3.161022
878.231000	-3.887928
878.436000	-4.331761
878.642000	-3.799064
878.847000	-1.846145
879.052000	-0.203203
879.257000	-2.353443
879.463000	-4.038277
879.668000	-2.777931
879.873000	-0.429648
880.078000	-3.418220
880.283000	-5.305999
880.489000	-4.980983
880.694000	-4.601010
880.899000	-2.865395
881.104000	-1.277269
881.310000	1.236609
881.515000	-0.134425
881.720000	1.390705
881.925000	2.830332
882.131000	3.802139
882.336000	0.327227
882.541000	-4.266631
882.746000	-4.000614
882.952000	-4.022030
883.157000	-3.300284
883.362000	-3.750256
883.567000	-4.422959
883.772000	-4.066162
883.978000	-3.194356
884.183000	-1.578186
884.388000	-1.760357
884.593000	-4.311030
884.799000	0.392210
885.004000	-0.305753
885.209000	-2.336090
885.414000	-1.518785
885.620000	-4.165432
885.825000	-0.883955
886.030000	-1.592378
886.235000	-3.608291
886.440000	-2.419092
886.646000	-4.595698
886.851000	-4.786464
887.056000	-0.681166
887.261000	-1.018359
887.467000	-4.008327
887.672000	-0.972751
887.877000	-2.830521
888.082000	-5.421705
888.288000	-5.972648
888.493000	-8.584901
888.698000	-6.069219
888.903000	-2.265526
889.109000	-3.733409
889.314000	-0.384242
889.519000	-1.390102
889.724000	-0.008647
889.929000	-1.480294
890.135000	-2.468006
890.340000	-2.486425
890.545000	-3.242825
890.750000	-4.651596
890.956000	-3.143615
891.161000	-0.798664
891.366000	-3.499999
891.571000	-2.537795
891.777000	-2.687333
891.982000	-0.748320
892.187000	-0.870346
892.392000	0.494887
892.598000	0.080469
892.803000	0.051113
893.008000	-2.652251
893.213000	-3.693758
893.418000	-4.323165
893.624000	-4.011335
893.829000	-5.772392
894.034000	-3.292079
894.239000	-1.811456
894.445000	-4.214909
894.650000	-4.205524
894.855000	-3.996090
895.060000	-4.326210
895.266000	-4.661981
895.471000	-5.497170
895.676000	-1.246828
895.881000	-1.039126
896.087000	-2.599877
896.292000	-3.433555
896.497000	0.969147
896.702000	-1.078452
896.907000	-3.851261
897.113000	0.812290
897.318000	0.685517
897.523000	0.180541
897.728000	-2.394226
897.934000	-2.988684
898.139000	-2.329529
898.344000	0.279091
898.549000	-1.655047
898.755000	-3.014318
898.960000	-3.130453
899.165000	-6.091355
899.370000	-2.002013
899.575000	2.314903
899.781000	-2.735204
899.986000	-3.687627
900.191000	-1.430937
900.396000	-2.226648
900.602000	-1.707471
900.807000	-2.322885
901.012000	-1.697000
901.217000	-0.821858
901.423000	-3.616588
901.628000	-4.643242
901.833000	-0.757902
902.038000	-0.147279
902.244000	-3.152675
902.449000	-2.449723
902.654000	-3.100503
902.859000	-2.712218
903.064000	-0.288880
903.270000	-0.254989
903.475000	-4.589826
903.680000	-6.401041
903.885000	-5.536880
904.091000	-4.291669
904.296000	-5.125718
904.501000	-5.039070
904.706000	-4.375523
904.912000	-0.517134
905.117000	-2.988702
905.322000	-5.758680
905.527000	-5.185378
905.733000	-3.693773
905.938000	-3.276587
906.143000	-3.984351
906.348000	-6.403118
906.553000	-1.508396
906.759000	-0.011222
906.964000	-1.853259
907.169000	-3.829465
907.374000	-5.518253
907.580000	-3.727499
907.785000	-3.753159
907.990000	26.907056
908.195000	17.328970
908.401000	-0.947427
908.606000	-8.283593
908.811000	-9.724430
909.016000	-2.475801
909.221000	-2.522876
909.427000	-3.365888
909.632000	-5.783794
909.837000	-4.862101
910.042000	-6.001768
910.248000	-8.172712
910.453000	-3.503219
910.658000	-5.125139
910.863000	-5.405819
911.069000	-6.245702
911.274000	-2.573635
911.479000	0.029095
911.684000	-6.449264
911.890000	-4.404590
912.095000	-4.703185
912.300000	-7.436191
912.506000	-6.216265
912.711000	-6.421909
912.917000	-3.305767
913.123000	-1.425361
913.328000	-2.467802
913.534000	-2.446976
913.740000	7.121059
913.946000	3.285828
914.151000	-5.007590
914.357000	-7.390268
914.563000	-2.346568
914.768000	-5.470990
914.974000	-6.918962
915.180000	-6.488214
915.385000	-4.695869
915.591000	-7.259987
915.797000	-2.820562
916.002000	-0.940233
916.208000	-4.209708
916.414000	-6.446841
916.620000	-7.067918
916.825000	-3.106879
917.031000	-3.578212
917.237000	-9.430394
917.442000	-4.582891
917.648000	-5.674050
917.854000	-7.108250
918.059000	-0.497090
918.265000	-0.544668
918.471000	-3.744785
918.676000	-7.163182
918.882000	-9.132588
919.088000	-7.766790
919.294000	-11.359323
919.499000	-6.878744
919.705000	-1.173688
919.911000	-3.087723
920.116000	-1.083635
920.322000	-8.240989
920.528000	-6.795513
920.733000	-9.390280
920.939000	-9.585893
921.145000	-8.364097
921.350000	-6.833096
921.556000	-4.065378
921.762000	-5.702752
921.968000	-6.678414
922.173000	-7.259729
922.379000	-9.220037
922.585000	-5.195823
922.790000	-6.515847
922.996000	-6.786767
923.202000	-7.871532
923.407000	-8.425315
923.613000	-6.528155
923.819000	-3.060003
924.024000	-3.489166
924.230000	-2.045840
924.436000	-4.440846
924.642000	6.126844
924.847000	1.375003
925.053000	-6.450537
925.259000	-9.883401
925.464000	-4.398577
925.670000	-6.729683
925.876000	-9.579830
926.081000	-8.444358
926.287000	-4.061802
926.493000	-3.104624
926.698000	-4.746540
926.904000	-2.126761
927.110000	-4.988160
927.316000	-4.217954
927.521000	1.026808
927.727000	-5.448394
927.933000	-6.662961
928.138000	-6.125524
928.344000	-10.718324
928.550000	-5.121531
928.755000	-0.858015
928.961000	-6.715294
929.167000	-7.986993
929.372000	0.045524
929.578000	-1.463609
929.784000	-8.217859
929.990000	-11.443699
930.195000	-7.544993
930.401000	-4.649247
930.607000	-3.718948
930.812000	-2.804588
931.018000	-7.112145
931.224000	-13.219370
931.429000	-8.905846
931.635000	-12.003463
931.841000	-12.540551
932.046000	-8.509964
932.252000	-4.394584
932.458000	3.751009
932.664000	-0.525438
932.869000	-6.650500
933.075000	-9.960261
933.281000	-9.734137
933.486000	-2.184231
933.692000	-4.814988
933.898000	-7.530624
934.103000	-1.684056
934.309000	-7.502301
934.515000	-3.158409
934.720000	-0.652726
934.926000	1.245030
935.132000	-0.976191
935.338000	-2.751718
935.543000	-8.975765
935.749000	-13.577610
935.955000	-16.198114
936.160000	-11.711281
936.366000	-1.201360
936.572000	-3.623705
936.777000	-2.299151
936.983000	-0.814917
937.189000	-5.413560
937.394000	-10.230550
937.600000	-1.555645
937.806000	4.229929
938.012000	-4.719952
938.217000	4.606800
938.423000	0.438761
938.629000	-7.030526
938.834000	-14.697743
939.040000	-15.400159
939.246000	-10.568921
939.451000	-11.575409
939.657000	-5.418682
939.863000	-12.153248
940.068000	-2.337841
940.274000	-8.011091
940.480000	-5.967968
940.686000	-4.409200
940.891000	-9.643461
941.097000	17.412188
941.303000	5.136129
941.508000	-9.791333
941.714000	-6.324854
941.920000	-16.889200
942.125000	-6.223109
942.331000	-3.633410
942.537000	2.693012
942.742000	1.619007
942.948000	-10.056921
943.154000	-14.555405
943.360000	-26.648128
943.565000	-10.032679
943.771000	4.729483
943.977000	3.683389
944.182000	-15.101892
944.388000	-15.167448
944.594000	-2.781070
944.799000	2.855525
945.005000	-6.172423
945.211000	1.675945
945.416000	0.428345
945.622000	-16.399661
945.828000	-14.230303
946.034000	-0.989634
946.239000	-1.714551
946.445000	-9.951502
946.651000	-20.009219
946.856000	-16.879836
947.062000	-3.936472
947.268000	-2.059413
947.473000	-14.498366
947.679000	-17.111945
947.885000	-4.378721
948.090000	0.449057
948.296000	11.070748
948.502000	-2.469342
948.708000	-12.675380
948.913000	-14.936687
949.119000	-2.767797
949.325000	-8.855118
949.530000	-21.661409
949.736000	-25.797684
949.942000	-14.223843
950.147000	-13.706057
950.353000	-12.727251
950.559000	-8.913641
950.764000	12.033091
950.970000	6.351989
951.176000	-8.022616
951.382000	-14.361771
951.587000	-3.817784
951.793000	0.091813
951.999000	-1.719641
952.204000	-14.400803
952.410000	-25.788806
952.616000	-11.465188
952.821000	-5.853793
953.027000	-13.113021
953.233000	-17.433691
953.438000	-15.701168
953.644000	2.082878
953.850000	-4.288019
954.056000	-13.992961
954.261000	-15.294873
954.467000	-4.370538
954.673000	2.525018
954.878000	-8.305639
955.084000	-6.145356
955.290000	-22.514857
955.495000	-22.580665
955.701000	-16.934574
955.907000	1.900671
956.112000	-1.567867
956.318000	6.697005
956.524000	4.548561
956.730000	-10.497670
956.935000	-13.080297
957.141000	-16.087972
957.347000	-4.041935
957.552000	-11.171471
957.758000	-24.885374
957.964000	-29.753356
958.169000	3.434673
958.375000	3.445312
958.581000	-12.314703
958.786000	-24.918626
958.992000	-28.514198
959.198000	-8.856058
959.404000	-1.830402
959.609000	-12.270692
959.815000	-16.869488
960.021000	0.560685
960.226000	-6.466745
960.432000	-29.959962
960.638000	-20.560558
960.843000	-13.063297
961.049000	-12.227591
961.255000	-4.280119
961.460000	-17.575347
961.666000	-41.110511
961.872000	-25.300806
962.078000	-18.094010
962.283000	-26.380116
962.489000	-25.861314
962.695000	-17.717576
962.900000	-14.494236
963.106000	-13.666668
963.312000	-16.171009
963.517000	-22.809302
963.723000	-27.990191
963.929000	-7.128743
964.134000	5.836483
964.340000	-15.528286
964.546000	-19.737714
964.752000	-24.202490
964.957000	-31.370792
965.163000	-5.840005
965.369000	-10.713955
965.574000	-6.336815
965.780000	-7.060756
966.000000	-19.113738
966.220000	-14.705947
966.440000	-12.601658
966.661000	-0.786650
966.881000	-22.442553
967.101000	-39.409905
967.321000	-38.655818
967.541000	-13.813608
967.761000	-22.060490
967.981000	-17.158947
968.202000	-13.523935
968.422000	1.873527
968.642000	0.904999
968.862000	-7.922064
969.082000	-19.465382
969.302000	-7.831090
969.522000	-8.902777
969.743000	0.332685
969.963000	-20.461250
970.183000	-32.703730
970.403000	-29.432814
970.623000	-25.973124
970.843000	-0.268621
971.063000	4.133467
971.284000	-18.639720
971.504000	-36.437321
971.724000	-16.575993
971.944000	-29.239903
972.164000	-42.209652
972.384000	-29.197004
972.604000	-41.215567
972.825000	-46.825979
973.045000	-30.630505
973.265000	22.647135
973.485000	11.045555
973.705000	-5.314259
973.925000	-16.971159
974.145000	-51.726771
974.365000	-16.433189
974.586000	-15.575412
974.806000	-34.599321
975.026000	2.083426
975.246000	-13.967230
975.466000	-33.238492
975.686000	-13.180369
975.906000	-23.929479
976.127000	-45.328393
976.347000	-37.384276
976.567000	-7.046356
976.787000	-8.566643
977.007000	-20.135793
977.227000	-28.499926
977.447000	-28.681431
977.668000	-51.161727
977.888000	-31.163944
978.108000	-30.735904
978.328000	-18.635641
978.548000	12.369216
978.768000	13.948796
978.988000	0.761026
979.209000	-15.235577
979.429000	-23.506935
979.649000	-10.565776
979.869000	-28.198986
980.089000	-42.734303
980.309000	-49.999509
980.529000	-56.334743
980.750000	-35.748635
980.970000	-48.712970
981.190000	-30.885281
981.410000	-33.649576
981.630000	-42.054441
981.850000	-24.991004
982.070000	-16.288577
982.291000	-55.976659
982.511000	-57.448374
982.731000	-14.951497
982.951000	-33.858284
983.171000	-34.395126
983.391000	-24.346835
983.611000	4.816158
983.832000	-31.567406
984.052000	-54.400292
984.272000	-26.636021
984.492000	-16.073180
984.712000	-27.779194
984.932000	-51.563414
985.152000	-51.993805
985.373000	-35.044662
985.593000	-21.695790
985.813000	-37.556315
986.033000	-47.512455
986.253000	2.873771
986.473000	8.056043
986.693000	-28.612077
986.914000	-41.801726
987.134000	10.975630
987.354000	-28.517991
987.574000	198.144028
987.794000	117.820722
988.014000	-42.014990
988.234000	-32.844838
988.455000	-15.409602
988.675000	-14.656357
988.895000	-31.065616
989.115000	-37.537445
989.335000	-11.123859
989.555000	-3.504254
989.775000	-48.031245
989.995000	-46.456680
990.216000	-32.853837
990.436000	-19.157800
990.656000	15.413828
990.876000	-29.461636
991.096000	-23.872325
991.316000	12.525960
991.536000	-13.941349
991.757000	-33.228132
991.977000	-83.093283
992.197000	-27.201323
992.417000	-30.937451
992.637000	-83.346284
992.857000	-82.431046
993.077000	-74.051453
993.298000	-45.923040
993.518000	-45.301532
993.738000	-88.681453
993.958000	-45.280187
994.178000	-49.706005
994.398000	-37.188260
994.618000	-91.941853
994.839000	-133.112314
995.059000	-18.844493
995.279000	32.532787
995.499000	-16.928006
995.719000	-17.423074
995.939000	-43.120722
996.159000	-44.263637
996.380000	-23.845880
996.600000	-73.083809
996.820000	-43.752949
997.040000	6.496732
997.260000	-63.263668
997.480000	-37.480052
997.700000	-110.493216
997.921000	-72.678705
998.141000	24.937165
998.361000	-5.754699
998.581000	-43.164730
998.801000	-69.248965
999.021000	-49.439162
999.241000	-36.361617
999.462000	-66.093296
999.682000	-119.192882
999.902000	-89.643253
1000.122000	-92.623113
1000.342000	-135.906055
1000.562000	-62.395254
1000.782000	-78.644850
1001.003000	-1049.410124
