Wavelength	Irradiance
(nm)	(mW/cm2/nm)

294.396000	0.000000
294.577000	0.000000
294.757000	0.000000
294.938000	-0.000000
295.118000	0.000000
295.299000	0.000000
295.479000	-0.000000
295.660000	-0.000000
295.840000	-0.000000
296.021000	-0.000000
296.202000	-0.000000
296.382000	-0.000000
296.563000	-0.000000
296.743000	-0.000000
296.924000	0.000000
297.104000	-0.000000
297.285000	-0.000000
297.465000	-0.000000
297.646000	-0.000000
297.826000	-0.000000
298.007000	0.000000
298.187000	0.000000
298.368000	-0.000000
298.548000	0.000000
298.729000	0.000000
298.909000	-0.000000
299.090000	-0.000000
299.270000	-0.000000
299.451000	-0.000000
299.631000	-0.000000
299.812000	-0.000000
299.992000	0.000000
300.173000	0.000000
300.353000	-0.000000
300.534000	0.000000
300.714000	0.000000
300.895000	0.000000
301.075000	-0.000000
301.256000	0.000000
301.436000	-0.000000
301.617000	-0.000000
301.797000	-0.000000
301.978000	-0.000000
302.159000	0.000000
302.339000	0.000000
302.520000	-0.000000
302.700000	-0.000000
302.881000	0.000000
303.061000	0.000000
303.242000	0.000000
303.422000	0.000000
303.603000	-0.000000
303.783000	-0.000000
303.964000	0.000000
304.144000	-0.000000
304.325000	-0.000000
304.505000	0.000000
304.686000	-0.000000
304.866000	0.000000
305.047000	-0.000000
305.227000	-0.000000
305.408000	-0.000000
305.588000	-0.000000
305.769000	-0.000000
305.949000	-0.000000
306.130000	-0.000000
306.310000	-0.000000
306.491000	-0.000000
306.671000	0.000000
306.852000	-0.000000
307.032000	-0.000000
307.213000	0.000000
307.393000	-0.000000
307.574000	0.000000
307.755000	0.000000
307.935000	0.000000
308.116000	-0.000000
308.296000	-0.000000
308.477000	0.000000
308.657000	0.000000
308.838000	0.000000
309.018000	0.000000
309.199000	-0.000000
309.379000	-0.000000
309.560000	0.000000
309.740000	-0.000000
309.921000	0.000000
310.101000	-0.000000
310.282000	-0.000000
310.462000	-0.000000
310.643000	-0.000000
310.823000	-0.000000
311.004000	-0.000000
311.184000	-0.000000
311.365000	0.000000
311.545000	0.000000
311.726000	0.000000
311.906000	-0.000000
312.087000	0.000000
312.267000	-0.000000
312.448000	-0.000000
312.628000	-0.000000
312.809000	-0.000000
312.989000	-0.000000
313.170000	-0.000000
313.344000	-0.000000
313.518000	-0.000000
313.691000	-0.000000
313.865000	-0.000000
314.039000	-0.000000
314.213000	-0.000000
314.387000	-0.000000
314.560000	-0.000000
314.734000	-0.000000
314.908000	-0.000000
315.082000	-0.000000
315.255000	0.000000
315.429000	0.000000
315.603000	0.000000
315.777000	-0.000000
315.951000	0.000000
316.124000	-0.000000
316.298000	-0.000000
316.472000	-0.000000
316.646000	-0.000000
316.820000	-0.000000
316.993000	0.000000
317.167000	-0.000000
317.341000	-0.000000
317.515000	-0.000000
317.688000	-0.000000
317.862000	-0.000000
318.036000	-0.000000
318.210000	-0.000000
318.384000	-0.000000
318.557000	-0.000000
318.731000	-0.000000
318.905000	-0.000000
319.079000	0.000000
319.253000	-0.000000
319.426000	0.000000
319.600000	0.000000
319.774000	-0.000000
319.948000	-0.000000
320.122000	0.000000
320.295000	0.000000
320.469000	-0.000000
320.643000	-0.000000
320.817000	-0.000000
320.990000	-0.000000
321.164000	-0.000000
321.338000	-0.000000
321.512000	-0.000000
321.686000	-0.000000
321.859000	-0.000000
322.033000	0.000000
322.207000	-0.000000
322.381000	-0.000000
322.555000	0.000000
322.728000	-0.000000
322.902000	-0.000000
323.076000	-0.000000
323.250000	-0.000000
323.423000	-0.000000
323.597000	-0.000000
323.771000	-0.000000
323.945000	-0.000000
324.119000	-0.000000
324.292000	0.000000
324.466000	-0.000000
324.640000	0.000000
324.814000	0.000000
324.988000	-0.000000
325.161000	-0.000000
325.335000	-0.000000
325.509000	-0.000000
325.683000	-0.000000
325.856000	-0.000000
326.030000	-0.000000
326.204000	-0.000000
326.378000	-0.000000
326.552000	-0.000000
326.725000	-0.000000
326.899000	-0.000000
327.073000	-0.000000
327.247000	-0.000000
327.421000	0.000000
327.594000	0.000000
327.768000	-0.000000
327.942000	-0.000000
328.116000	0.000000
328.289000	0.000000
328.463000	0.000000
328.637000	0.000000
328.811000	-0.000000
328.985000	-0.000000
329.158000	-0.000000
329.332000	-0.000000
329.506000	0.000000
329.680000	-0.000000
329.854000	-0.000000
330.027000	-0.000000
330.201000	0.000000
330.375000	0.000000
330.549000	0.000000
330.723000	-0.000000
330.896000	-0.000000
331.070000	-0.000000
331.244000	-0.000000
331.418000	-0.000000
331.591000	-0.000000
331.765000	-0.000000
331.939000	-0.000000
332.113000	-0.000000
332.287000	-0.000000
332.460000	0.000000
332.634000	0.000000
332.808000	-0.000000
332.982000	-0.000000
333.156000	-0.000000
333.329000	-0.000000
333.503000	-0.000000
333.677000	-0.000000
333.851000	-0.000000
334.024000	-0.000000
334.198000	-0.000000
334.372000	-0.000000
334.546000	-0.000000
334.720000	-0.000000
334.893000	-0.000000
335.067000	-0.000000
335.241000	-0.000000
335.415000	-0.000000
335.589000	-0.000000
335.762000	-0.000000
335.936000	-0.000000
336.110000	-0.000000
336.284000	-0.000000
336.458000	-0.000000
336.631000	-0.000000
336.805000	-0.000000
336.979000	-0.000000
337.153000	-0.000000
337.326000	-0.000000
337.500000	-0.000000
337.674000	-0.000000
337.848000	-0.000000
338.022000	0.000000
338.195000	-0.000000
338.369000	-0.000000
338.543000	-0.000000
338.717000	-0.000000
338.891000	0.000000
339.064000	0.000000
339.238000	-0.000000
339.412000	-0.000000
339.586000	-0.000000
339.759000	-0.000000
339.933000	-0.000000
340.107000	0.000000
340.281000	-0.000000
340.455000	-0.000000
340.628000	-0.000000
340.802000	-0.000000
340.976000	0.000000
341.150000	-0.000000
341.324000	-0.000000
341.497000	-0.000000
341.671000	-0.000000
341.845000	-0.000000
342.019000	-0.000000
342.192000	-0.000000
342.366000	-0.000000
342.540000	-0.000000
342.714000	-0.000000
342.888000	-0.000000
343.061000	-0.000000
343.235000	-0.000000
343.409000	-0.000000
343.583000	-0.000000
343.757000	-0.000000
343.930000	-0.000000
344.104000	-0.000000
344.278000	0.000000
344.452000	0.000000
344.626000	-0.000000
344.799000	-0.000000
344.973000	-0.000000
345.147000	-0.000000
345.321000	-0.000000
345.494000	-0.000000
345.668000	0.000000
345.842000	0.000000
346.016000	-0.000000
346.190000	0.000000
346.363000	0.000000
346.537000	-0.000000
346.711000	-0.000000
346.885000	-0.000000
347.059000	-0.000000
347.232000	0.000000
347.406000	0.000000
347.580000	-0.000000
347.754000	-0.000000
347.927000	0.000000
348.101000	0.000000
348.275000	-0.000000
348.449000	-0.000000
348.623000	-0.000000
348.796000	0.000000
348.970000	0.000000
349.144000	-0.000000
349.318000	-0.000000
349.492000	-0.000000
349.665000	-0.000000
349.839000	-0.000000
350.013000	-0.000000
350.187000	-0.000000
350.361000	-0.000000
350.534000	-0.000000
350.708000	-0.000000
350.882000	-0.000000
351.056000	0.000000
351.229000	0.000000
351.403000	-0.000000
351.577000	-0.000000
351.751000	-0.000000
351.925000	-0.000000
352.098000	-0.000000
352.272000	-0.000000
352.446000	-0.000000
352.620000	-0.000000
352.794000	-0.000000
352.967000	-0.000000
353.141000	0.000000
353.315000	0.000000
353.489000	-0.000000
353.662000	-0.000000
353.836000	-0.000000
354.010000	-0.000000
354.184000	0.000000
354.358000	-0.000000
354.531000	-0.000000
354.705000	-0.000000
354.879000	-0.000000
355.053000	-0.000000
355.227000	0.000000
355.400000	-0.000000
355.574000	0.000000
355.748000	0.000000
355.922000	-0.000000
356.095000	-0.000000
356.269000	-0.000000
356.443000	-0.000000
356.617000	-0.000000
356.791000	-0.000000
356.964000	-0.000000
357.138000	-0.000000
357.312000	-0.000000
357.486000	-0.000000
357.660000	-0.000000
357.833000	0.000000
358.007000	-0.000000
358.181000	-0.000000
358.355000	-0.000000
358.529000	-0.000000
358.702000	-0.000000
358.876000	-0.000000
359.050000	-0.000000
359.224000	-0.000000
359.397000	0.000000
359.571000	-0.000000
359.745000	-0.000000
359.919000	-0.000000
360.093000	0.003872
360.266000	0.095872
360.440000	0.151661
360.614000	0.107824
360.788000	-0.005849
360.962000	-0.185221
361.135000	-0.059424
361.309000	-0.193624
361.483000	-0.316435
361.657000	-0.252184
361.830000	-0.228754
362.004000	-0.008605
362.178000	-0.326513
362.352000	-0.306131
362.526000	-0.093586
362.699000	-0.052423
362.873000	-0.397134
363.047000	-0.415541
363.221000	-0.351103
363.395000	-0.125773
363.568000	-0.183919
363.742000	-0.203282
363.916000	-0.256412
364.090000	-0.320810
364.263000	-0.285894
364.437000	-0.379553
364.611000	-0.096664
364.785000	-0.031649
364.959000	-0.201779
365.132000	-0.237718
365.306000	-0.296259
365.480000	-0.167921
365.656000	-0.183998
365.831000	-0.182495
366.007000	-0.171183
366.183000	-0.086020
366.358000	-0.231063
366.534000	-0.153569
366.710000	-0.299220
366.886000	-0.212036
367.061000	-0.043679
367.237000	0.015768
367.413000	-0.139321
367.588000	-0.309535
367.764000	-0.224113
367.940000	-0.282609
368.115000	-0.272565
368.291000	-0.318748
368.467000	-0.173887
368.643000	0.116021
368.818000	-0.275527
368.994000	-0.394947
369.170000	-0.266250
369.345000	-0.175471
369.521000	-0.214268
369.697000	-0.087334
369.872000	-0.229953
370.048000	-0.410725
370.224000	-0.299689
370.399000	-0.483936
370.575000	-0.411580
370.751000	-0.504810
370.927000	-0.392260
371.102000	-0.368898
371.278000	-0.334336
371.454000	-0.232364
371.629000	0.016546
371.805000	-0.066121
371.981000	0.112307
372.156000	0.218296
372.332000	0.013355
372.508000	0.004726
372.683000	0.001762
372.859000	-0.128351
373.035000	-0.129729
373.211000	0.277742
373.386000	0.037703
373.562000	-0.385773
373.738000	-0.455881
373.913000	-0.656685
374.089000	-0.477052
374.265000	0.010751
374.440000	0.010846
374.616000	0.070947
374.792000	-0.126927
374.968000	0.212633
375.143000	-0.030663
375.319000	-0.279044
375.495000	-0.378401
375.670000	-0.250893
375.846000	-0.131554
376.022000	-0.288613
376.197000	-0.209036
376.373000	-0.409948
376.549000	-0.411451
376.724000	-0.444696
376.900000	-0.335172
377.076000	-0.205161
377.252000	0.050280
377.427000	0.168466
377.603000	-0.199058
377.779000	-0.204954
377.954000	-0.348056
378.130000	-0.184197
378.306000	-0.185985
378.481000	-0.185222
378.657000	-0.250092
378.833000	-0.292521
379.009000	-0.151793
379.184000	-0.032874
379.360000	-0.061171
379.536000	-0.093382
379.711000	-0.141814
379.887000	-0.232113
380.063000	-0.292488
380.238000	-0.415356
380.414000	-0.126986
380.590000	-0.341911
380.765000	-0.386913
380.941000	-0.100772
381.117000	-0.102958
381.293000	-0.176087
381.468000	-0.302487
381.644000	-0.256021
381.820000	-0.128689
381.995000	0.036065
382.171000	0.295063
382.347000	0.231514
382.522000	-0.241068
382.698000	0.132432
382.874000	0.140746
383.050000	-0.332491
383.225000	-0.029659
383.401000	0.159084
383.577000	-0.211506
383.752000	-0.252641
383.928000	-0.108273
384.104000	-0.119657
384.279000	-0.203637
384.455000	-0.113559
384.631000	-0.130615
384.806000	-0.368263
384.982000	-0.122313
385.158000	-0.208647
385.334000	-0.146674
385.509000	-0.141663
385.685000	-0.443672
385.861000	-0.269542
386.036000	-0.339043
386.212000	-0.529597
386.388000	-0.366900
386.563000	-0.285382
386.739000	-0.313748
386.915000	-0.556816
387.090000	-0.278912
387.266000	-0.049148
387.442000	0.060954
387.618000	-0.051514
387.793000	-0.323034
387.969000	-0.486561
388.145000	-0.395112
388.320000	-0.327869
388.496000	-0.325770
388.672000	-0.583400
388.847000	-0.140424
389.023000	-0.096462
389.199000	-0.392935
389.375000	-0.151154
389.550000	-0.307185
389.726000	-0.263732
389.902000	-0.416084
390.077000	-0.222497
390.253000	-0.170729
390.429000	-0.247248
390.604000	-0.120546
390.780000	-0.108892
390.956000	-0.247913
391.131000	-0.299445
391.307000	0.009861
391.483000	-0.176330
391.659000	-0.317004
391.834000	-0.135119
392.010000	-0.225076
392.186000	-0.274530
392.361000	-0.236759
392.537000	-0.332182
392.713000	0.128234
392.888000	0.214760
393.064000	-0.066067
393.240000	-0.263060
393.416000	-0.350021
393.591000	-0.412028
393.767000	-0.445883
393.943000	-0.343873
394.118000	0.030894
394.294000	0.219841
394.470000	0.014866
394.645000	0.086267
394.821000	0.275740
394.997000	-0.048668
395.172000	-0.085246
395.348000	-0.201407
395.524000	-0.483967
395.700000	-0.324853
395.875000	-0.084620
396.051000	-0.115810
396.227000	-0.187623
396.402000	-0.289004
396.578000	-0.145977
396.754000	-0.252633
396.929000	-0.269767
397.105000	-0.001042
397.281000	-0.055731
397.457000	-0.200981
397.632000	-0.201433
397.808000	-0.440597
397.984000	-0.592286
398.159000	-0.466037
398.335000	-0.249871
398.511000	0.226643
398.686000	0.011889
398.862000	-0.332179
399.038000	-0.428621
399.213000	-0.123343
399.389000	-0.442556
399.565000	-0.190450
399.741000	0.047559
399.916000	-0.013941
400.092000	0.201926
400.268000	-0.130962
400.443000	-0.245967
400.619000	0.109630
400.795000	0.004133
400.970000	-0.238053
401.146000	-0.277366
401.322000	-0.008758
401.497000	0.331032
401.673000	0.079174
401.849000	-0.186706
402.025000	-0.001027
402.200000	-0.164923
402.376000	-0.241644
402.552000	0.191750
402.727000	-0.026607
402.903000	-0.366094
403.079000	-0.289700
403.254000	0.070570
403.430000	0.062479
403.606000	-0.044266
403.782000	-0.069618
403.957000	-0.253275
404.133000	-0.437861
404.309000	-0.276836
404.484000	-0.059546
404.660000	-0.049505
404.841000	-0.133797
405.023000	0.067549
405.204000	0.001528
405.385000	-0.279911
405.566000	-0.319406
405.748000	-0.181185
405.929000	-0.021727
406.110000	-0.054712
406.292000	-0.147815
406.473000	-0.087285
406.654000	-0.269561
406.835000	-0.105519
407.017000	-0.140668
407.198000	-0.108969
407.379000	-0.128700
407.560000	-0.156732
407.742000	-0.160479
407.923000	-0.087557
408.104000	-0.292328
408.286000	-0.137525
408.467000	-0.003530
408.648000	-0.236262
408.829000	-0.308531
409.011000	-0.167582
409.192000	-0.393731
409.373000	-0.165478
409.555000	-0.006074
409.736000	-0.041225
409.917000	-0.139778
410.098000	-0.108776
410.280000	-0.038319
410.461000	-0.068056
410.642000	-0.055740
410.823000	0.148254
411.005000	0.081195
411.186000	-0.150536
411.367000	-0.198060
411.549000	-0.220351
411.730000	-0.003489
411.911000	0.138319
412.092000	-0.040678
412.274000	-0.089604
412.455000	-0.025654
412.636000	0.003950
412.818000	-0.170668
412.999000	-0.276986
413.180000	-0.180366
413.361000	-0.126776
413.543000	-0.172711
413.724000	-0.250573
413.905000	-0.199192
414.087000	-0.233939
414.268000	-0.260479
414.449000	-0.253676
414.630000	-0.303448
414.812000	-0.370995
414.993000	-0.017859
415.174000	0.105276
415.355000	-0.088434
415.537000	-0.320243
415.718000	-0.068763
415.899000	-0.133737
416.081000	-0.238968
416.262000	-0.082531
416.443000	-0.178050
416.624000	-0.117948
416.806000	0.027750
416.987000	0.133644
417.168000	0.053998
417.350000	-0.151445
417.531000	-0.219391
417.712000	-0.183761
417.893000	0.082116
418.075000	0.195300
418.256000	-0.012805
418.437000	0.127611
418.618000	0.188830
418.800000	0.224061
418.981000	-0.000943
419.162000	0.088043
419.344000	0.230038
419.525000	0.084361
419.706000	0.015657
419.887000	0.221602
420.069000	0.382193
420.250000	0.216582
420.431000	0.166523
420.613000	0.174422
420.794000	-0.079303
420.975000	0.328033
421.156000	0.145027
421.338000	0.060222
421.519000	0.090785
421.700000	0.039158
421.882000	0.072170
422.063000	0.253152
422.244000	0.748128
422.425000	0.511308
422.607000	0.127265
422.788000	0.129038
422.969000	0.085900
423.150000	0.029606
423.332000	-0.017338
423.513000	0.248204
423.694000	0.303851
423.876000	0.368887
424.057000	0.427844
424.238000	0.441274
424.419000	0.501851
424.601000	0.373734
424.782000	0.423105
424.963000	0.593445
425.145000	0.543240
425.326000	0.608932
425.507000	0.617403
425.688000	0.514607
425.870000	0.355941
426.051000	0.247876
426.232000	0.290104
426.413000	0.381526
426.595000	0.449985
426.776000	0.447430
426.957000	0.517731
427.139000	0.597709
427.320000	0.694672
427.501000	0.803905
427.682000	0.795265
427.864000	0.811295
428.045000	1.019084
428.226000	0.920837
428.408000	0.669019
428.589000	0.890119
428.770000	0.906915
428.951000	0.792674
429.133000	0.631125
429.314000	0.828942
429.495000	0.893758
429.677000	0.910953
429.858000	0.911939
430.039000	1.072365
430.220000	1.236623
430.402000	1.340236
430.583000	1.085752
430.764000	1.104756
430.945000	1.305572
431.127000	1.412281
431.308000	1.287997
431.489000	1.480947
431.671000	1.587300
431.852000	1.539618
432.033000	1.537471
432.214000	1.668573
432.396000	1.707987
432.577000	1.547652
432.758000	1.364045
432.940000	1.538527
433.121000	1.751960
433.302000	1.824524
433.483000	2.018733
433.665000	2.224656
433.846000	2.143675
434.027000	2.041072
434.208000	2.026980
434.390000	2.020705
434.571000	2.482465
434.752000	3.008141
434.934000	2.869433
435.115000	2.826676
435.296000	2.964152
435.477000	2.831046
435.659000	2.619972
435.840000	2.711048
436.026000	2.747791
436.211000	2.742543
436.397000	2.540597
436.582000	2.767916
436.768000	3.086137
436.953000	3.028606
437.139000	3.073021
437.325000	3.468019
437.510000	3.491809
437.696000	3.667518
437.881000	3.703499
438.067000	3.459331
438.252000	3.634730
438.438000	3.638719
438.624000	3.735072
438.809000	3.959312
438.995000	4.152576
439.180000	4.109415
439.366000	4.105133
439.551000	4.235899
439.737000	4.428041
439.923000	4.561335
440.108000	4.600660
440.294000	4.769480
440.479000	4.979837
440.665000	5.039085
440.850000	5.085244
441.036000	5.186014
441.222000	5.297516
441.407000	5.311312
441.593000	5.476740
441.778000	5.694197
441.964000	6.028019
442.149000	5.783335
442.335000	5.817301
442.521000	6.081633
442.706000	6.351724
442.892000	6.348460
443.077000	6.440881
443.263000	6.687130
443.448000	6.737948
443.634000	6.831991
443.820000	7.244426
444.005000	7.278887
444.191000	7.213452
444.376000	7.331682
444.562000	7.867217
444.747000	8.037725
444.933000	8.063936
445.119000	8.179481
445.304000	8.184675
445.490000	8.510358
445.675000	8.657335
445.861000	8.661985
446.046000	8.836924
446.232000	9.120232
446.418000	9.350275
446.603000	9.479495
446.789000	9.644113
446.974000	9.891436
447.160000	9.819280
447.345000	9.967858
447.531000	10.144930
447.717000	10.601197
447.902000	10.855573
448.088000	11.059719
448.273000	11.146146
448.459000	11.221440
448.644000	11.374453
448.830000	11.649357
449.016000	11.686093
449.201000	11.919577
449.387000	12.350538
449.572000	12.643985
449.758000	12.617602
449.943000	12.778789
450.129000	12.878462
450.315000	13.062715
450.500000	13.336894
450.686000	13.771387
450.871000	13.844965
451.057000	14.148638
451.243000	14.296810
451.428000	14.518943
451.614000	14.743090
451.799000	14.896535
451.985000	15.406519
452.170000	15.677857
452.356000	15.656622
452.542000	15.845455
452.727000	16.092832
452.913000	16.145358
453.098000	16.501345
453.284000	16.858517
453.469000	16.910447
453.655000	17.240424
453.841000	17.326926
454.026000	17.124105
454.212000	17.342130
454.397000	17.516079
454.583000	17.584840
454.768000	17.558568
454.954000	17.999984
455.140000	18.271152
455.325000	18.028719
455.511000	18.140007
455.696000	18.355284
455.882000	18.554875
456.067000	18.871679
456.253000	18.677497
456.439000	18.570116
456.624000	18.548365
456.810000	18.711188
456.995000	18.826816
457.181000	18.669357
457.366000	18.788782
457.552000	18.635956
457.738000	18.861434
457.923000	18.836362
458.109000	19.125409
458.294000	18.886273
458.480000	18.843303
458.665000	18.686221
458.851000	18.420540
459.037000	18.140011
459.222000	18.154820
459.408000	18.030010
459.593000	18.015852
459.779000	17.900824
459.964000	17.976385
460.150000	18.075413
460.336000	17.853898
460.521000	17.395517
460.707000	17.028486
460.892000	16.838146
461.078000	16.883267
461.263000	16.620539
461.449000	16.309831
461.635000	16.117945
461.820000	15.926776
462.006000	15.917349
462.191000	15.650521
462.377000	15.200284
462.562000	15.449695
462.748000	15.374914
462.934000	14.691931
463.119000	14.183773
463.305000	14.193920
463.490000	13.895807
463.676000	13.666073
463.861000	13.480062
464.047000	13.196129
464.233000	13.000633
464.418000	12.802376
464.604000	12.476610
464.789000	12.432453
464.975000	12.240793
465.160000	11.993273
465.346000	11.722176
465.532000	11.360594
465.717000	11.195357
465.903000	11.252628
466.088000	10.989855
466.274000	10.538780
466.459000	10.221064
466.645000	10.518122
466.831000	10.299757
467.016000	10.063756
467.202000	9.817851
467.387000	9.628766
467.573000	9.284633
467.758000	9.378551
467.944000	9.135137
468.130000	8.898571
468.315000	8.845508
468.501000	8.817594
468.686000	8.591246
468.872000	8.441341
469.057000	8.343819
469.243000	8.161106
469.429000	8.007524
469.614000	7.769419
469.800000	7.570459
469.985000	7.622026
470.171000	7.584656
470.356000	7.292612
470.542000	7.338539
470.728000	7.207659
470.913000	7.034678
471.099000	7.074373
471.284000	6.880993
471.470000	6.733056
471.655000	6.689204
471.841000	6.480121
472.027000	6.263940
472.212000	6.379709
472.398000	6.368487
472.583000	6.208909
472.769000	6.134472
472.954000	6.042604
473.140000	5.797575
473.326000	5.680132
473.511000	5.864471
473.697000	5.743019
473.882000	5.532201
474.068000	5.422584
474.253000	5.227910
474.439000	5.284510
474.625000	5.244501
474.810000	5.185715
474.996000	5.066005
475.181000	4.840809
475.367000	4.975880
475.552000	5.070538
475.738000	4.669591
475.924000	4.630085
476.109000	4.622867
476.295000	4.398487
476.480000	4.372622
476.666000	4.299929
476.851000	4.254820
477.037000	4.155113
477.223000	3.983355
477.408000	3.853997
477.594000	3.716459
477.779000	3.797431
477.965000	3.739702
478.151000	3.542108
478.336000	3.617013
478.522000	3.486884
478.707000	3.363256
478.893000	3.361261
479.078000	3.217030
479.264000	3.199906
479.450000	3.183232
479.635000	3.175330
479.821000	3.094670
480.006000	3.099501
480.192000	2.956676
480.377000	2.921771
480.563000	2.900951
480.749000	2.647693
480.934000	2.621527
481.120000	2.676291
481.305000	2.701170
481.491000	2.692446
481.676000	2.675149
481.862000	2.587663
482.048000	2.403503
482.233000	2.377393
482.419000	2.276956
482.604000	2.159005
482.790000	2.191370
482.975000	2.232933
483.161000	2.278209
483.347000	2.217318
483.532000	2.121151
483.718000	1.857115
483.903000	1.868713
484.089000	1.891103
484.274000	1.784282
484.460000	1.868593
484.646000	1.786219
484.831000	1.692350
485.017000	1.704940
485.202000	1.678480
485.388000	1.855891
485.573000	1.836201
485.759000	1.633650
485.945000	1.760835
486.130000	1.541706
486.316000	1.560160
486.501000	1.613031
486.687000	1.404431
486.872000	1.307789
487.058000	1.429798
487.244000	1.418205
487.429000	1.247016
487.615000	1.405461
487.800000	1.485210
487.986000	1.353841
488.171000	1.452809
488.357000	1.341772
488.543000	1.312213
488.728000	1.298536
488.914000	1.182954
489.099000	1.078226
489.285000	1.095073
489.470000	1.241707
489.656000	1.279565
489.842000	1.213340
490.027000	1.267302
490.213000	1.118963
490.398000	0.816581
490.584000	1.065405
490.769000	1.072393
490.955000	1.079267
491.141000	1.125629
491.326000	1.074853
491.512000	1.166253
491.697000	1.037548
491.883000	0.857937
492.068000	0.762820
492.254000	0.804070
492.440000	0.859060
492.625000	0.778737
492.811000	0.713347
492.996000	0.863936
493.182000	0.873201
493.367000	0.677685
493.553000	0.571093
493.739000	0.639022
493.924000	0.732720
494.110000	0.721819
494.295000	0.572484
494.481000	0.667407
494.666000	0.664452
494.852000	0.843102
495.038000	0.680818
495.223000	0.544989
495.409000	0.618798
495.594000	0.527516
495.780000	0.536372
495.965000	0.490834
496.151000	0.669226
496.337000	0.670305
496.522000	0.469229
496.708000	0.567980
496.893000	0.675204
497.079000	0.468020
497.264000	0.434922
497.450000	0.479177
497.636000	0.561075
497.821000	0.373416
498.007000	0.591795
498.192000	0.656861
498.378000	0.472531
498.563000	0.403120
498.749000	0.444292
498.935000	0.438534
499.120000	0.557579
499.306000	0.351696
499.491000	0.269648
499.677000	0.386107
499.862000	0.445215
500.048000	0.483362
500.234000	0.334754
500.419000	0.308210
500.605000	0.452874
500.790000	0.359046
500.976000	0.250853
501.161000	0.162433
501.347000	0.325532
501.533000	0.426047
501.718000	0.318752
501.904000	0.256481
502.089000	0.335322
502.275000	0.400796
502.460000	0.267315
502.646000	0.299887
502.832000	0.351019
503.017000	0.302357
503.203000	0.098199
503.388000	0.077928
503.574000	0.301008
503.759000	0.338415
503.945000	0.342407
504.131000	0.222922
504.316000	0.166493
504.502000	0.200686
504.687000	0.187533
504.873000	0.067796
505.058000	0.069500
505.244000	0.057503
505.430000	0.085045
505.615000	0.179577
505.801000	0.219460
505.986000	0.043817
506.172000	0.107212
506.358000	0.143504
506.543000	0.122838
506.729000	0.298011
506.914000	0.219526
507.100000	0.327308
507.285000	0.146292
507.471000	0.007946
507.657000	0.256645
507.842000	0.156258
508.028000	-0.066273
508.213000	-0.017994
508.399000	0.087728
508.584000	0.250951
508.770000	0.143098
508.956000	0.058255
509.141000	0.082455
509.327000	0.171151
509.512000	0.108232
509.698000	0.113591
509.883000	0.174682
510.069000	0.105510
510.255000	0.116008
510.440000	0.170215
510.626000	0.103889
510.811000	0.025486
510.997000	0.084855
511.182000	0.334133
511.368000	0.243714
511.554000	-0.098521
511.739000	-0.005935
511.925000	0.160007
512.110000	0.180798
512.296000	0.294969
512.481000	0.306842
512.667000	0.167232
512.853000	-0.018196
513.038000	0.083397
513.224000	0.041358
513.409000	-0.033994
513.595000	0.088808
513.780000	-0.056837
513.966000	0.020300
514.152000	0.009801
514.337000	-0.095249
514.523000	-0.019962
514.708000	0.013322
514.894000	0.022147
515.079000	-0.054976
515.265000	0.001054
515.451000	0.025661
515.636000	-0.062173
515.822000	0.029191
516.007000	-0.097435
516.193000	0.087148
516.378000	0.147139
516.564000	0.039719
516.750000	0.011603
516.935000	0.104835
517.121000	0.132953
517.306000	0.210525
517.492000	0.187924
517.677000	-0.062336
517.863000	-0.122229
518.049000	0.004581
518.234000	-0.058799
518.420000	0.090952
518.605000	0.274171
518.791000	0.217677
518.976000	0.038192
519.162000	-0.055418
519.348000	0.043425
519.533000	0.006346
519.719000	0.202209
519.904000	0.119414
520.090000	0.089202
520.275000	0.270962
520.461000	0.220239
520.647000	0.011664
520.832000	-0.179683
521.018000	-0.044892
521.203000	-0.037699
521.389000	-0.222509
521.574000	-0.143440
521.760000	0.020468
521.946000	0.041769
522.131000	-0.018422
522.317000	-0.004245
522.502000	-0.059048
522.688000	0.015211
522.873000	-0.059130
523.059000	-0.073344
523.245000	-0.013098
523.430000	-0.114129
523.616000	-0.098152
523.801000	-0.181662
523.987000	-0.118008
524.172000	0.038384
524.358000	0.091734
524.544000	0.011714
524.729000	0.078950
524.915000	0.121725
525.100000	-0.039731
525.286000	0.034816
525.471000	0.047384
525.657000	0.072398
525.843000	-0.120329
526.028000	0.010005
526.214000	-0.068578
526.399000	-0.206687
526.585000	-0.230017
526.770000	-0.221034
526.956000	-0.110254
527.142000	-0.121006
527.327000	-0.006111
527.513000	-0.101500
527.698000	-0.094407
527.884000	-0.103792
528.069000	-0.127042
528.255000	0.006505
528.441000	-0.114697
528.626000	-0.082386
528.812000	0.187848
528.997000	0.028343
529.183000	-0.100611
529.368000	-0.020800
529.554000	-0.057442
529.740000	-0.118142
529.925000	-0.118168
530.111000	-0.094418
530.296000	-0.006255
530.482000	0.109912
530.667000	0.023246
530.853000	0.049232
531.039000	-0.039694
531.224000	0.036551
531.410000	0.142802
531.595000	0.044037
531.781000	0.105631
531.967000	-0.064559
532.152000	0.055724
532.338000	-0.000755
532.523000	-0.138718
532.709000	-0.173374
532.894000	-0.101792
533.080000	-0.086635
533.266000	-0.197462
533.451000	-0.186696
533.637000	-0.141150
533.822000	0.047495
534.008000	-0.103008
534.193000	-0.109199
534.379000	-0.000777
534.565000	-0.067112
534.750000	-0.128064
534.936000	0.081769
535.121000	-0.059909
535.307000	-0.014608
535.492000	-0.006723
535.678000	-0.165890
535.864000	-0.016791
536.049000	0.266588
536.235000	0.041462
536.420000	0.007279
536.606000	-0.110307
536.791000	-0.208869
536.977000	-0.150091
537.163000	0.079237
537.348000	0.040470
537.534000	0.109336
537.719000	-0.069600
537.905000	-0.180743
538.090000	0.064267
538.276000	0.127722
538.462000	0.092191
538.647000	0.122288
538.833000	0.031166
539.018000	0.114953
539.204000	0.095717
539.389000	-0.082976
539.575000	0.221887
539.761000	0.188219
539.946000	-0.120976
540.132000	0.003507
540.317000	-0.106407
540.503000	-0.007491
540.688000	0.112185
540.874000	0.341584
541.060000	0.490419
541.245000	0.338606
541.431000	0.216579
541.616000	0.223917
541.802000	0.181357
541.987000	0.281162
542.173000	0.295827
542.359000	0.171446
542.544000	0.318390
542.730000	0.217349
542.915000	0.195084
543.101000	0.306934
543.286000	0.079064
543.472000	0.035870
543.658000	0.141743
543.843000	0.137478
544.029000	0.362387
544.214000	0.249316
544.400000	-0.082116
544.585000	0.115308
544.771000	0.213646
544.957000	0.356690
545.142000	0.462254
545.328000	0.489270
545.513000	0.501932
545.699000	0.478137
545.884000	0.332043
546.070000	0.301480
546.261000	0.200613
546.451000	0.013321
546.642000	-0.162982
546.833000	-0.024824
547.023000	-0.110726
547.214000	-0.094402
547.405000	-0.000958
547.595000	0.260493
547.786000	0.237417
547.977000	0.003863
548.167000	-0.112125
548.358000	-0.051941
548.549000	0.254813
548.740000	0.084288
548.930000	-0.222734
549.121000	-0.113398
549.312000	-0.180070
549.502000	-0.283792
549.693000	-0.121386
549.884000	0.023596
550.074000	0.063145
550.265000	-0.164172
550.456000	-0.030733
550.646000	0.013912
550.837000	-0.018391
551.028000	-0.103026
551.218000	0.051251
551.409000	-0.045977
551.600000	-0.071026
551.790000	0.081851
551.981000	-0.226963
552.172000	-0.257570
552.362000	0.102078
552.553000	0.234002
552.744000	0.024243
552.934000	-0.038924
553.125000	-0.135210
553.316000	-0.135296
553.506000	0.303649
553.697000	0.037205
553.888000	-0.006105
554.079000	0.215378
554.269000	0.172271
554.460000	-0.179860
554.651000	-0.197947
554.841000	-0.315944
555.032000	-0.190780
555.223000	-0.093469
555.413000	-0.013805
555.604000	-0.013864
555.795000	-0.083400
555.985000	-0.024246
556.176000	-0.122039
556.367000	-0.405162
556.557000	-0.256718
556.748000	-0.133008
556.939000	-0.254238
557.129000	-0.359867
557.320000	-0.140523
557.511000	-0.127370
557.701000	-0.140039
557.892000	-0.104417
558.083000	0.071257
558.273000	-0.021691
558.464000	-0.236032
558.655000	-0.202287
558.845000	-0.085925
559.036000	-0.037072
559.227000	-0.119542
559.418000	-0.021681
559.608000	0.122810
559.799000	-0.209755
559.990000	-0.249650
560.180000	-0.160149
560.371000	-0.342892
560.562000	-0.270507
560.752000	-0.106349
560.943000	-0.299149
561.134000	-0.470075
561.324000	-0.162305
561.515000	0.096078
561.706000	-0.090557
561.896000	-0.292012
562.087000	-0.202445
562.278000	-0.253340
562.468000	-0.370948
562.659000	-0.235089
562.850000	0.098271
563.040000	0.131367
563.231000	-0.362817
563.422000	-0.181320
563.612000	-0.247620
563.803000	-0.178652
563.994000	-0.228305
564.185000	-0.348943
564.375000	-0.109550
564.566000	-0.157318
564.757000	-0.210847
564.947000	-0.261099
565.138000	-0.119286
565.329000	-0.219506
565.519000	-0.347413
565.710000	-0.212076
565.901000	-0.021122
566.091000	0.054273
566.282000	-0.161442
566.473000	-0.133452
566.663000	-0.093358
566.854000	-0.289405
567.045000	-0.189460
567.235000	-0.120003
567.426000	-0.100131
567.617000	-0.119527
567.807000	-0.196167
567.998000	-0.136594
568.189000	-0.203115
568.379000	-0.121462
568.570000	-0.027991
568.761000	-0.094085
568.951000	-0.174662
569.142000	-0.223887
569.333000	-0.194490
569.524000	-0.337740
569.714000	-0.432873
569.905000	-0.527132
570.096000	-0.137359
570.286000	0.040374
570.477000	0.178522
570.668000	-0.054282
570.858000	-0.093050
571.049000	-0.179651
571.240000	-0.283624
571.430000	-0.157792
571.621000	-0.200507
571.812000	-0.087155
572.002000	-0.089708
572.193000	-0.214087
572.384000	-0.051225
572.574000	-0.053662
572.765000	-0.118127
572.956000	-0.210724
573.146000	-0.048702
573.337000	-0.122465
573.528000	-0.138901
573.718000	-0.022299
573.909000	0.051167
574.100000	-0.012746
574.290000	-0.196229
574.481000	-0.162923
574.672000	-0.141957
574.863000	-0.017323
575.053000	-0.131777
575.244000	-0.091839
575.435000	-0.229143
575.625000	-0.216540
575.816000	-0.190801
576.007000	-0.079655
576.197000	-0.082100
576.388000	-0.088711
576.579000	0.010623
576.769000	0.042905
576.960000	-0.247556
577.155000	-0.398581
577.350000	-0.138666
577.545000	-0.000917
577.740000	-0.153991
577.935000	0.158689
578.130000	0.104049
578.326000	-0.228393
578.521000	0.053661
578.716000	0.055677
578.911000	-0.272200
579.106000	-0.050452
579.301000	0.091164
579.496000	-0.155343
579.691000	-0.410167
579.886000	-0.188265
580.081000	-0.134523
580.276000	-0.089758
580.471000	-0.138613
580.666000	-0.286945
580.861000	-0.317878
581.057000	-0.302557
581.252000	-0.169507
581.447000	-0.222257
581.642000	-0.200456
581.837000	-0.206830
582.032000	-0.201825
582.227000	0.003513
582.422000	-0.016215
582.617000	-0.216820
582.812000	-0.288060
583.007000	-0.203098
583.202000	-0.267839
583.397000	-0.018168
583.592000	0.210730
583.788000	-0.086950
583.983000	-0.101919
584.178000	-0.003005
584.373000	-0.197767
584.568000	-0.235798
584.763000	-0.257406
584.958000	-0.306557
585.153000	-0.176165
585.348000	-0.184616
585.543000	-0.065024
585.738000	-0.088512
585.933000	-0.266032
586.128000	-0.026508
586.324000	-0.060871
586.519000	-0.032984
586.714000	0.110605
586.909000	0.132274
587.104000	0.126252
587.299000	-0.039529
587.494000	-0.054493
587.689000	-0.101891
587.884000	-0.106510
588.079000	-0.141017
588.274000	-0.087272
588.469000	-0.121591
588.664000	-0.020292
588.859000	0.001297
589.055000	-0.020345
589.250000	-0.098307
589.445000	-0.254520
589.640000	-0.222179
589.835000	0.057852
590.030000	0.164375
590.225000	0.186151
590.420000	-0.040069
590.615000	-0.186140
590.810000	-0.203350
591.005000	-0.160460
591.200000	-0.237072
591.395000	-0.302636
591.591000	-0.179872
591.786000	-0.005235
591.981000	-0.059939
592.176000	-0.011837
592.371000	-0.033770
592.566000	-0.064423
592.761000	0.124007
592.956000	0.045210
593.151000	0.130867
593.346000	-0.009688
593.541000	0.040912
593.736000	0.045450
593.931000	-0.117869
594.126000	-0.031832
594.322000	0.019010
594.517000	-0.115805
594.712000	-0.283891
594.907000	-0.311540
595.102000	-0.149753
595.297000	0.025757
595.492000	0.117043
595.687000	-0.063321
595.882000	-0.148120
596.077000	-0.056770
596.272000	0.081787
596.467000	0.081813
596.662000	-0.052358
596.857000	-0.009884
597.053000	0.019352
597.248000	0.080073
597.443000	0.131981
597.638000	0.055539
597.833000	-0.111635
598.028000	0.084862
598.223000	0.161914
598.418000	0.069321
598.613000	-0.009966
598.808000	0.123770
599.003000	0.108019
599.198000	-0.109973
599.393000	-0.082682
599.589000	0.076529
599.784000	-0.078406
599.979000	-0.007761
600.174000	0.200095
600.369000	-0.037500
600.564000	0.122719
600.759000	0.352085
600.954000	0.420143
601.149000	0.295184
601.344000	-0.021598
601.539000	0.116400
601.734000	0.045029
601.929000	-0.173659
602.124000	-0.113872
602.320000	0.151477
602.515000	0.442493
602.710000	0.380922
602.905000	0.036097
603.100000	-0.026336
603.295000	0.082394
603.490000	0.182435
603.685000	0.240503
603.880000	0.240795
604.075000	0.054992
604.270000	0.106481
604.465000	0.192733
604.660000	0.036429
604.856000	0.146076
605.051000	0.324043
605.246000	0.277056
605.441000	0.071536
605.636000	0.013095
605.831000	0.160711
606.026000	0.109126
606.221000	0.163209
606.416000	0.341863
606.611000	0.471473
606.806000	0.449909
607.001000	0.603315
607.196000	0.403839
607.391000	0.237080
607.587000	0.464258
607.782000	0.417581
607.977000	0.211364
608.172000	0.652163
608.367000	0.711310
608.562000	0.477999
608.757000	0.401997
608.952000	0.315030
609.147000	0.812934
609.342000	0.780921
609.537000	0.513316
609.732000	0.602361
609.927000	0.570229
610.122000	0.652260
610.318000	1.037097
610.513000	1.121200
610.708000	0.935988
610.903000	1.059070
611.098000	1.174036
611.293000	1.155168
611.488000	1.191308
611.683000	1.142931
611.878000	1.150494
612.073000	1.167651
612.268000	1.123187
612.463000	1.125702
612.658000	1.123307
612.854000	1.060388
613.049000	0.981046
613.244000	1.151019
613.439000	1.187780
613.634000	0.909194
613.829000	1.110965
614.024000	0.996787
614.219000	0.962577
614.414000	1.352782
614.609000	1.106074
614.804000	0.901483
614.999000	0.946960
615.194000	1.098457
615.389000	1.138886
615.585000	1.001294
615.780000	1.198340
615.975000	1.149124
616.170000	1.167167
616.365000	1.394840
616.560000	1.585920
616.755000	1.511647
616.950000	1.450486
617.145000	1.617642
617.340000	1.544868
617.535000	1.180678
617.730000	1.375781
617.925000	1.238872
618.120000	1.279029
618.316000	1.722710
618.511000	1.622086
618.706000	1.455172
618.901000	1.559453
619.096000	1.823950
619.291000	1.694443
619.486000	1.717425
619.681000	1.482081
619.876000	1.458792
620.071000	1.676716
620.266000	2.077253
620.461000	2.129042
620.656000	2.044304
620.852000	2.072104
621.047000	1.919844
621.242000	1.833448
621.437000	2.247862
621.632000	2.393054
621.827000	2.208725
622.022000	1.957317
622.217000	2.229207
622.412000	2.424090
622.607000	2.405894
622.802000	2.229807
622.997000	2.309793
623.192000	2.430800
623.387000	2.477746
623.583000	2.262967
623.778000	2.782368
623.973000	2.786797
624.168000	2.731012
624.363000	2.828028
624.558000	2.947255
624.753000	2.659381
624.948000	2.860357
625.143000	2.946112
625.338000	2.945834
625.533000	2.868134
625.728000	2.989271
625.923000	3.314045
626.119000	3.292791
626.314000	3.037889
626.509000	3.041941
626.704000	3.108239
626.899000	3.185142
627.094000	3.213461
627.289000	3.287357
627.484000	3.359101
627.679000	3.458198
627.874000	3.446628
628.069000	3.823701
628.264000	3.825590
628.459000	3.762201
628.654000	3.677083
628.850000	3.525745
629.045000	3.675214
629.240000	3.749029
629.435000	3.780920
629.630000	3.996462
629.825000	3.969278
630.020000	4.077305
630.215000	3.865975
630.410000	3.870384
630.605000	3.870822
630.800000	4.031196
630.995000	4.237111
631.190000	4.462690
631.385000	4.180231
631.581000	4.019831
631.776000	4.107599
631.971000	3.952693
632.166000	4.013682
632.361000	3.862790
632.556000	3.884784
632.751000	3.933418
632.946000	3.770935
633.141000	3.623719
633.336000	3.687954
633.531000	3.735686
633.726000	3.585817
633.921000	3.335049
634.117000	3.129080
634.312000	2.980478
634.507000	2.997767
634.702000	3.090504
634.897000	3.097732
635.092000	3.128544
635.287000	3.072491
635.482000	2.870172
635.677000	2.856878
635.872000	2.797466
636.067000	2.812476
636.262000	2.551572
636.457000	2.196356
636.652000	2.168238
636.848000	2.064276
637.043000	2.067088
637.238000	2.035058
637.433000	1.800255
637.628000	1.722367
637.823000	1.915401
638.018000	1.904631
638.213000	1.685709
638.408000	1.550924
638.603000	1.399173
638.798000	1.287736
638.993000	1.351426
639.188000	1.308152
639.383000	1.224623
639.579000	1.538206
639.774000	1.209208
639.969000	1.048847
640.164000	0.954505
640.359000	0.876298
640.554000	1.138956
640.749000	1.065483
640.944000	1.035313
641.139000	0.994892
641.334000	0.716216
641.529000	0.259132
641.724000	0.469736
641.919000	0.607256
642.115000	0.870528
642.310000	0.890082
642.505000	0.708607
642.700000	0.700966
642.895000	0.485246
643.090000	0.580561
643.285000	0.682084
643.480000	0.647752
643.675000	0.693203
643.870000	1.006421
644.065000	0.843121
644.260000	0.404327
644.455000	0.447216
644.650000	0.294458
644.846000	0.445318
645.041000	0.194820
645.236000	-0.052602
645.431000	0.044201
645.626000	-0.140390
645.821000	0.059279
646.016000	0.192918
646.211000	0.536692
646.406000	0.406779
646.601000	0.354669
646.796000	0.211661
646.991000	0.029199
647.186000	0.172535
647.381000	0.279406
647.577000	0.252195
647.772000	0.398771
647.967000	0.301652
648.162000	0.216163
648.357000	0.084619
648.552000	0.289921
648.747000	0.299289
648.942000	0.373123
649.137000	0.294239
649.332000	0.035749
649.527000	0.020332
649.722000	0.303638
649.917000	0.412628
650.113000	0.011105
650.308000	-0.180408
650.503000	-0.075336
650.698000	0.100944
650.893000	-0.035325
651.088000	0.184801
651.283000	0.287750
651.478000	-0.057178
651.673000	0.098097
651.868000	-0.103892
652.063000	0.082905
652.258000	0.248282
652.453000	0.484046
652.648000	0.107783
652.844000	0.014340
653.039000	0.095553
653.234000	-0.341724
653.429000	-0.467502
653.624000	-0.310812
653.819000	-0.079597
654.014000	-0.089016
654.209000	-0.246380
654.404000	-0.054624
654.599000	-0.164920
654.794000	-0.155210
654.989000	0.137392
655.184000	0.058681
655.380000	-0.316496
655.575000	-0.303921
655.770000	-0.228635
655.965000	-0.102343
656.160000	-0.137161
656.355000	0.011375
656.550000	-0.032962
656.745000	-0.020298
656.940000	-0.125064
657.135000	-0.042524
657.330000	-0.010794
657.525000	-0.271315
657.720000	-0.074472
657.915000	0.078219
658.111000	-0.023538
658.306000	0.243845
658.501000	0.021058
658.696000	-0.214965
658.891000	0.084877
659.086000	-0.112911
659.281000	-0.135459
659.476000	-0.356405
659.671000	-0.788241
659.866000	-0.500548
660.061000	-0.145398
660.256000	0.008331
660.451000	0.027579
660.646000	-0.216430
660.842000	-0.171672
661.037000	-0.319675
661.232000	-0.300809
661.427000	-0.123575
661.622000	-0.246316
661.817000	-0.346167
662.012000	-0.143467
662.207000	-0.289072
662.402000	-0.357873
662.597000	-0.186196
662.792000	-0.467978
662.987000	-0.503214
663.182000	-0.221960
663.378000	-0.241624
663.573000	-0.548244
663.768000	-0.472383
663.963000	-0.320037
664.158000	-0.274252
664.353000	0.249925
664.548000	0.367255
664.743000	-0.043755
664.938000	-0.389834
665.133000	-0.374095
665.328000	0.129686
665.523000	0.044626
665.718000	-0.240877
665.913000	-0.234666
666.109000	-0.185781
666.304000	-0.024368
666.499000	-0.188894
666.694000	-0.021121
666.889000	0.295665
667.084000	-0.077475
667.279000	-0.229640
667.474000	-0.137067
667.669000	-0.090694
667.864000	-0.263125
668.059000	-0.250250
668.254000	-0.233952
668.449000	-0.393909
668.644000	-0.261070
668.840000	0.041903
669.035000	-0.211144
669.230000	-0.482538
669.425000	-0.131751
669.620000	-0.298925
669.815000	-0.343633
670.010000	-0.319846
670.205000	-0.132206
670.400000	-0.192261
670.595000	-0.149170
670.790000	-0.203198
670.985000	-0.082173
671.180000	0.055966
671.376000	-0.335423
671.571000	-0.451153
671.766000	-0.364063
671.961000	-0.438806
672.156000	-0.449538
672.351000	-0.252669
672.546000	-0.311056
672.741000	-0.184732
672.936000	-0.082966
673.131000	0.387317
673.326000	-0.032138
673.521000	-0.412001
673.716000	-0.494117
673.911000	-0.665684
674.107000	-0.042541
674.302000	0.283575
674.497000	0.019247
674.692000	-0.390038
674.887000	-0.425880
675.082000	-0.295179
675.277000	0.036690
675.472000	-0.101895
675.667000	-0.299906
675.862000	-0.317423
676.057000	-0.223805
676.252000	-0.144179
676.447000	-0.221336
676.643000	-0.071160
676.838000	0.145386
677.033000	-0.116893
677.228000	0.135430
677.423000	0.054767
677.618000	-0.332306
677.813000	-0.522091
678.008000	-0.244943
678.203000	-0.121542
678.398000	-0.327060
678.593000	-0.135968
678.788000	-0.100886
678.983000	-0.395244
679.178000	-0.235703
679.374000	-0.324919
679.569000	-0.197367
679.764000	-0.301573
679.959000	-0.470636
680.154000	-0.477896
680.349000	-0.684458
680.544000	-0.608150
680.739000	-0.432467
680.934000	-0.537174
681.129000	-0.466565
681.324000	-0.561002
681.519000	-0.294785
681.714000	-0.309379
681.909000	-0.446499
682.105000	-0.625552
682.300000	-0.154445
682.495000	0.002184
682.690000	-0.045247
682.885000	-0.140233
683.080000	-0.353021
683.275000	-0.382510
683.470000	0.104914
683.665000	0.307347
683.860000	0.536207
684.055000	0.153290
684.250000	-0.362943
684.445000	-0.450748
684.641000	0.042846
684.836000	-0.160571
685.031000	-0.198283
685.226000	-0.179960
685.421000	0.143926
685.616000	-0.180466
685.811000	-0.315452
686.006000	-0.050079
686.201000	-0.181124
686.396000	-0.564988
686.591000	-0.472020
686.786000	0.055043
686.981000	-0.125933
687.176000	-0.122460
687.372000	-0.175572
687.567000	0.096911
687.762000	0.006074
687.957000	-0.111598
688.152000	-0.313445
688.347000	-0.264470
688.542000	-0.486703
688.737000	-0.868346
688.932000	-0.904247
689.127000	-0.426707
689.322000	-0.070680
689.517000	-0.262691
689.712000	-0.533406
689.908000	-0.472218
690.103000	-0.480865
690.298000	-0.306970
690.493000	-0.311650
690.688000	-0.568183
690.883000	-0.359841
691.078000	0.056877
691.273000	0.056883
691.468000	-0.216265
691.663000	-0.240599
691.858000	-0.068195
692.053000	-0.087787
692.248000	-0.040800
692.443000	-0.021184
692.639000	-0.107711
692.834000	-0.013399
693.029000	0.471498
693.224000	0.378672
693.419000	-0.247396
693.614000	-0.327308
693.809000	-0.510403
694.004000	-0.551191
694.199000	-0.479380
694.394000	-0.221327
694.589000	-0.501512
694.784000	-0.449978
694.979000	-0.257825
695.174000	-0.318683
695.370000	0.198740
695.565000	-0.077922
695.760000	-0.392112
695.955000	-0.005650
696.150000	0.058937
696.345000	-0.337975
696.540000	-0.070636
696.740000	-0.265309
696.940000	-0.135597
697.140000	-0.013874
697.340000	-0.197850
697.539000	-0.005726
697.739000	-0.189850
697.939000	-0.149038
698.139000	-0.522174
698.339000	-0.840917
698.539000	-0.634850
698.739000	-0.673661
698.939000	-0.535818
699.138000	-0.582328
699.338000	0.192620
699.538000	0.251444
699.738000	-0.218057
699.938000	-0.268220
700.138000	-0.418864
700.338000	-0.595802
700.538000	-0.282703
700.737000	-0.249066
700.937000	-0.704013
701.137000	-0.646476
701.337000	0.103536
701.537000	0.074237
701.737000	-0.317639
701.937000	-0.457693
702.137000	-0.335264
702.337000	-0.479632
702.536000	-0.705234
702.736000	-0.595758
702.936000	-0.694377
703.136000	-0.223335
703.336000	-0.163628
703.536000	-0.275180
703.736000	-0.631545
703.936000	-0.514794
704.135000	-0.604280
704.335000	-0.305986
704.535000	-0.530277
704.735000	-0.689980
704.935000	-0.164832
705.135000	-0.126814
705.335000	-0.378251
705.535000	-0.183620
705.735000	-0.101320
705.934000	-0.006059
706.134000	-0.244164
706.334000	-0.318513
706.534000	-0.444995
706.734000	-0.467094
706.934000	-0.545348
707.134000	-0.580289
707.334000	-0.341765
707.533000	-0.224479
707.733000	-0.315964
707.933000	-0.442966
708.133000	-0.193727
708.333000	-0.142103
708.533000	-0.414796
708.733000	-0.019331
708.933000	-0.107293
709.132000	-0.323385
709.332000	-0.332758
709.532000	-0.572335
709.732000	-0.341840
709.932000	-0.820786
710.132000	-0.762755
710.332000	-0.837584
710.532000	-0.214238
710.732000	-0.028407
710.931000	-0.441517
711.131000	-0.407569
711.331000	-0.332018
711.531000	-0.538211
711.731000	-0.449937
711.931000	-0.356417
712.131000	-0.423242
712.331000	-0.190161
712.530000	-0.266081
712.730000	-0.455415
712.930000	-0.338529
713.130000	-0.326198
713.330000	-0.430357
713.530000	-0.323276
713.730000	0.378687
713.930000	0.011774
714.129000	-0.463215
714.329000	-0.514621
714.529000	-0.264824
714.729000	0.020902
714.929000	-0.206303
715.129000	-0.552572
715.329000	-0.443743
715.529000	-0.386092
715.729000	0.349752
715.928000	0.121759
716.128000	-0.317870
716.328000	-0.217748
716.528000	-0.296182
716.728000	-0.208849
716.928000	-0.503311
717.128000	-0.218558
717.328000	-0.324557
717.527000	-0.472655
717.727000	-0.343749
717.927000	-0.270692
718.127000	-0.335776
718.327000	-0.698787
718.527000	-0.712368
718.727000	-0.355119
718.927000	-0.453551
719.127000	-0.679789
719.326000	-0.472153
719.526000	-0.071839
719.726000	-0.244954
719.926000	-0.757313
720.126000	-0.715200
720.326000	-0.433560
720.526000	-0.607285
720.726000	-0.491438
720.925000	-0.251528
721.125000	-0.668498
721.325000	-0.422145
721.525000	-0.290632
721.725000	-0.418481
721.925000	-0.381681
722.125000	-0.476666
722.325000	-0.035129
722.524000	-0.320930
722.724000	-0.802846
722.924000	-0.945812
723.124000	-0.651054
723.324000	-0.202589
723.524000	-0.183643
723.724000	-0.710344
723.924000	-0.501522
724.124000	-0.333502
724.323000	-0.146277
724.523000	-0.290376
724.723000	0.055888
724.923000	-0.122411
725.123000	-0.175608
725.323000	-0.016432
725.523000	-0.210153
725.723000	-0.534022
725.922000	-0.553994
726.122000	-0.428568
726.322000	-0.604725
726.522000	-0.610183
726.722000	0.080681
726.922000	-0.205936
727.122000	-0.284634
727.322000	0.076129
727.521000	-0.197640
727.721000	-0.423298
727.921000	-0.379222
728.121000	-0.384026
728.321000	-0.747873
728.521000	-0.484115
728.721000	-0.366661
728.921000	-0.031530
729.121000	0.792499
729.320000	0.116586
729.520000	-0.372516
729.720000	-0.610667
729.920000	-0.514130
730.120000	-0.368996
730.320000	-0.335098
730.520000	-0.633665
730.720000	-0.515913
730.919000	-0.445977
731.119000	-0.161925
731.319000	-0.637745
731.519000	-0.797824
731.719000	-0.442793
731.919000	-0.573332
732.119000	-1.131497
732.319000	-1.044406
732.519000	-0.435318
732.718000	-0.748679
732.918000	-0.602892
733.118000	-0.356361
733.318000	-0.144173
733.518000	-0.453876
733.718000	-0.993408
733.918000	-0.861728
734.118000	-0.632595
734.317000	-0.420725
734.517000	-0.634292
734.717000	-0.483646
734.917000	0.085240
735.117000	-0.079163
735.317000	-0.341238
735.517000	0.204063
735.717000	0.432074
735.916000	-0.446612
736.116000	-0.601163
736.316000	-0.386620
736.516000	-0.318966
736.716000	-0.334720
736.916000	-0.831862
737.116000	-0.573707
737.316000	0.202390
737.516000	-0.007355
737.715000	-0.170326
737.915000	-0.670044
738.115000	-0.677448
738.315000	-0.445630
738.515000	-0.698933
738.715000	-0.384441
738.915000	0.019141
739.115000	-0.571998
739.314000	-0.534235
739.514000	-0.018157
739.714000	0.029980
739.914000	-0.157858
740.114000	-0.308776
740.314000	-0.158271
740.514000	0.267424
740.714000	-0.570201
740.913000	-1.101973
741.113000	-0.843238
741.313000	-0.300614
741.513000	-0.399408
741.713000	-0.400481
741.913000	-0.270807
742.113000	-0.270395
742.313000	-0.814014
742.513000	-0.523783
742.712000	-0.497938
742.912000	-0.834157
743.112000	-0.737468
743.312000	-0.910354
743.512000	-0.418465
743.712000	-0.252775
743.912000	-1.006042
744.112000	-1.056909
744.311000	-1.087743
744.511000	-0.747774
744.711000	-0.322558
744.911000	-0.565003
745.111000	-0.554436
745.311000	-0.103875
745.511000	-0.573229
745.711000	-0.828401
745.911000	-0.461198
746.110000	-0.886558
746.310000	-1.028637
746.510000	-0.736243
746.710000	-0.242349
746.910000	-0.070939
747.110000	-0.655520
747.310000	-1.092912
747.510000	-0.791692
747.709000	-0.296404
747.909000	-0.314509
748.109000	-0.100936
748.309000	-0.432472
748.509000	-0.840685
748.709000	-0.908078
748.909000	-0.621555
749.109000	-0.483456
749.308000	0.150352
749.508000	-0.261725
749.708000	-0.450506
749.908000	-0.025951
750.108000	-0.114761
750.308000	-0.892799
750.508000	-0.174970
750.708000	-0.764409
750.908000	-1.273188
751.107000	-0.487146
751.307000	0.236710
751.507000	-0.266526
751.707000	-0.302158
751.907000	-0.423100
752.107000	-0.309956
752.307000	-0.734539
752.507000	-0.675798
752.706000	-0.760211
752.906000	0.277028
753.106000	-0.545004
753.306000	-1.109251
753.506000	-0.069900
753.706000	-0.659850
753.906000	-0.451029
754.106000	-0.205509
754.305000	-0.224258
754.505000	-0.082773
754.705000	-0.275760
754.905000	-0.419229
755.105000	-0.232973
755.305000	-1.069179
755.505000	-0.865814
755.705000	-0.347009
755.905000	-0.373182
756.104000	-0.845102
756.304000	-1.238272
756.504000	-1.512493
756.704000	-0.434386
756.904000	-0.281809
757.104000	-0.541273
757.304000	-0.529103
757.504000	-0.213191
757.703000	-0.525857
757.903000	0.003838
758.103000	0.317949
758.303000	-0.285415
758.503000	-0.479526
758.703000	-0.667994
758.903000	-0.771703
759.103000	-0.378493
759.303000	-0.530090
759.502000	-0.610156
759.702000	-0.080975
759.902000	-0.448948
760.102000	-0.535553
760.302000	-0.504350
760.502000	-0.180339
760.702000	-0.206963
760.902000	-0.451793
761.101000	-0.976400
761.301000	-1.183820
761.501000	-0.673083
761.701000	-0.820763
761.901000	-0.597717
762.101000	-0.203685
762.301000	-0.411396
762.501000	-0.747023
762.700000	-0.790883
762.900000	-0.757470
763.100000	-0.481717
763.300000	-0.239810
763.500000	-0.497726
763.703000	-0.665022
763.905000	-0.803231
764.108000	-0.152503
764.311000	-0.445315
764.513000	-0.425400
764.716000	-0.290225
764.919000	-0.324884
765.121000	-0.962687
765.324000	-1.171902
765.527000	-0.908506
765.729000	-0.770201
765.932000	0.211910
766.135000	0.031846
766.337000	-0.425298
766.540000	-0.558734
766.743000	-0.268842
766.945000	-0.876198
767.148000	-1.354388
767.351000	-1.088120
767.553000	-0.213659
767.756000	-0.671210
767.958000	-1.008822
768.161000	-0.537942
768.364000	-0.971014
768.566000	-1.320183
768.769000	-0.713459
768.972000	-0.365206
769.174000	-0.679898
769.377000	-1.267916
769.580000	-1.421030
769.782000	-0.546735
769.985000	-0.792570
770.188000	-1.931446
770.390000	-1.196131
770.593000	0.372693
770.796000	0.170583
770.998000	-0.292186
771.201000	-0.697930
771.404000	-0.387159
771.606000	-0.767200
771.809000	-0.570482
772.012000	-0.484095
772.214000	-1.469479
772.417000	-1.549906
772.620000	-0.381186
772.822000	-0.670046
773.025000	-1.014784
773.228000	-1.104830
773.430000	-0.908000
773.633000	-0.577976
773.836000	-0.438503
774.038000	-0.343829
774.241000	-0.610428
774.444000	-0.790644
774.646000	0.160377
774.849000	-0.241109
775.052000	-0.486600
775.254000	-0.204271
775.457000	-0.740365
775.659000	-0.704808
775.862000	-1.055970
776.065000	-0.803380
776.267000	-0.085421
776.470000	0.064729
776.673000	-0.492580
776.875000	0.027194
777.078000	-0.176480
777.281000	-0.926633
777.483000	-0.215688
777.686000	-0.185656
777.889000	-0.315346
778.091000	-0.033630
778.294000	-1.102117
778.497000	-0.965974
778.699000	-0.760242
778.902000	-0.716792
779.105000	-0.371468
779.307000	0.396593
779.510000	-0.665547
779.713000	-0.513475
779.915000	-0.701377
780.118000	0.284243
780.321000	0.463434
780.523000	-0.626622
780.726000	-1.032329
780.929000	-0.969604
781.131000	-0.846203
781.334000	-1.585863
781.537000	-1.645300
781.739000	-0.545789
781.942000	-1.057829
782.145000	-1.514251
782.347000	-1.546873
782.550000	-1.080496
782.753000	-1.036362
782.955000	-0.895734
783.158000	-0.823525
783.361000	-0.753701
783.563000	-0.937490
783.766000	-0.963939
783.968000	1.023152
784.171000	0.737859
784.374000	-0.551027
784.576000	-0.615292
784.779000	-0.131870
784.982000	0.231295
785.184000	-0.702526
785.387000	-0.043975
785.590000	0.574624
785.792000	0.282682
785.995000	-0.085098
786.198000	0.078680
786.400000	-0.373662
786.603000	-0.473627
786.806000	-0.521520
787.008000	-0.661293
787.211000	-0.605897
787.414000	-1.179495
787.616000	-0.834754
787.819000	-0.845054
788.022000	-1.522150
788.224000	-0.756276
788.427000	-1.284053
788.630000	-0.801359
788.832000	-0.557155
789.035000	-1.092430
789.238000	-1.652771
789.440000	-1.357694
789.643000	-0.062507
789.846000	-0.655651
790.048000	-0.309090
790.251000	-0.028878
790.454000	-0.478076
790.656000	0.141229
790.859000	-0.736775
791.062000	-1.088316
791.264000	-0.336297
791.467000	-1.323452
791.669000	-1.703085
791.872000	-0.684983
792.075000	-1.166745
792.277000	-0.736013
792.480000	-0.445394
792.683000	-1.118222
792.885000	-1.439353
793.088000	-1.123409
793.291000	-1.448245
793.493000	-1.424727
793.696000	-0.221556
793.899000	0.048982
794.101000	-0.406789
794.304000	-0.688887
794.507000	-0.619510
794.709000	-0.630054
794.912000	-1.040139
795.115000	-1.184170
795.317000	-0.793371
795.520000	-0.529444
795.723000	-0.844798
795.925000	-1.303106
796.128000	-1.552052
796.331000	-1.135088
796.533000	-1.605867
796.736000	-0.736403
796.939000	-0.457046
797.141000	-0.821943
797.344000	-0.021842
797.547000	0.069197
797.749000	-0.313659
797.952000	-0.800958
798.155000	-1.265566
798.357000	-1.503170
798.560000	-1.437646
798.763000	-0.641376
798.965000	-0.779264
799.168000	-0.790797
799.371000	-0.402350
799.573000	-0.757155
799.776000	-1.494220
799.978000	-1.405929
800.181000	-0.668720
800.384000	0.859236
800.586000	0.127872
800.789000	-1.601470
800.992000	-1.450114
801.194000	-1.387428
801.397000	-1.457073
801.600000	-1.225326
801.802000	0.166908
802.005000	-0.346295
802.208000	-1.883351
802.410000	-0.709226
802.613000	-0.626184
802.816000	-0.856975
803.018000	-1.483996
803.221000	-1.168999
803.424000	0.411062
803.626000	0.063784
803.829000	-0.672842
804.032000	0.307176
804.234000	1.074783
804.437000	-0.579723
804.640000	-0.676751
804.842000	-0.707620
805.045000	-1.113858
805.248000	-0.781357
805.450000	-0.937893
805.653000	-1.250536
805.856000	-1.140462
806.058000	-0.003965
806.261000	-1.196343
806.464000	-1.088130
806.666000	-0.382545
806.869000	-0.695800
807.072000	-2.089181
807.274000	-2.311244
807.477000	-1.180906
807.679000	-1.000680
807.882000	-1.507496
808.085000	-1.131642
808.287000	-0.532825
808.490000	-1.410008
808.693000	-1.166320
808.895000	-0.800194
809.098000	-0.739313
809.301000	-0.813505
809.503000	-1.012546
809.706000	0.244172
809.909000	0.347577
810.111000	-0.097375
810.314000	-0.637498
810.517000	-1.142524
810.719000	-1.263443
810.922000	-0.986607
811.125000	-0.045887
811.327000	-0.109080
811.530000	-0.678138
811.735000	-0.939969
811.940000	-1.300355
812.146000	-1.210587
812.351000	-0.364051
812.556000	-0.651875
812.761000	-1.090617
812.967000	0.027811
813.172000	-0.164553
813.377000	-0.572359
813.582000	0.006458
813.788000	-0.481213
813.993000	-1.409747
814.198000	-0.761836
814.403000	-1.507684
814.609000	-0.646485
814.814000	-0.561939
815.019000	0.301190
815.224000	0.039265
815.429000	-1.168221
815.635000	-0.808428
815.840000	-0.621864
816.045000	-0.602545
816.250000	-0.204131
816.456000	-1.126862
816.661000	-2.226104
816.866000	-1.884152
817.071000	-1.659335
817.277000	-2.390267
817.482000	-1.503826
817.687000	-0.894512
817.892000	-0.684312
818.097000	-0.072735
818.303000	0.325029
818.508000	0.551245
818.713000	7.097515
818.918000	3.765431
819.124000	0.155298
819.329000	-1.013724
819.534000	-1.177768
819.739000	-1.246882
819.945000	-1.252764
820.150000	-0.806604
820.355000	-0.854753
820.560000	-0.445970
820.766000	-0.691627
820.971000	-0.964962
821.176000	-2.458178
821.381000	-2.884181
821.586000	-1.676823
821.792000	-0.347409
821.997000	-0.927288
822.202000	-0.703253
822.407000	-1.334771
822.613000	-1.801679
822.818000	-1.257548
823.023000	-0.984329
823.228000	-1.002709
823.434000	-0.088899
823.639000	0.211889
823.844000	-0.692867
824.049000	0.128046
824.255000	0.261768
824.460000	-0.662344
824.665000	-1.138768
824.870000	-0.261801
825.075000	-0.507115
825.281000	-0.422641
825.486000	0.823105
825.691000	-1.453133
825.896000	-2.782975
826.102000	-0.811585
826.307000	-0.515007
826.512000	-1.028871
826.717000	-1.006994
826.923000	-0.934506
827.128000	-0.584088
827.333000	-1.690107
827.538000	-0.755385
827.744000	-0.056090
827.949000	-0.997535
828.154000	-0.758847
828.359000	-0.056183
828.564000	-0.877768
828.770000	-0.984485
828.975000	0.046495
829.180000	-0.511436
829.385000	-1.743932
829.591000	-1.347328
829.796000	-0.869532
830.001000	-0.949915
830.206000	-1.782108
830.412000	-1.372690
830.617000	-1.494627
830.822000	-0.323200
831.027000	-0.798270
831.232000	-1.414756
831.438000	-1.585435
831.643000	-0.768549
831.848000	-0.743588
832.053000	-0.800321
832.259000	-1.071113
832.464000	-2.981564
832.669000	-2.327073
832.874000	-1.618442
833.080000	-1.884277
833.285000	0.049093
833.490000	0.171946
833.695000	-1.530232
833.901000	-1.427024
834.106000	-1.843862
834.311000	-1.367240
834.516000	-0.645703
834.721000	-1.265105
834.927000	-0.244511
835.132000	-0.723707
835.337000	1.305742
835.542000	0.065250
835.748000	-1.789473
835.953000	-0.133538
836.158000	-0.233553
836.363000	-0.377472
836.569000	-0.481261
836.774000	-1.290430
836.979000	-1.653297
837.184000	-2.135380
837.390000	-1.921576
837.595000	-1.417394
837.800000	-1.099762
838.005000	-0.783647
838.210000	-0.886757
838.416000	-1.612369
838.621000	-1.572373
838.826000	-1.335110
839.031000	-0.718485
839.237000	-1.292171
839.442000	-2.327829
839.647000	-2.668369
839.852000	-2.109051
840.058000	-1.483479
840.263000	-1.415016
840.468000	-2.432515
840.673000	-1.189080
840.878000	-0.871398
841.084000	-1.762345
841.289000	-1.292168
841.494000	1.489261
841.699000	1.540592
841.905000	0.303966
842.110000	0.134094
842.315000	-1.725052
842.520000	-1.005270
842.726000	-1.383203
842.931000	-1.726039
843.136000	-0.809421
843.341000	-2.624060
843.547000	-1.415421
843.752000	-0.989076
843.957000	-2.163745
844.162000	-2.382745
844.367000	-1.422465
844.573000	-0.620564
844.778000	-0.361039
844.983000	-0.264981
845.188000	-0.444982
845.394000	-2.513752
845.599000	-2.180648
845.804000	-1.449976
846.009000	-0.089185
846.215000	-1.699057
846.420000	-1.537271
846.625000	-0.307120
846.830000	0.475655
847.036000	-1.126381
847.241000	-2.121340
847.446000	-0.191300
847.651000	-0.815605
847.856000	-2.183310
848.062000	-1.968080
848.267000	-0.126240
848.472000	-1.427693
848.677000	-2.770662
848.883000	-1.171714
849.088000	0.356458
849.293000	-1.205619
849.498000	-1.568430
849.704000	-0.755094
849.909000	-1.210585
850.114000	-2.222383
850.319000	-0.986050
850.524000	-0.675045
850.730000	-0.749591
850.935000	-1.302853
851.140000	-0.113900
851.345000	-0.327416
851.551000	-0.346249
851.756000	-0.007178
851.961000	-1.770376
852.166000	-1.897302
852.372000	-0.963744
852.577000	-0.516298
852.782000	-1.399449
852.987000	0.029224
853.193000	-0.795569
853.398000	-0.740797
853.603000	-1.955369
853.808000	-2.544784
854.013000	-1.432220
854.219000	0.011123
854.424000	1.797695
854.629000	0.925078
854.834000	-1.622183
855.040000	-1.311351
855.245000	-0.629002
855.450000	-2.598382
855.655000	-3.648305
855.861000	-3.386722
856.066000	-2.093701
856.271000	-2.135409
856.476000	-0.680914
856.682000	-1.668289
856.887000	-3.981850
857.092000	-2.617595
857.297000	0.205747
857.502000	-0.260607
857.708000	-0.943133
857.913000	0.324032
858.118000	-0.421579
858.323000	-0.640154
858.529000	-0.737801
858.734000	-1.353018
858.939000	-1.277650
859.144000	-1.978698
859.350000	-2.974438
859.555000	-2.564337
859.760000	-0.048193
859.965000	0.533983
860.171000	-1.782262
860.376000	-0.919146
860.581000	-2.707977
860.786000	-4.798615
860.991000	-3.857270
861.197000	-2.750005
861.402000	-0.993169
861.607000	-1.589264
861.812000	-2.977743
862.018000	-2.947765
862.223000	-2.227431
862.428000	-1.155746
862.633000	-0.133576
862.839000	-1.205525
863.044000	-2.041537
863.249000	-2.754088
863.454000	-0.748401
863.659000	-1.195988
863.865000	-2.139612
864.070000	-2.465727
864.275000	-3.283148
864.480000	-2.760658
864.686000	-4.324610
864.891000	-3.680276
865.096000	-1.310499
865.301000	0.034780
865.507000	-0.052477
865.712000	-0.511618
865.917000	-2.231263
866.122000	-1.200303
866.328000	-4.047368
866.533000	-3.645411
866.738000	-0.341915
866.943000	-0.320387
867.148000	0.170044
867.354000	-2.218900
867.559000	-3.482695
867.764000	-1.890391
867.969000	-0.533087
868.175000	-1.961679
868.380000	-2.857146
868.585000	-3.887494
868.790000	-1.451396
868.996000	-1.760560
869.201000	-3.128329
869.406000	-4.069983
869.611000	-3.355400
869.817000	-2.794606
870.022000	2.227375
870.227000	-0.266260
870.432000	-2.661622
870.637000	-1.466271
870.843000	-2.396534
871.048000	-1.972066
871.253000	0.345429
871.458000	-0.389986
871.664000	-3.383818
871.869000	-3.524172
872.074000	-2.279262
872.279000	-1.119776
872.485000	-1.709919
872.690000	-1.839302
872.895000	-2.336799
873.100000	-3.197891
873.306000	-2.472648
873.511000	-1.225098
873.716000	0.536845
873.921000	-2.340086
874.126000	-2.790724
874.332000	-1.815295
874.537000	-0.388036
874.742000	-0.914217
874.947000	-1.170318
875.153000	0.804504
875.358000	-0.877843
875.563000	-1.565395
875.768000	-4.849023
875.974000	-5.511629
876.179000	-1.452715
876.384000	-0.579769
876.589000	-2.334864
876.794000	-1.657706
877.000000	-2.156271
877.205000	-4.401164
877.410000	-2.347989
877.615000	-3.890965
877.821000	-5.195169
878.026000	-3.503964
878.231000	-3.847137
878.436000	-4.198140
878.642000	-3.479937
878.847000	-1.749191
879.052000	-0.678381
879.257000	-3.108888
879.463000	-3.463885
879.668000	-3.410966
879.873000	-1.148739
880.078000	-3.405772
880.283000	-4.618694
880.489000	-5.000296
880.694000	-4.529130
880.899000	-2.411318
881.104000	-0.897528
881.310000	1.401660
881.515000	-0.094074
881.720000	0.682293
881.925000	2.973278
882.131000	4.814446
882.336000	1.225521
882.541000	-3.240874
882.746000	-3.142984
882.952000	-3.821793
883.157000	-3.517642
883.362000	-4.065493
883.567000	-4.827913
883.772000	-4.728062
883.978000	-3.429715
884.183000	-1.434231
884.388000	-1.836390
884.593000	-4.329140
884.799000	0.395848
885.004000	-0.572641
885.209000	-2.492354
885.414000	-1.895231
885.620000	-4.191368
885.825000	-1.086719
886.030000	-1.471950
886.235000	-2.620214
886.440000	-2.611804
886.646000	-5.532125
886.851000	-5.194163
887.056000	-0.746148
887.261000	-0.807954
887.467000	-3.761216
887.672000	-1.002400
887.877000	-1.660531
888.082000	-4.324241
888.288000	-5.335769
888.493000	-7.803934
888.698000	-6.624114
888.903000	-2.948104
889.109000	-3.949964
889.314000	-1.178729
889.519000	-1.739394
889.724000	0.647708
889.929000	-1.114352
890.135000	-1.969565
890.340000	-2.238657
890.545000	-4.303637
890.750000	-5.173218
890.956000	-3.240829
891.161000	-0.938291
891.366000	-3.437323
891.571000	-1.680992
891.777000	-1.714670
891.982000	-0.367841
892.187000	-1.406380
892.392000	-1.241394
892.598000	-0.728281
892.803000	-0.701919
893.008000	-3.060479
893.213000	-3.640651
893.418000	-3.435933
893.624000	-3.287790
893.829000	-5.605560
894.034000	-2.002937
894.239000	-0.946411
894.445000	-3.903217
894.650000	-4.524356
894.855000	-4.596911
895.060000	-4.656040
895.266000	-4.215195
895.471000	-4.991261
895.676000	-1.633561
895.881000	-0.422118
896.087000	-2.635344
896.292000	-4.194631
896.497000	0.227292
896.702000	-1.351424
896.907000	-3.826928
897.113000	0.468927
897.318000	1.261328
897.523000	1.230099
897.728000	-1.713506
897.934000	-2.745221
898.139000	-3.030151
898.344000	-0.748908
898.549000	-1.985000
898.755000	-3.291871
898.960000	-3.595899
899.165000	-5.123089
899.370000	-1.261241
899.575000	2.200304
899.781000	-2.342669
899.986000	-3.739869
900.191000	-2.285653
900.396000	-3.226730
900.602000	-1.793707
900.807000	-2.610846
901.012000	-2.407022
901.217000	-0.346822
901.423000	-3.066577
901.628000	-4.072944
901.833000	-0.200212
902.038000	-1.135882
902.244000	-4.896226
902.449000	-3.875578
902.654000	-3.613414
902.859000	-1.564414
903.064000	0.402470
903.270000	0.251496
903.475000	-3.790587
903.680000	-6.986764
903.885000	-6.466466
904.091000	-5.457621
904.296000	-6.331826
904.501000	-5.423250
904.706000	-4.816230
904.912000	-0.331386
905.117000	-1.719337
905.322000	-4.728621
905.527000	-4.587434
905.733000	-4.152884
905.938000	-4.178874
906.143000	-3.905022
906.348000	-5.691961
906.553000	-1.282120
906.759000	-0.057129
906.964000	-1.164652
907.169000	-3.810564
907.374000	-6.846982
907.580000	-5.021937
907.785000	-4.140643
907.990000	26.686989
908.195000	17.928923
908.401000	-0.357279
908.606000	-8.228352
908.811000	-10.270946
909.016000	-2.491801
909.221000	-1.429618
909.427000	-3.848369
909.632000	-6.009963
909.837000	-5.221029
910.042000	-5.937815
910.248000	-8.787878
910.453000	-4.268960
910.658000	-4.479988
910.863000	-3.984994
911.069000	-5.252161
911.274000	-1.865726
911.479000	-0.516912
911.684000	-7.493121
911.890000	-4.763939
912.095000	-4.587061
912.300000	-7.472619
912.506000	-6.233529
912.711000	-5.239140
912.917000	-2.537933
913.123000	-2.306726
913.328000	-3.072713
913.534000	-2.816413
913.740000	6.235751
913.946000	1.468366
914.151000	-5.516335
914.357000	-6.847673
914.563000	-1.508079
914.768000	-5.392332
914.974000	-8.384446
915.180000	-7.082991
915.385000	-4.830178
915.591000	-8.125115
915.797000	-2.278870
916.002000	0.990340
916.208000	-3.440534
916.414000	-6.529476
916.620000	-7.358823
916.825000	-3.803403
917.031000	-3.908620
917.237000	-9.779224
917.442000	-6.043031
917.648000	-7.084604
917.854000	-7.184505
918.059000	0.452778
918.265000	1.977106
918.471000	-2.240794
918.676000	-7.232174
918.882000	-8.892882
919.088000	-7.885740
919.294000	-12.614534
919.499000	-8.930572
919.705000	-2.275022
919.911000	-2.219973
920.116000	-0.299699
920.322000	-6.989258
920.528000	-5.345635
920.733000	-8.658773
920.939000	-9.892539
921.145000	-7.536368
921.350000	-6.249379
921.556000	-4.789522
921.762000	-6.400920
921.968000	-6.419185
922.173000	-7.340214
922.379000	-10.182251
922.585000	-7.220524
922.790000	-8.067475
922.996000	-8.430542
923.202000	-8.532431
923.407000	-8.708146
923.613000	-6.576633
923.819000	-4.819774
924.024000	-3.384791
924.230000	-0.577938
924.436000	-4.417644
924.642000	4.923608
924.847000	1.430383
925.053000	-7.232948
925.259000	-11.168090
925.464000	-3.657781
925.670000	-5.055619
925.876000	-7.945898
926.081000	-8.053241
926.287000	-4.048286
926.493000	-3.393465
926.698000	-4.391087
926.904000	-2.852477
927.110000	-6.175555
927.316000	-4.541646
927.521000	4.467200
927.727000	-2.682496
927.933000	-4.882258
928.138000	-5.109659
928.344000	-13.644977
928.550000	-8.725100
928.755000	-2.561728
928.961000	-7.262561
929.167000	-7.448166
929.372000	-0.879732
929.578000	-0.744633
929.784000	-7.169065
929.990000	-10.027803
930.195000	-8.092872
930.401000	-6.835728
930.607000	-5.164832
930.812000	-4.252257
931.018000	-8.361249
931.224000	-15.107133
931.429000	-10.328838
931.635000	-13.555608
931.841000	-11.704430
932.046000	-7.377896
932.252000	-2.262380
932.458000	3.696009
932.664000	-1.994440
932.869000	-7.341555
933.075000	-10.557098
933.281000	-9.021785
933.486000	-0.113854
933.692000	-3.055234
933.898000	-7.817847
934.103000	-1.515857
934.309000	-8.276854
934.515000	-5.591517
934.720000	-2.693836
934.926000	-0.294136
935.132000	1.004329
935.338000	-2.397998
935.543000	-12.375060
935.749000	-14.820899
935.955000	-15.879297
936.160000	-10.599571
936.366000	-0.769848
936.572000	-3.962478
936.777000	-2.136231
936.983000	0.439720
937.189000	-4.277540
937.394000	-9.901005
937.600000	-2.589744
937.806000	-0.138335
938.012000	-9.173921
938.217000	1.172977
938.423000	-0.651776
938.629000	-7.476140
938.834000	-14.915734
939.040000	-14.504953
939.246000	-7.986142
939.451000	-9.568699
939.657000	-6.563348
939.863000	-11.317616
940.068000	-4.859936
940.274000	-9.521838
940.480000	-5.069935
940.686000	-3.456858
940.891000	-7.938026
941.097000	20.359278
941.303000	7.087225
941.508000	-8.841420
941.714000	-5.864283
941.920000	-17.964851
942.125000	-10.473543
942.331000	-6.951389
942.537000	3.758522
942.742000	3.316111
942.948000	-10.142039
943.154000	-12.530071
943.360000	-24.866098
943.565000	-8.873452
943.771000	5.641973
943.977000	5.849185
944.182000	-14.769656
944.388000	-15.819402
944.594000	-1.173605
944.799000	6.003224
945.005000	-2.033706
945.211000	1.940241
945.416000	-1.692330
945.622000	-16.637062
945.828000	-13.489086
946.034000	-2.783549
946.239000	-0.052319
946.445000	-7.263212
946.651000	-20.815655
946.856000	-18.812723
947.062000	-0.825337
947.268000	-1.480440
947.473000	-18.046081
947.679000	-19.074249
947.885000	-5.184722
948.090000	-2.171363
948.296000	12.467635
948.502000	-2.441696
948.708000	-11.565461
948.913000	-14.818168
949.119000	-3.709953
949.325000	-10.080134
949.530000	-23.779760
949.736000	-30.723485
949.942000	-19.702316
950.147000	-17.405665
950.353000	-14.166529
950.559000	-6.913031
950.764000	13.113433
950.970000	1.995461
951.176000	-10.977952
951.382000	-16.099879
951.587000	-5.600522
951.793000	2.375208
951.999000	1.918287
952.204000	-11.024039
952.410000	-25.747634
952.616000	-13.501913
952.821000	-10.065282
953.027000	-17.990835
953.233000	-18.601687
953.438000	-17.722182
953.644000	1.389389
953.850000	-5.850919
954.056000	-11.913471
954.261000	-8.453108
954.467000	2.745578
954.673000	8.337346
954.878000	-4.493396
955.084000	-8.790707
955.290000	-24.873698
955.495000	-23.158128
955.701000	-18.340318
955.907000	1.452935
956.112000	1.150358
956.318000	8.190923
956.524000	4.795147
956.730000	-6.689326
956.935000	-11.502107
957.141000	-18.180061
957.347000	-1.776218
957.552000	-6.288087
957.758000	-23.736699
957.964000	-30.271250
958.169000	3.414910
958.375000	1.046677
958.581000	-16.637399
958.786000	-27.362691
958.992000	-32.586106
959.198000	-12.610006
959.404000	-3.961135
959.609000	-11.473894
959.815000	-13.994861
960.021000	6.711692
960.226000	-3.569009
960.432000	-29.387074
960.638000	-20.291169
960.843000	-16.127318
961.049000	-18.188236
961.255000	-3.318054
961.460000	-12.644259
961.666000	-32.711309
961.872000	-20.599766
962.078000	-17.983167
962.283000	-32.123808
962.489000	-31.840417
962.695000	-16.490597
962.900000	-14.944276
963.106000	-14.926990
963.312000	-18.203150
963.517000	-20.702260
963.723000	-25.011528
963.929000	0.294158
964.134000	5.798256
964.340000	-19.741627
964.546000	-19.460565
964.752000	-24.351472
964.957000	-29.876041
965.163000	-1.224440
965.369000	-4.923283
965.574000	-4.386649
965.780000	-11.250171
966.000000	-24.009457
966.220000	-18.627862
966.440000	-13.965474
966.661000	-3.472569
966.881000	-21.900382
967.101000	-43.214340
967.321000	-40.585852
967.541000	-9.816400
967.761000	-11.981703
967.981000	-12.178530
968.202000	-16.663139
968.422000	-1.559224
968.642000	-0.924254
968.862000	-1.801363
969.082000	-10.887509
969.302000	-0.312277
969.522000	-9.076339
969.743000	2.049484
969.963000	-17.979280
970.183000	-33.695988
970.403000	-30.786540
970.623000	-24.411778
970.843000	-1.893497
971.063000	1.052918
971.284000	-20.817841
971.504000	-39.537239
971.724000	-12.491940
971.944000	-25.880886
972.164000	-41.378869
972.384000	-27.872810
972.604000	-44.986315
972.825000	-52.060207
973.045000	-32.486238
973.265000	31.240778
973.485000	14.251797
973.705000	-6.319883
973.925000	-16.013466
974.145000	-55.179756
974.365000	-13.296590
974.586000	-16.757174
974.806000	-38.795313
975.026000	-4.023167
975.246000	-20.315971
975.466000	-34.173827
975.686000	-15.444628
975.906000	-27.952789
976.127000	-53.457112
976.347000	-42.980724
976.567000	-11.245197
976.787000	-15.094365
977.007000	-20.828622
977.227000	-26.100942
977.447000	-31.317724
977.668000	-48.733127
977.888000	-36.037426
978.108000	-34.743434
978.328000	-23.879436
978.548000	1.040199
978.768000	5.768871
978.988000	-3.197846
979.209000	-19.712128
979.429000	-24.443313
979.649000	-9.449762
979.869000	-31.400253
980.089000	-46.955951
980.309000	-52.044021
980.529000	-59.570535
980.750000	-38.066148
980.970000	-47.675263
981.190000	-38.844580
981.410000	-31.658226
981.630000	-43.158646
981.850000	-28.342288
982.070000	-21.960570
982.291000	-50.994532
982.511000	-48.375125
982.731000	-12.470835
982.951000	-28.472477
983.171000	-39.737676
983.391000	-25.537282
983.611000	11.651708
983.832000	-13.292821
984.052000	-51.608240
984.272000	-38.492700
984.492000	-29.063325
984.712000	-42.642600
984.932000	-63.594771
985.152000	-65.468061
985.373000	-45.658855
985.593000	-20.617918
985.813000	-23.388843
986.033000	-36.400316
986.253000	3.501454
986.473000	4.103839
986.693000	-38.428480
986.914000	-49.815780
987.134000	-5.590375
987.354000	-39.217101
987.574000	193.123636
987.794000	119.689118
988.014000	-41.997024
988.234000	-38.552618
988.455000	-25.418519
988.675000	-19.657561
988.895000	-26.436828
989.115000	-40.997391
989.335000	-28.792069
989.555000	-15.843989
989.775000	-43.737342
989.995000	-29.922511
990.216000	-17.804361
990.436000	-11.511192
990.656000	11.775549
990.876000	-34.189327
991.096000	-10.158083
991.316000	22.988241
991.536000	-19.932279
991.757000	-26.885887
991.977000	-75.968997
992.197000	-19.185432
992.417000	-42.587987
992.637000	-92.000144
992.857000	-96.467711
993.077000	-91.806800
993.298000	-50.153962
993.518000	-47.106079
993.738000	-92.913630
993.958000	-42.339915
994.178000	-56.533367
994.398000	-51.436726
994.618000	-91.966833
994.839000	-148.429189
995.059000	-44.695866
995.279000	21.657228
995.499000	-22.941834
995.719000	-6.922674
995.939000	-25.193902
996.159000	-32.105083
996.380000	-31.115645
996.600000	-92.416062
996.820000	-49.749105
997.040000	-2.252053
997.260000	-75.339540
997.480000	-43.714278
997.700000	-98.603291
997.921000	-51.874265
998.141000	22.458488
998.361000	-12.420699
998.581000	-53.854043
998.801000	-97.345708
999.021000	-84.399417
999.241000	-47.928122
999.462000	-65.930553
999.682000	-114.437103
999.902000	-65.102156
1000.122000	-69.925222
1000.342000	-137.599847
1000.562000	-65.127755
1000.782000	-64.987106
1001.003000	-1070.740082
