Wavelength	Irradiance
(nm)	(mW/cm2/nm)

294.396000	0.000000
294.577000	0.000000
294.757000	0.000000
294.938000	0.000000
295.118000	0.000000
295.299000	0.000000
295.479000	-0.000000
295.660000	-0.000000
295.840000	-0.000000
296.021000	-0.000000
296.202000	-0.000000
296.382000	-0.000000
296.563000	-0.000000
296.743000	-0.000000
296.924000	0.000000
297.104000	-0.000000
297.285000	-0.000000
297.465000	-0.000000
297.646000	-0.000000
297.826000	-0.000000
298.007000	0.000000
298.187000	0.000000
298.368000	-0.000000
298.548000	0.000000
298.729000	0.000000
298.909000	-0.000000
299.090000	-0.000000
299.270000	-0.000000
299.451000	-0.000000
299.631000	-0.000000
299.812000	-0.000000
299.992000	0.000000
300.173000	0.000000
300.353000	-0.000000
300.534000	0.000000
300.714000	0.000000
300.895000	0.000000
301.075000	-0.000000
301.256000	0.000000
301.436000	-0.000000
301.617000	-0.000000
301.797000	-0.000000
301.978000	-0.000000
302.159000	0.000000
302.339000	0.000000
302.520000	0.000000
302.700000	-0.000000
302.881000	0.000000
303.061000	0.000000
303.242000	0.000000
303.422000	0.000000
303.603000	0.000000
303.783000	-0.000000
303.964000	0.000000
304.144000	-0.000000
304.325000	-0.000000
304.505000	0.000000
304.686000	0.000000
304.866000	0.000000
305.047000	0.000000
305.227000	-0.000000
305.408000	-0.000000
305.588000	-0.000000
305.769000	-0.000000
305.949000	-0.000000
306.130000	-0.000000
306.310000	-0.000000
306.491000	-0.000000
306.671000	0.000000
306.852000	-0.000000
307.032000	-0.000000
307.213000	-0.000000
307.393000	-0.000000
307.574000	0.000000
307.755000	0.000000
307.935000	-0.000000
308.116000	-0.000000
308.296000	-0.000000
308.477000	0.000000
308.657000	0.000000
308.838000	0.000000
309.018000	0.000000
309.199000	-0.000000
309.379000	-0.000000
309.560000	0.000000
309.740000	0.000000
309.921000	0.000000
310.101000	0.000000
310.282000	-0.000000
310.462000	-0.000000
310.643000	-0.000000
310.823000	-0.000000
311.004000	-0.000000
311.184000	-0.000000
311.365000	0.000000
311.545000	0.000000
311.726000	0.000000
311.906000	0.000000
312.087000	0.000000
312.267000	-0.000000
312.448000	-0.000000
312.628000	-0.000000
312.809000	-0.000000
312.989000	-0.000000
313.170000	-0.000000
313.344000	-0.000000
313.518000	-0.000000
313.691000	-0.000000
313.865000	-0.000000
314.039000	-0.000000
314.213000	-0.000000
314.387000	-0.000000
314.560000	-0.000000
314.734000	-0.000000
314.908000	-0.000000
315.082000	-0.000000
315.255000	0.000000
315.429000	0.000000
315.603000	0.000000
315.777000	-0.000000
315.951000	0.000000
316.124000	-0.000000
316.298000	-0.000000
316.472000	-0.000000
316.646000	-0.000000
316.820000	-0.000000
316.993000	0.000000
317.167000	-0.000000
317.341000	-0.000000
317.515000	-0.000000
317.688000	0.000000
317.862000	-0.000000
318.036000	-0.000000
318.210000	-0.000000
318.384000	-0.000000
318.557000	-0.000000
318.731000	-0.000000
318.905000	0.000000
319.079000	0.000000
319.253000	-0.000000
319.426000	0.000000
319.600000	0.000000
319.774000	-0.000000
319.948000	-0.000000
320.122000	0.000000
320.295000	0.000000
320.469000	-0.000000
320.643000	-0.000000
320.817000	-0.000000
320.990000	-0.000000
321.164000	-0.000000
321.338000	-0.000000
321.512000	-0.000000
321.686000	-0.000000
321.859000	-0.000000
322.033000	-0.000000
322.207000	-0.000000
322.381000	-0.000000
322.555000	0.000000
322.728000	0.000000
322.902000	-0.000000
323.076000	-0.000000
323.250000	-0.000000
323.423000	-0.000000
323.597000	-0.000000
323.771000	-0.000000
323.945000	-0.000000
324.119000	-0.000000
324.292000	0.000000
324.466000	0.000000
324.640000	0.000000
324.814000	0.000000
324.988000	-0.000000
325.161000	-0.000000
325.335000	-0.000000
325.509000	-0.000000
325.683000	0.000000
325.856000	-0.000000
326.030000	-0.000000
326.204000	-0.000000
326.378000	-0.000000
326.552000	-0.000000
326.725000	-0.000000
326.899000	-0.000000
327.073000	-0.000000
327.247000	-0.000000
327.421000	0.000000
327.594000	0.000000
327.768000	-0.000000
327.942000	0.000000
328.116000	0.000000
328.289000	0.000000
328.463000	-0.000000
328.637000	0.000000
328.811000	-0.000000
328.985000	-0.000000
329.158000	-0.000000
329.332000	-0.000000
329.506000	0.000000
329.680000	-0.000000
329.854000	-0.000000
330.027000	-0.000000
330.201000	0.000000
330.375000	0.000000
330.549000	0.000000
330.723000	0.000000
330.896000	-0.000000
331.070000	-0.000000
331.244000	0.000000
331.418000	-0.000000
331.591000	-0.000000
331.765000	-0.000000
331.939000	-0.000000
332.113000	-0.000000
332.287000	-0.000000
332.460000	0.000000
332.634000	0.000000
332.808000	-0.000000
332.982000	-0.000000
333.156000	-0.000000
333.329000	0.000000
333.503000	-0.000000
333.677000	-0.000000
333.851000	-0.000000
334.024000	0.000000
334.198000	0.000000
334.372000	-0.000000
334.546000	-0.000000
334.720000	-0.000000
334.893000	-0.000000
335.067000	0.000000
335.241000	0.000000
335.415000	-0.000000
335.589000	-0.000000
335.762000	-0.000000
335.936000	-0.000000
336.110000	-0.000000
336.284000	-0.000000
336.458000	-0.000000
336.631000	-0.000000
336.805000	-0.000000
336.979000	-0.000000
337.153000	-0.000000
337.326000	-0.000000
337.500000	0.000000
337.674000	-0.000000
337.848000	-0.000000
338.022000	-0.000000
338.195000	-0.000000
338.369000	-0.000000
338.543000	-0.000000
338.717000	-0.000000
338.891000	0.000000
339.064000	0.000000
339.238000	-0.000000
339.412000	-0.000000
339.586000	-0.000000
339.759000	-0.000000
339.933000	-0.000000
340.107000	0.000000
340.281000	-0.000000
340.455000	-0.000000
340.628000	-0.000000
340.802000	-0.000000
340.976000	0.000000
341.150000	-0.000000
341.324000	-0.000000
341.497000	-0.000000
341.671000	-0.000000
341.845000	-0.000000
342.019000	-0.000000
342.192000	-0.000000
342.366000	-0.000000
342.540000	-0.000000
342.714000	-0.000000
342.888000	-0.000000
343.061000	-0.000000
343.235000	-0.000000
343.409000	-0.000000
343.583000	-0.000000
343.757000	-0.000000
343.930000	-0.000000
344.104000	-0.000000
344.278000	0.000000
344.452000	0.000000
344.626000	-0.000000
344.799000	-0.000000
344.973000	-0.000000
345.147000	-0.000000
345.321000	-0.000000
345.494000	-0.000000
345.668000	0.000000
345.842000	0.000000
346.016000	-0.000000
346.190000	0.000000
346.363000	0.000000
346.537000	-0.000000
346.711000	-0.000000
346.885000	-0.000000
347.059000	-0.000000
347.232000	0.000000
347.406000	0.000000
347.580000	-0.000000
347.754000	-0.000000
347.927000	0.000000
348.101000	0.000000
348.275000	-0.000000
348.449000	-0.000000
348.623000	-0.000000
348.796000	0.000000
348.970000	0.000000
349.144000	-0.000000
349.318000	-0.000000
349.492000	-0.000000
349.665000	-0.000000
349.839000	-0.000000
350.013000	-0.000000
350.187000	-0.000000
350.361000	-0.000000
350.534000	-0.000000
350.708000	-0.000000
350.882000	-0.000000
351.056000	0.000000
351.229000	0.000000
351.403000	-0.000000
351.577000	-0.000000
351.751000	-0.000000
351.925000	-0.000000
352.098000	-0.000000
352.272000	-0.000000
352.446000	-0.000000
352.620000	-0.000000
352.794000	-0.000000
352.967000	-0.000000
353.141000	0.000000
353.315000	0.000000
353.489000	-0.000000
353.662000	-0.000000
353.836000	-0.000000
354.010000	-0.000000
354.184000	0.000000
354.358000	-0.000000
354.531000	-0.000000
354.705000	-0.000000
354.879000	-0.000000
355.053000	-0.000000
355.227000	-0.000000
355.400000	-0.000000
355.574000	0.000000
355.748000	0.000000
355.922000	-0.000000
356.095000	-0.000000
356.269000	0.000000
356.443000	-0.000000
356.617000	-0.000000
356.791000	-0.000000
356.964000	-0.000000
357.138000	-0.000000
357.312000	-0.000000
357.486000	-0.000000
357.660000	-0.000000
357.833000	0.000000
358.007000	-0.000000
358.181000	-0.000000
358.355000	-0.000000
358.529000	-0.000000
358.702000	-0.000000
358.876000	-0.000000
359.050000	-0.000000
359.224000	-0.000000
359.397000	0.000000
359.571000	-0.000000
359.745000	-0.000000
359.919000	-0.000000
360.093000	-0.040658
360.266000	0.097289
360.440000	0.192350
360.614000	0.121066
360.788000	0.061413
360.962000	-0.108611
361.135000	-0.001948
361.309000	-0.206792
361.483000	-0.275204
361.657000	-0.248243
361.830000	-0.214890
362.004000	0.073901
362.178000	-0.277436
362.352000	-0.183578
362.526000	-0.027767
362.699000	-0.017474
362.873000	-0.272934
363.047000	-0.299273
363.221000	-0.254773
363.395000	-0.163193
363.568000	-0.200639
363.742000	-0.159684
363.916000	-0.045154
364.090000	-0.067197
364.263000	-0.050045
364.437000	-0.290791
364.611000	-0.084104
364.785000	-0.085508
364.959000	-0.338469
365.132000	-0.292576
365.306000	-0.255985
365.480000	-0.095173
365.656000	-0.144141
365.831000	-0.064610
366.007000	-0.077234
366.183000	-0.053197
366.358000	-0.111508
366.534000	-0.115177
366.710000	-0.367838
366.886000	-0.281575
367.061000	-0.053323
367.237000	0.099114
367.413000	-0.007897
367.588000	-0.267457
367.764000	-0.305296
367.940000	-0.286590
368.115000	-0.173711
368.291000	-0.214025
368.467000	-0.092891
368.643000	0.226328
368.818000	-0.071625
368.994000	-0.284456
369.170000	-0.177111
369.345000	-0.208051
369.521000	-0.203614
369.697000	-0.020200
369.872000	-0.149000
370.048000	-0.267531
370.224000	-0.218913
370.399000	-0.407651
370.575000	-0.313927
370.751000	-0.276543
370.927000	-0.208559
371.102000	-0.325252
371.278000	-0.311730
371.454000	-0.218902
371.629000	0.098096
371.805000	0.033061
371.981000	0.170849
372.156000	0.359476
372.332000	0.200905
372.508000	0.157156
372.683000	0.050508
372.859000	-0.102918
373.035000	-0.115979
373.211000	0.195559
373.386000	-0.008378
373.562000	-0.348209
373.738000	-0.348511
373.913000	-0.577788
374.089000	-0.436604
374.265000	-0.044197
374.440000	-0.008436
374.616000	0.117844
374.792000	-0.148569
374.968000	0.226105
375.143000	0.033021
375.319000	-0.193598
375.495000	-0.196863
375.670000	-0.049356
375.846000	0.110221
376.022000	-0.188017
376.197000	-0.168654
376.373000	-0.311841
376.549000	-0.328230
376.724000	-0.380023
376.900000	-0.286958
377.076000	-0.118900
377.252000	0.100559
377.427000	0.244937
377.603000	-0.066353
377.779000	-0.223586
377.954000	-0.352070
378.130000	-0.208223
378.306000	-0.129381
378.481000	-0.180620
378.657000	-0.219760
378.833000	-0.225104
379.009000	-0.112396
379.184000	-0.059981
379.360000	-0.139492
379.536000	-0.054184
379.711000	-0.014064
379.887000	-0.117788
380.063000	-0.230792
380.238000	-0.255427
380.414000	0.003432
380.590000	-0.117821
380.765000	-0.215336
380.941000	-0.047824
381.117000	0.026022
381.293000	-0.002258
381.468000	-0.164080
381.644000	-0.155199
381.820000	-0.087305
381.995000	-0.008015
382.171000	0.279534
382.347000	0.216003
382.522000	-0.185086
382.698000	0.128453
382.874000	0.116910
383.050000	-0.299356
383.225000	0.088978
383.401000	0.341058
383.577000	0.124483
383.752000	-0.154863
383.928000	-0.137597
384.104000	0.015029
384.279000	-0.054380
384.455000	-0.058466
384.631000	-0.081071
384.806000	-0.288108
384.982000	-0.114985
385.158000	-0.201256
385.334000	-0.075016
385.509000	-0.064086
385.685000	-0.367728
385.861000	-0.219288
386.036000	-0.334538
386.212000	-0.550289
386.388000	-0.359640
386.563000	-0.230758
386.739000	-0.233198
386.915000	-0.431933
387.090000	-0.098640
387.266000	0.076830
387.442000	0.071114
387.618000	-0.019038
387.793000	-0.267689
387.969000	-0.459467
388.145000	-0.289299
388.320000	-0.190518
388.496000	-0.185362
388.672000	-0.369988
388.847000	-0.046808
389.023000	-0.091975
389.199000	-0.295406
389.375000	-0.074466
389.550000	-0.233836
389.726000	-0.101733
389.902000	-0.320995
390.077000	-0.177123
390.253000	-0.130132
390.429000	-0.248367
390.604000	-0.202207
390.780000	-0.129344
390.956000	-0.227070
391.131000	-0.232111
391.307000	0.134763
391.483000	-0.084332
391.659000	-0.210970
391.834000	-0.106126
392.010000	-0.242558
392.186000	-0.259217
392.361000	-0.287180
392.537000	-0.387546
392.713000	0.143320
392.888000	0.364768
393.064000	0.035741
393.240000	-0.164210
393.416000	-0.249095
393.591000	-0.288744
393.767000	-0.408997
393.943000	-0.312807
394.118000	0.152339
394.294000	0.343867
394.470000	0.167775
394.645000	0.140780
394.821000	0.311937
394.997000	0.013754
395.172000	0.034730
395.348000	-0.017926
395.524000	-0.391656
395.700000	-0.325915
395.875000	-0.106559
396.051000	-0.137720
396.227000	-0.175535
396.402000	-0.181750
396.578000	-0.023188
396.754000	-0.248440
396.929000	-0.278638
397.105000	0.044807
397.281000	-0.007292
397.457000	-0.189037
397.632000	-0.151075
397.808000	-0.353719
397.984000	-0.582951
398.159000	-0.443697
398.335000	-0.152411
398.511000	0.251480
398.686000	-0.022744
398.862000	-0.320371
399.038000	-0.468052
399.213000	-0.195718
399.389000	-0.361438
399.565000	-0.089082
399.741000	0.151372
399.916000	0.121854
400.092000	0.383300
400.268000	0.033632
400.443000	-0.094881
400.619000	0.219259
400.795000	0.065090
400.970000	-0.139672
401.146000	-0.129983
401.322000	0.245237
401.497000	0.492172
401.673000	0.137649
401.849000	-0.192896
402.025000	-0.012326
402.200000	-0.078876
402.376000	-0.135157
402.552000	0.275544
402.727000	0.079820
402.903000	-0.196067
403.079000	-0.088903
403.254000	0.243415
403.430000	0.130038
403.606000	-0.129235
403.782000	-0.154482
403.957000	-0.261938
404.133000	-0.344362
404.309000	-0.170596
404.484000	0.048859
404.660000	0.033684
404.841000	-0.104178
405.023000	0.048757
405.204000	-0.032601
405.385000	-0.263024
405.566000	-0.338254
405.748000	-0.120447
405.929000	0.199678
406.110000	0.253616
406.292000	0.094156
406.473000	0.018269
406.654000	-0.216876
406.835000	0.064229
407.017000	0.038595
407.198000	-0.057247
407.379000	-0.057089
407.560000	-0.152713
407.742000	-0.174147
407.923000	-0.037670
408.104000	-0.164149
408.286000	-0.037415
408.467000	0.023200
408.648000	-0.168975
408.829000	-0.244001
409.011000	-0.037353
409.192000	-0.194585
409.373000	-0.113355
409.555000	0.018221
409.736000	0.053291
409.917000	-0.062572
410.098000	-0.027069
410.280000	0.082609
410.461000	-0.056631
410.642000	-0.076642
410.823000	0.246758
411.005000	0.242091
411.186000	0.067791
411.367000	-0.021951
411.549000	-0.051847
411.730000	0.062797
411.911000	0.216933
412.092000	0.042662
412.274000	-0.051202
412.455000	0.131231
412.636000	0.180731
412.818000	-0.006886
412.999000	-0.060575
413.180000	-0.016710
413.361000	-0.001973
413.543000	-0.021589
413.724000	-0.178141
413.905000	-0.178147
414.087000	-0.011771
414.268000	-0.006791
414.449000	-0.050541
414.630000	-0.089766
414.812000	-0.118796
414.993000	0.239414
415.174000	0.384403
415.355000	0.114673
415.537000	-0.137385
415.718000	0.186920
415.899000	0.123598
416.081000	0.041351
416.262000	0.218803
416.443000	0.098598
416.624000	0.208200
416.806000	0.261229
416.987000	0.310554
417.168000	0.237016
417.350000	0.055418
417.531000	0.026593
417.712000	0.126306
417.893000	0.425294
418.075000	0.551379
418.256000	0.320594
418.437000	0.340932
418.618000	0.415615
418.800000	0.504967
418.981000	0.313919
419.162000	0.307215
419.344000	0.563781
419.525000	0.656875
419.706000	0.553222
419.887000	0.727310
420.069000	0.830608
420.250000	0.683793
420.431000	0.592502
420.613000	0.434158
420.794000	0.344755
420.975000	0.829951
421.156000	0.619662
421.338000	0.637977
421.519000	0.717813
421.700000	0.493486
421.882000	0.526417
422.063000	0.807452
422.244000	1.351124
422.425000	1.102508
422.607000	0.719903
422.788000	0.754378
422.969000	0.692833
423.150000	0.839319
423.332000	0.696323
423.513000	0.839569
423.694000	1.047177
423.876000	1.157071
424.057000	1.209083
424.238000	1.369701
424.419000	1.349969
424.601000	1.207520
424.782000	1.220514
424.963000	1.337249
425.145000	1.298499
425.326000	1.367985
425.507000	1.515870
425.688000	1.438828
425.870000	1.392565
426.051000	1.368954
426.232000	1.434560
426.413000	1.494939
426.595000	1.440140
426.776000	1.486427
426.957000	1.714454
427.139000	1.791719
427.320000	1.846801
427.501000	2.081252
427.682000	2.061658
427.864000	2.126412
428.045000	2.349844
428.226000	2.329817
428.408000	2.005636
428.589000	2.209269
428.770000	2.312446
428.951000	2.209908
429.133000	2.165864
429.314000	2.410618
429.495000	2.425914
429.677000	2.556092
429.858000	2.671212
430.039000	2.805584
430.220000	2.956083
430.402000	3.054318
430.583000	2.860053
430.764000	3.091263
430.945000	3.316984
431.127000	3.427904
431.308000	3.241245
431.489000	3.607601
431.671000	3.771645
431.852000	3.649123
432.033000	3.617088
432.214000	3.831983
432.396000	4.010978
432.577000	3.881149
432.758000	3.956334
432.940000	4.132678
433.121000	4.350299
433.302000	4.520283
433.483000	4.732154
433.665000	4.900411
433.846000	4.871821
434.027000	4.887049
434.208000	4.921751
434.390000	5.068265
434.571000	5.629916
434.752000	6.134642
434.934000	5.910904
435.115000	5.921133
435.296000	5.969138
435.477000	5.901859
435.659000	5.750240
435.840000	6.104572
436.026000	6.346153
436.211000	6.388385
436.397000	6.154811
436.582000	6.636228
436.768000	7.089256
436.953000	7.101865
437.139000	7.250519
437.325000	7.757446
437.510000	7.703352
437.696000	8.008823
437.881000	8.281980
438.067000	8.055306
438.252000	8.306330
438.438000	8.435987
438.624000	8.724931
438.809000	8.911391
438.995000	9.118444
439.180000	9.346123
439.366000	9.557277
439.551000	9.566134
439.737000	9.844600
439.923000	10.224860
440.108000	10.185510
440.294000	10.464196
440.479000	10.825882
440.665000	11.087861
440.850000	11.314383
441.036000	11.476067
441.222000	11.695217
441.407000	11.863545
441.593000	12.189058
441.778000	12.557799
441.964000	12.916699
442.149000	12.854859
442.335000	12.996161
442.521000	13.338623
442.706000	13.848958
442.892000	14.044372
443.077000	14.221170
443.263000	14.391314
443.448000	14.646053
443.634000	14.922169
443.820000	15.586367
444.005000	15.753535
444.191000	15.765635
444.376000	16.131510
444.562000	16.621376
444.747000	17.090283
444.933000	17.238133
445.119000	17.429778
445.304000	17.540164
445.490000	18.008346
445.675000	18.391585
445.861000	18.595986
446.046000	18.979818
446.232000	19.344934
446.418000	19.828217
446.603000	20.143521
446.789000	20.487742
446.974000	20.753540
447.160000	20.792670
447.345000	21.075686
447.531000	21.400559
447.717000	22.275192
447.902000	22.698647
448.088000	22.995681
448.273000	23.180174
448.459000	23.469121
448.644000	23.755566
448.830000	24.224261
449.016000	24.450418
449.201000	24.944089
449.387000	25.505369
449.572000	25.827933
449.758000	26.129184
449.943000	26.573816
450.129000	26.977974
450.315000	27.296076
450.500000	27.568586
450.686000	28.069382
450.871000	28.438350
451.057000	29.080567
451.243000	29.464275
451.428000	29.821325
451.614000	30.363959
451.799000	30.686350
451.985000	31.409631
452.170000	31.535721
452.356000	31.493123
452.542000	32.011078
452.727000	32.245506
452.913000	32.526484
453.098000	33.274396
453.284000	33.844848
453.469000	34.228779
453.655000	34.620566
453.841000	34.390798
454.026000	34.672810
454.212000	34.826706
454.397000	35.083666
454.583000	35.797167
454.768000	35.896227
454.954000	36.090842
455.140000	36.368754
455.325000	36.395873
455.511000	36.608228
455.696000	36.821301
455.882000	36.932185
456.067000	37.498593
456.253000	37.765592
456.439000	37.728407
456.624000	37.781331
456.810000	37.536162
456.995000	37.677205
457.181000	37.550317
457.366000	37.526881
457.552000	37.411687
457.738000	37.579371
457.923000	37.602790
458.109000	38.067661
458.294000	37.932161
458.480000	37.920475
458.665000	37.582299
458.851000	37.201864
459.037000	36.642259
459.222000	36.567849
459.408000	36.437708
459.593000	36.315520
459.779000	36.103671
459.964000	36.017876
460.150000	36.254414
460.336000	35.872602
460.521000	35.053663
460.707000	34.535438
460.892000	34.161409
461.078000	34.214798
461.263000	33.744067
461.449000	33.264874
461.635000	32.819749
461.820000	32.515701
462.006000	32.241599
462.191000	31.796537
462.377000	31.242679
462.562000	31.188499
462.748000	30.970791
462.934000	30.362500
463.119000	29.364063
463.305000	29.019621
463.490000	28.660726
463.676000	28.247963
463.861000	27.734711
464.047000	27.205231
464.233000	26.808897
464.418000	26.356252
464.604000	25.945674
464.789000	25.780842
464.975000	25.240607
465.160000	24.651349
465.346000	24.295994
465.532000	23.996833
465.717000	23.524821
465.903000	23.373717
466.088000	22.825140
466.274000	22.282803
466.459000	21.750838
466.645000	21.791893
466.831000	21.248848
467.016000	20.913403
467.202000	20.563355
467.387000	20.186200
467.573000	19.598964
467.758000	19.379509
467.944000	18.860033
468.130000	18.614055
468.315000	18.559003
468.501000	18.258633
468.686000	17.843966
468.872000	17.774537
469.057000	17.532518
469.243000	17.125074
469.429000	16.608651
469.614000	16.339180
469.800000	16.117150
469.985000	15.909544
470.171000	15.625575
470.356000	15.476093
470.542000	15.348691
470.728000	15.038087
470.913000	14.763813
471.099000	14.561578
471.284000	14.374889
471.470000	14.173229
471.655000	13.992294
471.841000	13.647332
472.027000	13.303843
472.212000	13.318729
472.398000	13.480406
472.583000	13.176355
472.769000	12.838909
472.954000	12.629231
473.140000	12.304345
473.326000	11.991866
473.511000	11.946170
473.697000	11.928138
473.882000	11.826946
474.068000	11.576882
474.253000	11.141541
474.439000	11.127055
474.625000	10.935327
474.810000	10.768050
474.996000	10.628677
475.181000	10.400727
475.367000	10.293867
475.552000	10.341776
475.738000	9.991349
475.924000	9.788792
476.109000	9.634899
476.295000	9.322091
476.480000	9.174353
476.666000	9.010464
476.851000	8.941438
477.037000	8.934409
477.223000	8.588440
477.408000	8.329896
477.594000	8.086368
477.779000	8.085060
477.965000	8.037783
478.151000	7.814253
478.336000	7.760566
478.522000	7.491905
478.707000	7.373222
478.893000	7.349088
479.078000	7.083712
479.264000	6.927565
479.450000	6.829781
479.635000	6.877910
479.821000	6.742665
480.006000	6.572392
480.192000	6.390408
480.377000	6.393531
480.563000	6.243616
480.749000	5.863160
480.934000	5.777913
481.120000	5.717385
481.305000	5.780925
481.491000	5.718400
481.676000	5.609078
481.862000	5.593213
482.048000	5.308633
482.233000	5.248660
482.419000	5.034555
482.604000	4.896091
482.790000	4.763348
482.975000	4.703067
483.161000	4.771411
483.347000	4.735143
483.532000	4.550026
483.718000	4.245553
483.903000	4.226355
484.089000	4.140845
484.274000	4.001834
484.460000	4.031395
484.646000	4.003025
484.831000	3.797643
485.017000	3.739198
485.202000	3.678508
485.388000	3.861739
485.573000	3.797119
485.759000	3.653118
485.945000	3.707473
486.130000	3.444023
486.316000	3.391776
486.501000	3.336494
486.687000	3.072104
486.872000	3.028600
487.058000	3.205199
487.244000	3.103794
487.429000	2.849511
487.615000	3.027803
487.800000	3.009523
487.986000	2.835170
488.171000	2.827530
488.357000	2.768444
488.543000	2.800657
488.728000	2.808618
488.914000	2.655208
489.099000	2.537252
489.285000	2.553057
489.470000	2.673203
489.656000	2.618922
489.842000	2.503762
490.027000	2.531111
490.213000	2.321900
490.398000	2.019005
490.584000	2.204214
490.769000	2.207703
490.955000	2.252748
491.141000	2.192069
491.326000	2.035212
491.512000	2.197258
491.697000	2.109704
491.883000	1.882060
492.068000	1.806113
492.254000	1.871770
492.440000	1.933059
492.625000	1.861641
492.811000	1.868225
492.996000	1.900107
493.182000	1.832245
493.367000	1.599861
493.553000	1.455634
493.739000	1.553187
493.924000	1.654818
494.110000	1.604958
494.295000	1.514533
494.481000	1.578069
494.666000	1.651188
494.852000	1.720435
495.038000	1.460701
495.223000	1.319196
495.409000	1.346816
495.594000	1.379814
495.780000	1.403502
495.965000	1.299107
496.151000	1.447546
496.337000	1.497286
496.522000	1.233635
496.708000	1.282382
496.893000	1.384458
497.079000	1.238317
497.264000	1.154595
497.450000	1.134695
497.636000	1.285076
497.821000	1.115847
498.007000	1.193747
498.192000	1.259352
498.378000	1.043435
498.563000	0.962331
498.749000	1.051628
498.935000	1.033081
499.120000	1.148992
499.306000	0.964285
499.491000	0.843411
499.677000	0.920846
499.862000	0.954855
500.048000	1.034660
500.234000	0.920236
500.419000	0.803111
500.605000	0.943119
500.790000	0.921711
500.976000	0.804225
501.161000	0.647692
501.347000	0.756403
501.533000	0.838492
501.718000	0.753043
501.904000	0.710518
502.089000	0.817325
502.275000	0.869639
502.460000	0.697461
502.646000	0.772983
502.832000	0.912718
503.017000	0.866893
503.203000	0.551006
503.388000	0.497643
503.574000	0.649742
503.759000	0.652975
503.945000	0.715538
504.131000	0.578982
504.316000	0.503572
504.502000	0.568611
504.687000	0.587240
504.873000	0.495119
505.058000	0.419737
505.244000	0.358025
505.430000	0.392992
505.615000	0.472464
505.801000	0.545554
505.986000	0.416263
506.172000	0.550102
506.358000	0.547923
506.543000	0.437827
506.729000	0.530789
506.914000	0.473461
507.100000	0.678784
507.285000	0.503548
507.471000	0.388986
507.657000	0.592735
507.842000	0.495335
508.028000	0.323083
508.213000	0.296207
508.399000	0.373106
508.584000	0.526199
508.770000	0.390142
508.956000	0.341902
509.141000	0.365849
509.327000	0.463810
509.512000	0.372069
509.698000	0.362245
509.883000	0.432711
510.069000	0.318966
510.255000	0.346977
510.440000	0.375310
510.626000	0.329795
510.811000	0.302340
510.997000	0.333833
511.182000	0.556656
511.368000	0.529328
511.554000	0.222197
511.739000	0.236019
511.925000	0.379404
512.110000	0.326693
512.296000	0.432482
512.481000	0.410987
512.667000	0.302976
512.853000	0.156063
513.038000	0.275421
513.224000	0.243943
513.409000	0.103735
513.595000	0.170596
513.780000	0.089816
513.966000	0.198098
514.152000	0.173620
514.337000	0.089646
514.523000	0.138684
514.708000	0.201929
514.894000	0.283340
515.079000	0.142167
515.265000	0.142656
515.451000	0.156776
515.636000	0.065334
515.822000	0.181475
516.007000	0.107636
516.193000	0.255120
516.378000	0.273157
516.564000	0.156767
516.750000	0.230660
516.935000	0.339833
517.121000	0.311630
517.306000	0.385844
517.492000	0.375847
517.677000	0.093679
517.863000	0.044383
518.049000	0.210003
518.234000	0.185198
518.420000	0.308813
518.605000	0.393283
518.791000	0.340253
518.976000	0.186007
519.162000	0.055065
519.348000	0.238663
519.533000	0.255944
519.719000	0.358542
519.904000	0.274157
520.090000	0.287704
520.275000	0.481945
520.461000	0.426338
520.647000	0.143499
520.832000	-0.054578
521.018000	0.072818
521.203000	0.153615
521.389000	0.002112
521.574000	0.054980
521.760000	0.220915
521.946000	0.189728
522.131000	0.133208
522.317000	0.115316
522.502000	0.023336
522.688000	0.090556
522.873000	0.097723
523.059000	0.087163
523.245000	0.118940
523.430000	0.016304
523.616000	0.065907
523.801000	-0.001419
523.987000	-0.019194
524.172000	0.176282
524.358000	0.190580
524.544000	0.019879
524.729000	0.175602
524.915000	0.275390
525.100000	0.119194
525.286000	0.119370
525.471000	0.137521
525.657000	0.226823
525.843000	-0.012140
526.028000	0.173653
526.214000	0.084294
526.399000	-0.015761
526.585000	-0.048010
526.770000	-0.090993
526.956000	0.045251
527.142000	-0.033753
527.327000	0.070459
527.513000	0.005759
527.698000	0.012972
527.884000	0.027485
528.069000	-0.033926
528.255000	0.088902
528.441000	-0.012302
528.626000	0.052988
528.812000	0.314047
528.997000	0.140263
529.183000	0.049398
529.368000	0.056925
529.554000	0.020489
529.740000	0.053568
529.925000	-0.001468
530.111000	0.035269
530.296000	0.075794
530.482000	0.138681
530.667000	0.146117
530.853000	0.179899
531.039000	0.039323
531.224000	0.080561
531.410000	0.218491
531.595000	0.203767
531.781000	0.229926
531.967000	0.039786
532.152000	0.182985
532.338000	0.160714
532.523000	-0.020411
532.709000	-0.031868
532.894000	0.044224
533.080000	0.013739
533.266000	-0.123748
533.451000	-0.105040
533.637000	-0.009231
533.822000	0.156771
534.008000	-0.040123
534.193000	-0.063506
534.379000	0.099487
534.565000	0.056967
534.750000	0.002350
534.936000	0.198919
535.121000	0.045720
535.307000	0.065540
535.492000	0.073555
535.678000	-0.204479
535.864000	-0.101546
536.049000	0.340171
536.235000	0.094999
536.420000	0.054996
536.606000	0.002433
536.791000	-0.107698
536.977000	-0.022084
537.163000	0.232375
537.348000	0.130495
537.534000	0.193728
537.719000	0.031674
537.905000	-0.148109
538.090000	0.078128
538.276000	0.213292
538.462000	0.129406
538.647000	0.168145
538.833000	0.070871
539.018000	0.255642
539.204000	0.187143
539.389000	-0.023337
539.575000	0.279413
539.761000	0.224298
539.946000	-0.054155
540.132000	0.055243
540.317000	-0.019347
540.503000	0.020270
540.688000	0.060305
540.874000	0.256188
541.060000	0.327242
541.245000	0.167963
541.431000	0.002690
541.616000	0.065646
541.802000	0.043202
541.987000	0.201282
542.173000	0.224702
542.359000	0.143326
542.544000	0.211052
542.730000	-0.042742
542.915000	0.016409
543.101000	0.280938
543.286000	0.016453
543.472000	-0.103011
543.658000	0.131618
543.843000	0.122716
544.029000	0.257327
544.214000	0.202048
544.400000	-0.154954
544.585000	-0.127397
544.771000	-0.076502
544.957000	0.208497
545.142000	0.372423
545.328000	0.396858
545.513000	0.402297
545.699000	0.328513
545.884000	0.205933
546.070000	0.149322
546.261000	0.064500
546.451000	-0.149380
546.642000	-0.287839
546.833000	-0.059195
547.023000	-0.140317
547.214000	-0.049837
547.405000	0.151399
547.595000	0.391459
547.786000	0.272572
547.977000	0.027042
548.167000	-0.195251
548.358000	-0.166987
548.549000	0.178320
548.740000	0.119855
548.930000	-0.114048
549.121000	-0.011731
549.312000	-0.188411
549.502000	-0.238050
549.693000	-0.080597
549.884000	0.012781
550.074000	0.067092
550.265000	-0.184941
550.456000	-0.046596
550.646000	0.122230
550.837000	0.112332
551.028000	0.007963
551.218000	0.162211
551.409000	-0.001999
551.600000	-0.052019
551.790000	0.078336
551.981000	-0.097413
552.172000	-0.132809
552.362000	0.244384
552.553000	0.306274
552.744000	0.023233
552.934000	-0.072792
553.125000	-0.098243
553.316000	-0.174314
553.506000	0.226467
553.697000	0.196730
553.888000	0.048842
554.079000	0.339105
554.269000	0.370026
554.460000	0.038833
554.651000	-0.032735
554.841000	-0.206874
555.032000	-0.217448
555.223000	-0.161260
555.413000	-0.042949
555.604000	-0.032862
555.795000	-0.017504
555.985000	0.126904
556.176000	-0.038105
556.367000	-0.285210
556.557000	-0.229342
556.748000	-0.064175
556.939000	-0.151923
557.129000	-0.260220
557.320000	-0.022732
557.511000	0.023721
557.701000	0.039129
557.892000	0.018609
558.083000	0.173495
558.273000	0.127047
558.464000	-0.151846
558.655000	-0.182677
558.845000	-0.099817
559.036000	0.085471
559.227000	0.075229
559.418000	0.090854
559.608000	0.075337
559.799000	-0.306128
559.990000	-0.253238
560.180000	-0.135511
560.371000	-0.325927
560.562000	-0.217637
560.752000	0.039046
560.943000	-0.145976
561.134000	-0.330129
561.324000	-0.032768
561.515000	0.258592
561.706000	0.033767
561.896000	-0.364505
562.087000	-0.262107
562.278000	-0.251810
562.468000	-0.333700
562.659000	-0.276814
562.850000	0.222001
563.040000	0.272918
563.231000	-0.139624
563.422000	-0.068059
563.612000	-0.195249
563.803000	-0.154291
563.994000	-0.234366
564.185000	-0.349952
564.375000	-0.002019
564.566000	-0.032270
564.757000	-0.052585
564.947000	-0.219181
565.138000	-0.132875
565.329000	-0.087401
565.519000	-0.237968
565.710000	-0.218106
565.901000	0.023133
566.091000	0.173874
566.282000	0.058159
566.473000	0.072974
566.663000	-0.016974
566.854000	-0.190948
567.045000	-0.096218
567.235000	-0.041654
567.426000	-0.041639
567.617000	-0.031610
567.807000	0.012847
567.998000	0.067064
568.189000	-0.011832
568.379000	0.012785
568.570000	0.110980
568.761000	-0.060764
568.951000	-0.031312
569.142000	-0.134234
569.333000	-0.212616
569.524000	-0.299671
569.714000	-0.309404
569.905000	-0.372208
570.096000	0.071115
570.286000	0.173171
570.477000	0.143594
570.668000	-0.098871
570.858000	-0.035863
571.049000	-0.132324
571.240000	-0.258016
571.430000	0.022197
571.621000	0.017310
571.812000	0.017239
572.002000	0.017270
572.193000	-0.136019
572.384000	-0.145536
572.574000	-0.025873
572.765000	0.002869
572.956000	-0.054350
573.146000	0.122232
573.337000	-0.006671
573.528000	0.012368
573.718000	0.192625
573.909000	0.107072
574.100000	-0.016051
574.290000	-0.175994
574.481000	-0.062916
574.672000	-0.067688
574.863000	0.016855
575.053000	0.021496
575.244000	-0.001865
575.435000	-0.164871
575.625000	-0.150233
575.816000	-0.122261
576.007000	-0.057426
576.197000	0.039890
576.388000	0.016633
576.579000	0.090530
576.769000	0.136559
576.960000	-0.080214
577.155000	-0.254687
577.350000	-0.024795
577.545000	0.085245
577.740000	-0.125203
577.935000	0.134977
578.130000	-0.006389
578.326000	-0.302097
578.521000	0.011824
578.716000	0.084195
578.911000	-0.123892
579.106000	0.047749
579.301000	0.123948
579.496000	-0.180860
579.691000	-0.399879
579.886000	-0.175773
580.081000	-0.055234
580.276000	0.042657
580.471000	-0.046204
580.666000	-0.223524
580.861000	-0.320981
581.057000	-0.290135
581.252000	-0.015087
581.447000	-0.068182
581.642000	-0.134820
581.837000	-0.214359
582.032000	-0.125423
582.227000	0.090447
582.422000	0.072749
582.617000	-0.110809
582.812000	-0.306335
583.007000	-0.188746
583.202000	-0.153671
583.397000	-0.070943
583.592000	0.162366
583.788000	-0.079202
583.983000	-0.074826
584.178000	-0.023185
584.373000	-0.134413
584.568000	-0.138403
584.763000	-0.249710
584.958000	-0.352306
585.153000	-0.215503
585.348000	-0.232480
585.543000	0.015400
585.738000	-0.117161
585.933000	-0.301104
586.128000	-0.001710
586.324000	0.054013
586.519000	-0.005997
586.714000	0.092599
586.909000	0.032639
587.104000	0.062910
587.299000	0.058434
587.494000	-0.027461
587.689000	-0.130696
587.884000	-0.096592
588.079000	-0.165598
588.274000	-0.191826
588.469000	-0.135389
588.664000	-0.036266
588.859000	-0.014700
589.055000	-0.045018
589.250000	-0.032047
589.445000	-0.123141
589.640000	-0.157956
589.835000	0.072207
590.030000	0.146111
590.225000	0.106994
590.420000	-0.097560
590.615000	-0.224066
590.810000	-0.171563
591.005000	-0.097938
591.200000	-0.163588
591.395000	-0.202924
591.591000	-0.102160
591.786000	-0.023556
591.981000	-0.203004
592.176000	-0.150809
592.371000	-0.098239
592.566000	-0.177053
592.761000	0.099030
592.956000	0.072862
593.151000	0.108031
593.346000	-0.001761
593.541000	0.059828
593.736000	0.020298
593.931000	-0.200421
594.126000	-0.085769
594.322000	-0.041557
594.517000	-0.160889
594.712000	-0.271509
594.907000	-0.250297
595.102000	-0.135089
595.297000	-0.041744
595.492000	0.047173
595.687000	-0.140019
595.882000	-0.282856
596.077000	-0.073310
596.272000	0.159104
596.467000	0.078684
596.662000	-0.140516
596.857000	-0.024262
597.053000	0.083709
597.248000	0.070177
597.443000	-0.060360
597.638000	-0.132751
597.833000	-0.300104
598.028000	-0.001806
598.223000	0.102214
598.418000	-0.042590
598.613000	-0.106007
598.808000	-0.042617
599.003000	-0.029047
599.198000	-0.183591
599.393000	-0.147192
599.589000	0.043731
599.784000	-0.147695
599.979000	-0.088565
600.174000	0.094109
600.369000	-0.111585
600.564000	-0.038464
600.759000	0.149453
600.954000	0.172085
601.149000	0.039480
601.344000	-0.231609
601.539000	0.025764
601.734000	-0.061570
601.929000	-0.292042
602.124000	-0.223133
602.320000	-0.011084
602.515000	0.145958
602.710000	0.118489
602.905000	-0.154569
603.100000	-0.260589
603.295000	-0.256439
603.490000	-0.168973
603.685000	-0.099358
603.880000	0.058572
604.075000	-0.146334
604.270000	-0.165325
604.465000	-0.109200
604.660000	-0.394184
604.856000	-0.258550
605.051000	0.016833
605.246000	-0.048590
605.441000	-0.273051
605.636000	-0.315221
605.831000	-0.137753
606.026000	-0.156429
606.221000	-0.198853
606.416000	-0.095797
606.611000	0.054527
606.806000	0.049781
607.001000	0.195619
607.196000	0.040478
607.391000	-0.171565
607.587000	-0.030226
607.782000	-0.020808
607.977000	-0.195323
608.172000	0.116424
608.367000	0.125887
608.562000	-0.172611
608.757000	-0.153593
608.952000	-0.215722
609.147000	0.173692
609.342000	0.178714
609.537000	-0.130472
609.732000	-0.102063
609.927000	-0.101861
610.122000	-0.044819
610.318000	0.131725
610.513000	0.246397
610.708000	0.002868
610.903000	-0.011486
611.098000	0.146754
611.293000	0.089228
611.488000	0.036464
611.683000	0.050946
611.878000	0.002885
612.073000	0.050977
612.268000	0.046218
612.463000	0.224851
612.658000	0.138001
612.854000	0.128620
613.049000	0.123840
613.244000	0.119071
613.439000	0.085222
613.634000	-0.215527
613.829000	-0.050498
614.024000	-0.084688
614.219000	-0.084676
614.414000	0.270751
614.609000	0.037064
614.804000	-0.201956
614.999000	-0.240761
615.194000	-0.216955
615.389000	-0.124260
615.585000	-0.256817
615.780000	-0.095161
615.975000	-0.115011
616.170000	-0.026560
616.365000	0.165431
616.560000	0.224729
616.755000	0.116661
616.950000	-0.026705
617.145000	0.047519
617.340000	-0.086211
617.535000	-0.373576
617.730000	-0.140902
617.925000	-0.245488
618.120000	-0.354927
618.316000	0.102625
618.511000	0.052856
618.706000	-0.222179
618.901000	-0.262076
619.096000	-0.102418
619.291000	-0.017055
619.486000	0.028179
619.681000	-0.319280
619.876000	-0.424852
620.071000	-0.274079
620.266000	0.008081
620.461000	-0.037440
620.656000	-0.078062
620.852000	-0.072901
621.047000	-0.250701
621.242000	-0.306930
621.437000	0.150774
621.632000	0.273609
621.827000	0.089923
622.022000	-0.186119
622.217000	-0.155860
622.412000	-0.043113
622.607000	-0.012330
622.802000	-0.125420
622.997000	-0.182596
623.192000	-0.084585
623.387000	-0.027857
623.583000	-0.208826
623.778000	0.241539
623.973000	0.163899
624.168000	-0.033273
624.363000	0.013496
624.558000	0.065518
624.753000	-0.278562
624.948000	-0.054354
625.143000	0.013598
625.338000	-0.007334
625.533000	-0.075463
625.728000	-0.028329
625.923000	0.034647
626.119000	-0.091554
626.314000	-0.339182
626.509000	-0.313809
626.704000	-0.161027
626.899000	-0.108151
627.094000	-0.187934
627.289000	-0.214971
627.484000	-0.167475
627.679000	-0.183640
627.874000	-0.231985
628.069000	0.094214
628.264000	-0.012836
628.459000	-0.162968
628.654000	-0.189944
628.850000	-0.244455
629.045000	-0.093794
629.240000	-0.120867
629.435000	-0.169650
629.630000	-0.050883
629.825000	-0.159139
630.020000	-0.154332
630.215000	-0.295461
630.410000	-0.182123
630.605000	-0.362361
630.800000	-0.160418
630.995000	0.096248
631.190000	0.255387
631.385000	0.041676
631.581000	-0.095579
631.776000	0.052767
631.971000	-0.101464
632.166000	-0.073949
632.361000	-0.184495
632.556000	-0.118374
632.751000	0.069923
632.946000	-0.052181
633.141000	-0.202679
633.336000	-0.286649
633.531000	-0.203622
633.726000	-0.186610
633.921000	-0.237537
634.117000	-0.395276
634.312000	-0.502460
634.507000	-0.396101
634.702000	-0.210806
634.897000	-0.216751
635.092000	-0.183366
635.287000	-0.138370
635.482000	-0.275191
635.677000	-0.098964
635.872000	0.094424
636.067000	0.208669
636.262000	-0.030907
636.457000	-0.401307
636.652000	-0.396197
636.848000	-0.339850
637.043000	-0.249337
637.238000	-0.411274
637.433000	-0.567227
637.628000	-0.330870
637.823000	0.015009
638.018000	0.096012
638.213000	-0.118255
638.408000	-0.373661
638.603000	-0.374197
638.798000	-0.293276
638.993000	-0.247198
639.188000	-0.311437
639.383000	-0.265004
639.579000	0.137611
639.774000	-0.084200
639.969000	-0.160281
640.164000	-0.195826
640.359000	-0.295817
640.554000	-0.102259
640.749000	-0.114327
640.944000	-0.079140
641.139000	-0.055403
641.334000	-0.285778
641.529000	-0.682736
641.724000	-0.428864
641.919000	-0.192327
642.115000	0.009520
642.310000	-0.002377
642.505000	-0.162748
642.700000	-0.157092
642.895000	-0.241131
643.090000	-0.079954
643.285000	0.081158
643.480000	-0.098090
643.675000	-0.086201
643.870000	0.255504
644.065000	0.075719
644.260000	-0.218685
644.455000	-0.146865
644.650000	-0.195501
644.846000	-0.141198
645.041000	-0.328117
645.236000	-0.461933
645.431000	-0.359663
645.626000	-0.553087
645.821000	-0.365355
646.016000	-0.293624
646.211000	-0.075368
646.406000	-0.075510
646.601000	-0.051102
646.796000	-0.300461
646.991000	-0.556002
647.186000	-0.252401
647.381000	-0.081748
647.577000	-0.112358
647.772000	0.052518
647.967000	-0.081991
648.162000	-0.082056
648.357000	0.015943
648.552000	-0.057616
648.747000	-0.051517
648.942000	0.015956
649.137000	0.089872
649.332000	-0.187376
649.527000	-0.279714
649.722000	0.009854
649.917000	0.059300
650.113000	-0.249253
650.308000	-0.292855
650.503000	-0.150672
650.698000	0.078031
650.893000	-0.231779
651.088000	-0.126508
651.283000	0.041018
651.478000	-0.207579
651.673000	-0.014901
651.868000	-0.232669
652.063000	-0.058595
652.258000	0.278225
652.453000	0.420585
652.648000	-0.046104
652.844000	-0.083546
653.039000	-0.127403
653.234000	-0.421064
653.429000	-0.559501
653.624000	-0.352712
653.819000	-0.140392
654.014000	-0.246988
654.209000	-0.285348
654.404000	-0.102970
654.599000	-0.203947
654.794000	-0.235015
654.989000	0.016386
655.184000	-0.008834
655.380000	-0.197967
655.575000	-0.305182
655.770000	-0.312004
655.965000	-0.160463
656.160000	-0.249039
656.355000	-0.173155
656.550000	-0.091280
656.745000	-0.097685
656.940000	-0.294566
657.135000	-0.104088
657.330000	-0.129529
657.525000	-0.409196
657.720000	-0.187134
657.915000	-0.008903
658.111000	-0.142501
658.306000	0.099321
658.501000	-0.091891
658.696000	-0.327870
658.891000	-0.085515
659.086000	-0.187547
659.281000	-0.155906
659.476000	-0.341688
659.671000	-0.680753
659.866000	-0.437819
660.061000	-0.143476
660.256000	-0.085869
660.451000	-0.092359
660.646000	-0.297993
660.842000	-0.176173
661.037000	-0.208400
661.232000	-0.189375
661.427000	-0.195660
661.622000	-0.183125
661.817000	-0.318448
662.012000	-0.215847
662.207000	-0.274198
662.402000	-0.313787
662.597000	-0.119373
662.792000	-0.527609
662.987000	-0.643752
663.182000	-0.249218
663.378000	-0.145494
663.573000	-0.438855
663.768000	-0.496425
663.963000	-0.295318
664.158000	-0.308046
664.353000	0.173577
664.548000	0.369212
664.743000	0.114938
664.938000	-0.146269
665.133000	-0.283841
665.328000	0.010480
665.523000	0.056439
665.718000	-0.114203
665.913000	-0.186681
666.109000	-0.108043
666.304000	0.109325
666.499000	-0.127684
666.694000	-0.022441
666.889000	0.287745
667.084000	-0.148329
667.279000	-0.267362
667.474000	-0.161567
667.669000	-0.148288
667.864000	-0.234625
668.059000	-0.215069
668.254000	-0.135586
668.449000	-0.262162
668.644000	-0.229102
668.840000	-0.015963
669.035000	-0.209146
669.230000	-0.390307
669.425000	-0.223375
669.620000	-0.410604
669.815000	-0.385245
670.010000	-0.311129
670.205000	-0.103349
670.400000	0.010718
670.595000	-0.103478
670.790000	-0.211272
670.985000	-0.076784
671.180000	0.159133
671.376000	-0.211917
671.571000	-0.395012
671.766000	-0.199320
671.961000	-0.321474
672.156000	-0.315084
672.351000	-0.077431
672.546000	-0.179691
672.741000	-0.233632
672.936000	-0.138731
673.131000	0.392772
673.326000	0.113510
673.521000	-0.303868
673.716000	-0.324392
673.911000	-0.488990
674.107000	-0.023329
674.302000	0.189508
674.497000	-0.092113
674.692000	-0.511796
674.887000	-0.672297
675.082000	-0.327670
675.277000	-0.037382
675.472000	-0.182995
675.667000	-0.211045
675.862000	-0.238936
676.057000	-0.197393
676.252000	-0.149054
676.447000	-0.303028
676.643000	-0.156274
676.838000	0.143988
677.033000	-0.212788
677.228000	0.039296
677.423000	0.025277
677.618000	-0.228108
677.813000	-0.432027
678.008000	-0.398121
678.203000	-0.144154
678.398000	-0.378031
678.593000	-0.194037
678.788000	0.025577
678.983000	-0.293772
679.178000	-0.180327
679.374000	-0.201919
679.569000	-0.159603
679.764000	-0.295856
679.959000	-0.461324
680.154000	-0.432758
680.349000	-0.628378
680.544000	-0.491115
680.739000	-0.283043
680.934000	-0.419959
681.129000	-0.363445
681.324000	-0.407214
681.519000	-0.227426
681.714000	-0.220261
681.909000	-0.335779
682.105000	-0.612489
682.300000	-0.053910
682.495000	0.208248
682.690000	0.091954
682.885000	-0.054048
683.080000	-0.259273
683.275000	-0.296042
683.470000	-0.010271
683.665000	0.136762
683.860000	0.505272
684.055000	0.041270
684.250000	-0.504579
684.445000	-0.385934
684.641000	0.248214
684.836000	0.004440
685.031000	-0.203481
685.226000	-0.278120
685.421000	0.131249
685.616000	-0.234158
685.811000	-0.346848
686.006000	-0.085209
686.201000	-0.115261
686.396000	-0.401202
686.591000	-0.454705
686.786000	-0.040717
686.981000	-0.138752
687.176000	-0.184445
687.372000	-0.275466
687.567000	-0.033313
687.762000	0.027331
687.957000	-0.025812
688.152000	-0.223672
688.347000	-0.254562
688.542000	-0.530254
688.737000	-0.873692
688.932000	-0.852226
689.127000	-0.386105
689.322000	-0.095265
689.517000	-0.387123
689.712000	-0.388492
689.908000	-0.319442
690.103000	-0.273676
690.298000	-0.119076
690.493000	-0.251180
690.688000	-0.616307
690.883000	-0.376976
691.078000	0.043632
691.273000	0.012468
691.468000	-0.237345
691.663000	-0.112854
691.858000	0.051734
692.053000	0.075246
692.248000	0.043938
692.443000	0.036091
692.639000	-0.215422
692.834000	-0.200194
693.029000	0.288576
693.224000	0.353322
693.419000	-0.256911
693.614000	-0.432174
693.809000	-0.480192
694.004000	-0.489063
694.199000	-0.504862
694.394000	-0.362752
694.589000	-0.715075
694.784000	-0.603707
694.979000	-0.235406
695.174000	-0.276138
695.370000	0.060904
695.565000	-0.019280
695.760000	-0.212562
695.955000	0.004843
696.150000	0.012918
696.345000	-0.457117
696.540000	-0.319893
696.740000	-0.303443
696.940000	-0.076324
697.140000	-0.035910
697.340000	-0.281241
697.539000	-0.134151
697.739000	-0.248769
697.939000	-0.240753
698.139000	-0.462333
698.339000	-0.801422
698.539000	-0.570707
698.739000	-0.473294
698.939000	-0.409110
699.138000	-0.434672
699.338000	0.252969
699.538000	0.295426
699.738000	-0.269659
699.938000	-0.444812
700.138000	-0.579068
700.338000	-0.497060
700.538000	-0.364074
700.737000	-0.254936
700.937000	-0.655518
701.137000	-0.690021
701.337000	-0.129630
701.537000	0.021934
701.737000	-0.264559
701.937000	-0.138490
702.137000	-0.239836
702.337000	-0.477094
702.536000	-0.562831
702.736000	-0.436210
702.936000	-0.521845
703.136000	-0.046031
703.336000	-0.071587
703.536000	-0.302527
703.736000	-0.808927
703.936000	-0.713186
704.135000	-0.618811
704.335000	-0.054855
704.535000	-0.269865
704.735000	-0.597065
704.935000	-0.054944
705.135000	-0.219120
705.335000	-0.505488
705.535000	-0.315272
705.735000	-0.280578
705.934000	-0.150604
706.134000	-0.245895
706.334000	-0.333267
706.534000	-0.507572
706.734000	-0.334011
706.934000	-0.447063
707.134000	-0.682079
707.334000	-0.413257
707.533000	-0.335409
707.733000	-0.300253
707.933000	-0.440345
708.133000	-0.212925
708.333000	0.084209
708.533000	-0.372613
708.733000	-0.267116
708.933000	-0.311324
709.132000	-0.479350
709.332000	-0.497813
709.532000	-0.419299
709.732000	-0.083031
709.932000	-0.543649
710.132000	-0.587551
710.332000	-0.693417
710.532000	-0.189450
710.732000	-0.136707
710.931000	-0.509921
711.131000	-0.601098
711.331000	-0.396280
711.531000	-0.522118
711.731000	-0.326249
711.931000	-0.102346
712.131000	-0.362266
712.331000	-0.317533
712.530000	-0.370901
712.730000	-0.488651
712.930000	-0.551344
713.130000	-0.472177
713.330000	-0.463738
713.530000	-0.311504
713.730000	0.594303
713.930000	0.259019
714.129000	-0.474071
714.329000	-0.720650
714.529000	-0.393608
714.729000	0.023629
714.929000	-0.139959
715.129000	-0.395084
715.329000	-0.377227
715.529000	-0.433667
715.729000	0.297700
715.928000	0.087886
716.128000	-0.324282
716.328000	-0.407933
716.528000	-0.472787
716.728000	-0.242891
716.928000	-0.206109
717.128000	-0.271123
717.328000	-0.289519
717.527000	-0.234481
717.727000	-0.179267
717.927000	-0.365249
718.127000	-0.588071
718.327000	-1.044464
718.527000	-0.709582
718.727000	-0.096682
718.927000	-0.422817
719.127000	-0.676984
719.326000	-0.329669
719.526000	0.070906
719.726000	-0.302920
719.926000	-0.904646
720.126000	-0.857864
720.326000	-0.350977
720.526000	-0.407359
720.726000	-0.342688
720.925000	-0.060291
721.125000	-0.429276
721.325000	-0.211545
721.525000	-0.259391
721.725000	-0.486649
721.925000	-0.421558
722.125000	-0.658976
722.325000	-0.174695
722.524000	-0.232365
722.724000	-0.547308
722.924000	-0.766566
723.124000	-0.547955
723.324000	-0.032491
723.524000	-0.032520
723.724000	-0.865433
723.924000	-0.541875
724.124000	-0.186454
724.323000	-0.071214
724.523000	-0.119227
724.723000	0.371941
724.923000	0.131085
725.123000	-0.148591
725.323000	0.015466
725.523000	-0.304092
725.723000	-0.671397
725.922000	-0.526876
726.122000	0.034906
726.322000	-0.110834
726.522000	-0.325042
726.722000	0.414097
726.922000	0.025256
727.122000	-0.315827
727.322000	0.113218
727.521000	0.074360
727.721000	-0.209689
727.921000	-0.229297
728.121000	-0.170460
728.321000	-0.445583
728.521000	-0.397525
728.721000	-0.398201
728.921000	0.055177
729.121000	0.755983
729.320000	0.035569
729.520000	-0.498005
729.720000	-0.667082
729.920000	-0.501202
730.120000	-0.182514
730.320000	-0.202848
730.520000	-0.242722
730.720000	-0.233508
730.919000	-0.452961
731.119000	-0.273873
731.319000	-0.744871
731.519000	-0.624645
731.719000	-0.314563
731.919000	-0.555290
732.119000	-0.757009
732.319000	-0.678814
732.519000	-0.467564
732.718000	-0.841507
732.918000	-0.630158
733.118000	-0.338138
733.318000	-0.054826
733.518000	-0.400061
733.718000	-1.010694
733.918000	-0.838328
734.118000	-0.522755
734.317000	-0.504461
734.517000	-0.789296
734.717000	-0.670137
734.917000	-0.147887
735.117000	-0.148044
735.317000	-0.230233
735.517000	0.098940
735.717000	0.461017
735.916000	-0.097180
736.116000	-0.479278
736.316000	-0.419877
736.516000	-0.575593
736.716000	-0.711020
736.916000	-0.985292
737.116000	-0.633490
737.316000	0.069211
737.516000	0.195435
737.715000	0.153504
737.915000	-0.530145
738.115000	-0.711214
738.315000	-0.394942
738.515000	-0.753834
738.715000	-0.503384
738.915000	0.080819
739.115000	-0.387723
739.314000	-0.408658
739.514000	0.252056
739.714000	0.209863
739.914000	-0.251283
740.114000	-0.499205
740.314000	-0.155041
740.514000	0.405449
740.714000	-0.523676
740.913000	-0.925354
741.113000	-0.557817
741.313000	0.028217
741.513000	-0.265546
741.713000	-0.429944
741.913000	-0.157880
742.113000	-0.486055
742.313000	-0.925914
742.513000	-0.454604
742.712000	-0.478109
742.912000	-0.797793
743.112000	-0.446682
743.312000	-0.746446
743.512000	-0.537234
743.712000	-0.438738
743.912000	-1.030580
744.112000	-1.087043
744.311000	-1.000455
744.511000	-0.688356
744.711000	-0.251753
744.911000	-0.477214
745.111000	-0.489075
745.311000	-0.049679
745.511000	-0.513306
745.711000	-0.785397
745.911000	-0.480462
746.110000	-0.809466
746.310000	-0.859859
746.510000	-0.630415
746.710000	-0.130320
746.910000	0.144166
747.110000	-0.589051
747.310000	-1.095209
747.510000	-0.707567
747.709000	-0.316011
747.909000	-0.339947
748.109000	-0.155465
748.309000	-0.144157
748.509000	-0.610137
748.709000	-0.869511
748.909000	-0.530425
749.109000	-0.309788
749.308000	0.159749
749.508000	-0.252293
749.708000	-0.358518
749.908000	-0.122678
750.108000	-0.134874
750.308000	-0.835812
750.508000	-0.076177
750.708000	-0.397683
750.908000	-1.054825
751.107000	-0.351894
751.307000	0.318004
751.507000	-0.244916
751.707000	-0.352518
751.907000	-0.257225
752.107000	-0.282217
752.307000	-0.706706
752.507000	-0.514431
752.706000	-0.756573
752.906000	0.359650
753.106000	-0.187764
753.306000	-1.056663
753.506000	-0.188854
753.706000	-0.471848
753.906000	-0.176971
754.106000	-0.189511
754.305000	-0.202079
754.505000	-0.116129
754.705000	-0.365196
754.905000	-0.440377
755.105000	-0.229236
755.305000	-0.990581
755.505000	-0.918363
755.705000	-0.243031
755.905000	-0.080416
756.104000	-0.646402
756.304000	-1.064259
756.504000	-1.483431
756.704000	-0.665550
756.904000	-0.462065
757.104000	-0.524794
757.304000	-0.182712
757.504000	0.250212
757.703000	-0.068923
757.903000	0.301945
758.103000	0.302564
758.303000	-0.095138
758.503000	-0.366090
758.703000	-0.651197
758.903000	-0.754898
759.103000	-0.549593
759.303000	-0.591304
759.502000	-0.697694
759.702000	-0.109708
759.902000	-0.294048
760.102000	-0.610557
760.302000	-0.520193
760.502000	-0.242208
760.702000	-0.203008
760.902000	-0.414804
761.101000	-0.959177
761.301000	-0.947587
761.501000	-0.509790
761.701000	-0.683747
761.901000	-0.580334
762.101000	-0.085762
762.301000	-0.179567
762.501000	-0.756411
762.700000	-0.813788
762.900000	-0.760166
763.100000	-0.410202
763.300000	-0.140905
763.500000	-0.235979
763.703000	-0.464975
763.905000	-0.955193
764.108000	-0.182459
764.311000	-0.332284
764.513000	-0.550839
764.716000	-0.251893
764.919000	-0.265939
765.121000	-0.540311
765.324000	-0.940822
765.527000	-0.710764
765.729000	-0.558638
765.932000	0.022160
766.135000	-0.005538
766.337000	-0.282608
766.540000	-0.394728
766.743000	-0.117618
766.945000	-0.704312
767.148000	-1.210126
767.351000	-0.887861
767.553000	-0.441375
767.756000	-0.807703
767.958000	-1.131232
768.161000	-0.653417
768.364000	-0.853701
768.566000	-1.464667
768.769000	-0.616815
768.972000	-0.204629
769.174000	-0.590100
769.377000	-1.092095
769.580000	-1.065773
769.782000	-0.549598
769.985000	-1.025172
770.188000	-1.704048
770.390000	-1.003766
770.593000	0.499813
770.796000	0.182148
770.998000	-0.367402
771.201000	-0.527068
771.404000	-0.063801
771.606000	-0.660928
771.809000	-0.573393
772.012000	-0.603660
772.214000	-1.596435
772.417000	-1.260940
772.620000	-0.253154
772.822000	-0.445720
773.025000	-0.724427
773.228000	-0.667012
773.430000	-0.771138
773.633000	-0.846322
773.836000	-0.744127
774.038000	-0.317153
774.241000	-0.568943
774.444000	-0.511244
774.646000	0.469252
774.849000	-0.258969
775.052000	-0.511897
775.254000	-0.304169
775.457000	-0.795483
775.659000	-0.722727
775.862000	-0.872258
776.065000	-0.454800
776.267000	0.038964
776.470000	0.370308
776.673000	-0.081343
776.875000	0.190358
777.078000	-0.111620
777.281000	-1.096213
777.483000	-0.218726
777.686000	0.070001
777.889000	-0.265073
778.091000	0.100891
778.294000	-0.662491
778.497000	-0.739765
778.699000	-0.832136
778.902000	-0.819629
779.105000	-0.497337
779.307000	0.316660
779.510000	-0.807284
779.713000	-0.470170
779.915000	-0.564826
780.118000	0.444227
780.321000	0.429221
780.523000	-0.551801
780.726000	-0.801537
780.929000	-1.128606
781.131000	-1.302091
781.334000	-1.432291
781.537000	-1.530585
781.739000	-0.509613
781.942000	-0.777630
782.145000	-1.066463
782.347000	-1.114635
782.550000	-0.925234
782.753000	-0.880590
782.955000	-0.962675
783.158000	-0.882463
783.361000	-0.373657
783.563000	-0.741048
783.766000	-0.550822
783.968000	1.485014
784.171000	0.960183
784.374000	-0.538137
784.576000	-0.602406
784.779000	-0.424559
784.982000	0.171449
785.184000	-0.543157
785.387000	-0.136811
785.590000	0.400446
785.792000	0.483665
785.995000	0.091644
786.198000	-0.088515
786.400000	-0.138271
786.603000	-0.518184
786.806000	-0.977232
787.008000	-0.746833
787.211000	-0.237736
787.414000	-0.718962
787.616000	-0.305965
787.819000	-0.290019
788.022000	-1.375276
788.224000	-0.943671
788.427000	-1.463184
788.630000	-0.930719
788.832000	-0.661202
789.035000	-1.028760
789.238000	-1.235371
789.440000	-0.954787
789.643000	-0.125014
789.846000	-0.684453
790.048000	-0.108691
790.251000	0.112114
790.454000	-0.125452
790.656000	0.231412
790.859000	-0.416142
791.062000	-0.724405
791.264000	-0.126325
791.467000	-0.846872
791.669000	-1.655015
791.872000	-0.507267
792.075000	-0.989234
792.277000	-0.851500
792.480000	-0.526848
792.683000	-1.113038
792.885000	-1.166014
793.088000	-0.788296
793.291000	-1.277658
793.493000	-1.297426
793.696000	-0.355885
793.899000	-0.251906
794.101000	-0.883715
794.304000	-1.061449
794.507000	-0.447033
794.709000	-0.218842
794.912000	-0.609553
795.115000	-0.948046
795.317000	-0.433070
795.520000	-0.185394
795.723000	-0.400921
795.925000	-0.831693
796.128000	-1.170752
796.331000	-0.743555
796.533000	-1.159393
796.736000	-0.640508
796.939000	-0.587630
797.141000	-0.552811
797.344000	-0.080089
797.547000	0.138395
797.749000	0.029178
797.952000	-0.795459
798.155000	-1.177781
798.357000	-1.332063
798.560000	-0.932527
798.763000	-0.247678
798.965000	-0.653695
799.168000	-0.822281
799.371000	-0.470953
799.573000	-0.751574
799.776000	-1.442053
799.978000	-1.185318
800.181000	-0.063688
800.384000	1.362021
800.586000	0.594228
800.789000	-1.154111
800.992000	-1.190897
801.194000	-0.986448
801.397000	-1.328730
801.600000	-0.992382
801.802000	0.504517
802.005000	-0.121774
802.208000	-1.324261
802.410000	-0.522387
802.613000	-0.562991
802.816000	-0.832052
803.018000	-1.391727
803.221000	-1.182480
803.424000	0.301059
803.626000	-0.065717
803.829000	-0.860927
804.032000	0.342170
804.234000	1.216662
804.437000	-0.632425
804.640000	-0.924438
804.842000	-0.848363
805.045000	-1.402636
805.248000	-1.070675
805.450000	-1.266254
805.653000	-1.214920
805.856000	-0.620633
806.058000	0.507546
806.261000	-1.041335
806.464000	-0.664416
806.666000	-0.067742
806.869000	-0.489266
807.072000	-1.632047
807.274000	-2.034376
807.477000	-1.034047
807.679000	-0.672489
807.882000	-1.017106
808.085000	-0.617629
808.287000	-0.008135
808.490000	-1.189949
808.693000	-1.435471
808.895000	-0.987995
809.098000	-0.845512
809.301000	-0.807358
809.503000	-0.707959
809.706000	0.674576
809.909000	0.943423
810.111000	0.302485
810.314000	-0.485911
810.517000	-1.539924
810.719000	-1.402900
810.922000	-1.346133
811.125000	-0.550645
811.327000	-0.008391
811.530000	-0.492808
811.735000	-0.912632
811.940000	-1.083278
812.146000	-0.812702
812.351000	-0.135461
812.556000	-0.475635
812.761000	-1.286587
812.967000	-0.029950
813.172000	0.012822
813.377000	-0.415872
813.582000	0.055972
813.788000	0.099711
813.993000	-0.938390
814.198000	-0.593020
814.403000	-1.522826
814.609000	-1.118832
814.814000	-0.883359
815.019000	0.493253
815.224000	0.318486
815.429000	-0.557760
815.635000	0.035245
815.840000	-0.493963
816.045000	-0.806347
816.250000	-0.497014
816.456000	-1.542489
816.661000	-2.107765
816.866000	-1.575348
817.071000	-1.551993
817.277000	-2.102175
817.482000	-1.294147
817.687000	-0.572307
817.892000	-0.779481
818.097000	-0.327306
818.303000	0.081825
818.508000	0.626105
818.713000	1.994042
818.918000	0.514814
819.124000	0.219244
819.329000	-1.041246
819.534000	-0.952336
819.739000	-0.929410
819.945000	-1.118704
820.150000	-1.008836
820.355000	-0.242219
820.560000	0.176530
820.766000	-0.288760
820.971000	-0.758853
821.176000	-1.770264
821.381000	-2.350421
821.586000	-1.610881
821.792000	0.037813
821.997000	-0.175049
822.202000	-0.601436
822.407000	-1.078267
822.613000	-1.485135
822.818000	-0.773141
823.023000	-0.344037
823.228000	-0.394351
823.434000	-0.033637
823.639000	-0.033710
823.844000	-1.409876
824.049000	-0.323738
824.255000	0.281158
824.460000	-0.788968
824.665000	-1.204607
824.870000	0.283822
825.075000	0.357676
825.281000	-0.206406
825.486000	0.805803
825.691000	-1.495217
825.896000	-2.787935
826.102000	-0.903416
826.307000	-0.457784
826.512000	-0.759167
826.717000	-0.836657
826.923000	-0.612956
827.128000	-0.211480
827.333000	-1.125049
827.538000	-0.646020
827.744000	-0.341642
827.949000	-0.900835
828.154000	-0.700081
828.359000	-0.214516
828.564000	-0.549247
828.770000	-0.525746
828.975000	0.609596
829.180000	-0.218074
829.385000	-2.008635
829.591000	-1.652236
829.796000	-0.900961
830.001000	-1.348775
830.206000	-0.958179
830.412000	-0.799421
830.617000	-1.381278
830.822000	-0.513940
831.027000	-1.094318
831.232000	-1.686006
831.438000	-1.885382
831.643000	-1.055081
831.848000	-0.842912
832.053000	-0.711396
832.259000	-0.766237
832.464000	-2.148241
832.669000	-1.640084
832.874000	-1.637419
833.080000	-1.454052
833.285000	0.152733
833.490000	-0.393019
833.695000	-1.576936
833.901000	-1.225529
834.106000	-1.310331
834.311000	-0.789220
834.516000	-0.651270
834.721000	-1.410648
834.927000	-0.236080
835.132000	-0.433661
835.337000	1.116790
835.542000	0.017022
835.748000	-1.936708
835.953000	-0.039777
836.158000	-0.039875
836.363000	-0.183017
836.569000	0.132563
836.774000	-1.541588
836.979000	-1.196617
837.184000	-1.460287
837.390000	-1.550033
837.595000	-1.321349
837.800000	-0.740954
838.005000	-0.598742
838.210000	-0.716453
838.416000	-1.220331
838.621000	-0.898499
838.826000	-0.513958
839.031000	-0.665044
839.237000	-1.716912
839.442000	-1.959331
839.647000	-2.285464
839.852000	-1.844668
840.058000	-1.157838
840.263000	-1.102925
840.468000	-1.589324
840.673000	-1.043478
840.878000	-0.801564
841.084000	-1.417206
841.289000	-0.777750
841.494000	2.022682
841.699000	1.874697
841.905000	0.607933
842.110000	0.299372
842.315000	-2.106314
842.520000	-1.042734
842.726000	-0.951343
842.931000	-1.513411
843.136000	-1.398377
843.341000	-2.741460
843.547000	-1.342592
843.752000	-1.249026
843.957000	-1.834549
844.162000	-0.847769
844.367000	-0.592157
844.573000	-0.917917
844.778000	-1.076670
844.983000	-1.046997
845.188000	-0.857484
845.394000	-1.815670
845.599000	-1.549666
845.804000	-1.259708
846.009000	-0.409592
846.215000	-2.468943
846.420000	-2.409057
846.625000	-0.847919
846.830000	0.385846
847.036000	-1.216625
847.241000	-1.658136
847.446000	-0.181232
847.651000	-0.586427
847.856000	-0.863802
848.062000	-1.446214
848.267000	-0.116004
848.472000	-1.520134
848.677000	-2.932027
848.883000	-0.904481
849.088000	1.093601
849.293000	-0.152874
849.498000	-0.916074
849.704000	-0.153107
849.909000	-0.641924
850.114000	-1.897922
850.319000	-0.713313
850.524000	-0.822711
850.730000	-0.721305
850.935000	-0.759702
851.140000	-0.014237
851.345000	0.056942
851.551000	-0.299844
851.756000	-0.301457
851.961000	-1.273807
852.166000	-1.670490
852.372000	-0.952915
852.577000	-0.596288
852.782000	-1.370141
852.987000	-0.343387
853.193000	-0.784571
853.398000	-0.748132
853.603000	-1.999475
853.808000	-2.736011
854.013000	-1.199068
854.219000	-0.163132
854.424000	1.697202
854.629000	1.104125
854.834000	-1.179087
855.040000	0.211630
855.245000	0.474576
855.450000	-2.305501
855.655000	-3.901083
855.861000	-3.736025
856.066000	-2.235322
856.271000	-2.890662
856.476000	-0.784782
856.682000	-1.521541
856.887000	-3.487978
857.092000	-1.291398
857.297000	1.110258
857.502000	-0.132249
857.708000	-0.717093
857.913000	-0.171776
858.118000	-0.882558
858.323000	-1.280309
858.529000	-0.647055
858.734000	-1.242245
858.939000	-0.769764
859.144000	-1.528813
859.350000	-2.803219
859.555000	-2.732098
859.760000	-0.979922
859.965000	-0.658445
860.171000	-2.354843
860.376000	-1.271417
860.581000	-2.371002
860.786000	-4.867924
860.991000	-4.520623
861.197000	-2.962803
861.402000	-0.385776
861.607000	-1.166282
861.812000	-2.697291
862.018000	-3.163051
862.223000	-2.380904
862.428000	-0.892887
862.633000	0.901640
862.839000	-0.310832
863.044000	-1.541741
863.249000	-1.791002
863.454000	0.067652
863.659000	-0.737950
863.865000	-1.295702
864.070000	-1.555502
864.275000	-2.200180
864.480000	-1.780238
864.686000	-3.470046
864.891000	-2.393043
865.096000	-1.362572
865.301000	-0.843418
865.507000	-0.673456
865.712000	-0.585955
865.917000	-0.149631
866.122000	-0.150038
866.328000	-3.523695
866.533000	-2.856015
866.738000	0.515093
866.943000	-0.062298
867.148000	0.519081
867.354000	-2.633816
867.559000	-3.807506
867.764000	-1.922124
867.969000	-0.792797
868.175000	-1.562078
868.380000	-1.932105
868.585000	-2.664667
868.790000	-0.521953
868.996000	-0.940195
869.201000	-2.975841
869.406000	-4.566548
869.611000	-3.132327
869.817000	-2.618203
870.022000	2.031664
870.227000	-0.158822
870.432000	-2.459770
870.637000	-1.522666
870.843000	-2.429623
871.048000	-2.147046
871.253000	-0.208204
871.458000	-1.160447
871.664000	-2.747258
871.869000	-2.233901
872.074000	-1.950894
872.279000	-1.563825
872.485000	-2.885488
872.690000	-2.068605
872.895000	-1.636249
873.100000	-2.913416
873.306000	-3.221338
873.511000	-1.111020
873.716000	0.029825
873.921000	-2.052533
874.126000	-1.857172
874.332000	-0.571668
874.537000	0.282208
874.742000	-0.823800
874.947000	-1.180407
875.153000	0.896157
875.358000	-1.194274
875.563000	-1.091187
875.768000	-3.451152
875.974000	-4.185137
876.179000	-0.432724
876.384000	0.393414
876.589000	-2.737067
876.794000	-2.897063
877.000000	-3.632166
877.205000	-3.993455
877.410000	-1.649370
877.615000	-2.905114
877.821000	-4.570902
878.026000	-2.191301
878.231000	-3.037492
878.436000	-4.049721
878.642000	-3.063625
878.847000	-2.161079
879.052000	0.138881
879.257000	-1.745719
879.463000	-3.690495
879.668000	-2.342341
879.873000	-0.130046
880.078000	-3.389476
880.283000	-5.801995
880.489000	-5.856399
880.694000	-4.950827
880.899000	-1.291186
881.104000	1.085898
881.310000	2.415508
881.515000	1.748678
881.720000	2.973246
881.925000	3.157365
882.131000	3.324925
882.336000	0.089946
882.541000	-3.818792
882.746000	-1.901733
882.952000	-2.752601
883.157000	-2.360298
883.362000	-2.649422
883.567000	-3.807286
883.772000	-4.305603
883.978000	-4.136514
884.183000	-2.578131
884.388000	-1.761081
884.593000	-4.079939
884.799000	0.791696
885.004000	0.979984
885.209000	-1.204835
885.414000	-0.670982
885.620000	-2.098648
885.825000	-0.143304
886.030000	-1.334886
886.235000	-3.021940
886.440000	-3.107563
886.646000	-4.513050
886.851000	-3.438389
887.056000	1.443368
887.261000	0.159143
887.467000	-3.466219
887.672000	-0.952899
887.877000	-2.325987
888.082000	-4.524206
888.288000	-5.317091
888.493000	-8.223231
888.698000	-5.629238
888.903000	-2.171623
889.109000	-2.923099
889.314000	-0.340382
889.519000	-1.908937
889.724000	0.037731
889.929000	-0.339972
890.135000	-1.224666
890.340000	-1.806189
890.545000	-3.966720
890.750000	-6.269023
890.956000	-3.541261
891.161000	-0.663825
891.366000	-3.162081
891.571000	-2.142944
891.777000	-2.209163
891.982000	-0.993816
892.187000	-0.803646
892.392000	-0.413798
892.598000	0.884341
892.803000	0.301759
893.008000	-3.040819
893.213000	-2.313807
893.418000	-1.935181
893.624000	-3.069486
893.829000	-5.850431
894.034000	-2.480459
894.239000	-1.226336
894.445000	-4.681200
894.650000	-4.637966
894.855000	-3.171668
895.060000	-3.633983
895.266000	-4.531167
895.471000	-5.004715
895.676000	-1.782067
895.881000	-0.095317
896.087000	-1.593464
896.292000	-2.152147
896.497000	2.038738
896.702000	-0.713442
896.907000	-3.600198
897.113000	-0.510303
897.318000	-0.372195
897.523000	0.525211
897.728000	-2.525167
897.934000	-3.969161
898.139000	-3.633407
898.344000	-0.517936
898.549000	-1.999078
898.755000	-2.424847
898.960000	-3.290921
899.165000	-4.995366
899.370000	-1.809917
899.575000	1.543070
899.781000	-2.894307
899.986000	-3.395973
900.191000	-1.687202
900.396000	-2.699769
900.602000	-2.352878
900.807000	-2.735172
901.012000	-1.869675
901.217000	-0.103309
901.423000	-2.235586
901.628000	-3.349849
901.833000	0.711866
902.038000	0.493212
902.244000	-3.532437
902.449000	-1.979018
902.654000	-2.454394
902.859000	-1.844043
903.064000	-1.245380
903.270000	-0.640172
903.475000	-3.996514
903.680000	-5.363884
903.885000	-3.717066
904.091000	-3.658999
904.296000	-5.688568
904.501000	-3.532504
904.706000	-2.919400
904.912000	0.915258
905.117000	-2.487889
905.322000	-5.064097
905.527000	-2.734969
905.733000	-2.338981
905.938000	-1.713178
906.143000	-1.652748
906.348000	-5.464931
906.553000	-1.992594
906.759000	-0.522321
906.964000	-2.329304
907.169000	-4.321938
907.374000	-6.122782
907.580000	-4.335247
907.785000	-3.904997
907.990000	26.078546
908.195000	18.123160
908.401000	-0.289226
908.606000	-6.107114
908.811000	-10.629831
909.016000	-5.068939
909.221000	-3.458477
909.427000	-3.392075
909.632000	-5.332540
909.837000	-3.008432
910.042000	-5.209840
910.248000	-7.615574
910.453000	-2.515321
910.658000	-2.534495
910.863000	-4.136549
911.069000	-7.641134
911.274000	-2.379477
911.479000	0.235785
911.684000	-5.382000
911.890000	-2.409348
912.095000	-1.864065
912.300000	-3.901958
912.506000	-6.390058
912.711000	-6.935802
912.917000	-3.582965
913.123000	-2.372099
913.328000	-2.668656
913.534000	-1.839677
913.740000	8.174277
913.946000	4.376306
914.151000	-4.222380
914.357000	-5.989275
914.563000	-3.112214
914.768000	-6.234581
914.974000	-6.887573
915.180000	-5.077626
915.385000	-4.899606
915.591000	-7.644812
915.797000	-1.445627
916.002000	1.071184
916.208000	-3.561254
916.414000	-5.736175
916.620000	-7.277285
916.825000	-3.414883
917.031000	-3.008205
917.237000	-9.491600
917.442000	-6.582958
917.648000	-5.274211
917.854000	-5.898196
918.059000	-1.200387
918.265000	-0.673057
918.471000	-3.847400
918.676000	-5.811378
918.882000	-6.817517
919.088000	-6.829999
919.294000	-11.007864
919.499000	-7.367448
919.705000	-2.571765
919.911000	-2.351853
920.116000	-1.820395
920.322000	-9.073773
920.528000	-6.768897
920.733000	-7.999706
920.939000	-9.630107
921.145000	-8.469876
921.350000	-7.310159
921.556000	-3.650267
921.762000	-2.945351
921.968000	-5.279547
922.173000	-6.485611
922.379000	-9.615258
922.585000	-4.448889
922.790000	-4.337609
922.996000	-4.371392
923.202000	-5.275036
923.407000	-6.164193
923.613000	-7.274711
923.819000	-4.721411
924.024000	-4.325690
924.230000	-2.631464
924.436000	-5.865443
924.642000	3.958932
924.847000	2.354436
925.053000	-5.235035
925.259000	-10.053813
925.464000	-3.109751
925.670000	-4.380688
925.876000	-9.710222
926.081000	-9.503342
926.287000	-2.257698
926.493000	-2.825687
926.698000	-4.417540
926.904000	-1.104185
927.110000	-3.623345
927.316000	-3.240239
927.521000	2.629343
927.727000	-2.913980
927.933000	-5.388263
928.138000	-6.235981
928.344000	-12.700111
928.550000	-6.735165
928.755000	0.928978
928.961000	-5.534718
929.167000	-5.285796
929.372000	1.929734
929.578000	0.945111
929.784000	-4.240855
929.990000	-8.462770
930.195000	-8.921048
930.401000	-7.377317
930.607000	-4.607265
930.812000	-3.318835
931.018000	-6.159355
931.224000	-14.081899
931.429000	-7.633041
931.635000	-9.732231
931.841000	-11.506050
932.046000	-8.479988
932.252000	-0.523272
932.458000	5.839073
932.664000	-1.476200
932.869000	-5.722325
933.075000	-9.401674
933.281000	-11.301310
933.486000	-4.781861
933.692000	-6.273849
933.898000	-8.661266
934.103000	-0.395441
934.309000	-3.768324
934.515000	0.273591
934.720000	-0.068633
934.926000	3.218189
935.132000	0.623377
935.338000	-3.220669
935.543000	-11.078963
935.749000	-13.871071
935.955000	-16.095342
936.160000	-9.179010
936.366000	-0.806507
936.572000	-1.756948
936.777000	-0.076294
936.983000	2.600086
937.189000	1.657065
937.394000	-10.623564
937.600000	-2.040404
937.806000	4.861495
938.012000	-2.288462
938.217000	8.210840
938.423000	5.010528
938.629000	-3.340836
938.834000	-15.059352
939.040000	-9.516255
939.246000	-8.446077
939.451000	-10.881219
939.657000	-5.644052
939.863000	-10.060103
940.068000	0.788098
940.274000	-4.276010
940.480000	-2.322790
940.686000	-0.318395
940.891000	-9.561713
941.097000	15.040187
941.303000	5.430471
941.508000	-10.970768
941.714000	-6.376244
941.920000	-15.418652
942.125000	-4.596985
942.331000	0.618959
942.537000	4.424589
942.742000	-1.537907
942.948000	-14.516094
943.154000	-13.778277
943.360000	-20.095277
943.565000	-7.941984
943.771000	1.880658
943.977000	4.571212
944.182000	-9.421176
944.388000	-13.897419
944.594000	-3.346024
944.799000	6.709485
945.005000	-0.595231
945.211000	2.387989
945.416000	-1.616554
945.622000	-10.483628
945.828000	-10.340780
946.034000	-2.445361
946.239000	-0.889430
946.445000	-9.890332
946.651000	-16.765318
946.856000	-17.579102
947.062000	-6.293197
947.268000	-2.960879
947.473000	-14.447296
947.679000	-20.569754
947.885000	-6.421686
948.090000	1.747682
948.296000	16.318330
948.502000	2.282455
948.708000	-8.406377
948.913000	-13.653303
949.119000	-1.733117
949.325000	-6.882672
949.530000	-16.648543
949.736000	-20.644453
949.942000	-12.219743
950.147000	-13.935376
950.353000	-10.053666
950.559000	-8.177282
950.764000	16.995878
950.970000	10.277990
951.176000	-7.576723
951.382000	-14.900062
951.587000	-5.799525
951.793000	3.319568
951.999000	2.708171
952.204000	-12.647734
952.410000	-26.933380
952.616000	-9.356098
952.821000	-2.368302
953.027000	-13.952076
953.233000	-16.790395
953.438000	-17.780097
953.644000	-4.168168
953.850000	-7.067446
954.056000	-11.240228
954.261000	-13.960882
954.467000	-1.003760
954.673000	7.247304
954.878000	-0.709484
955.084000	-0.414377
955.290000	-23.001484
955.495000	-25.751123
955.701000	-17.656643
955.907000	-2.542636
956.112000	-0.121090
956.318000	8.580967
956.524000	5.341429
956.730000	-9.987750
956.935000	-17.129482
957.141000	-15.477619
957.347000	-3.864054
957.552000	-10.085842
957.758000	-25.356526
957.964000	-33.795554
958.169000	-0.126478
958.375000	-2.981444
958.581000	-18.613489
958.786000	-19.628344
958.992000	-24.195672
959.198000	-5.995455
959.404000	-4.350755
959.609000	-14.591451
959.815000	-16.190776
960.021000	3.835252
960.226000	-2.801839
960.432000	-22.661509
960.638000	-11.737049
960.843000	-3.516229
961.049000	-6.005224
961.255000	-1.163029
961.460000	-13.229960
961.666000	-31.044491
961.872000	-21.196352
962.078000	-13.975084
962.283000	-25.713059
962.489000	-25.775575
962.695000	-11.921774
962.900000	-12.182064
963.106000	-7.302412
963.312000	-18.638285
963.517000	-18.402009
963.723000	-23.053462
963.929000	-6.030245
964.134000	10.128599
964.340000	-15.362845
964.546000	-19.156494
964.752000	-23.109434
964.957000	-34.697207
965.163000	-10.101631
965.369000	-4.806985
965.574000	-3.289987
965.780000	-14.660501
966.000000	-27.618721
966.220000	-19.890767
966.440000	-14.838316
966.661000	3.432654
966.881000	-14.973936
967.101000	-35.232587
967.321000	-35.452463
967.541000	-9.897527
967.761000	-23.553073
967.981000	-20.256545
968.202000	-15.278042
968.422000	-2.697036
968.642000	1.512416
968.862000	-6.604996
969.082000	-20.910929
969.302000	-9.100645
969.522000	-8.506327
969.743000	3.245016
969.963000	-15.448216
970.183000	-28.666072
970.403000	-20.345108
970.623000	-20.335844
970.843000	0.270500
971.063000	2.105837
971.284000	-18.607097
971.504000	-27.586317
971.724000	-18.433799
971.944000	-32.246562
972.164000	-34.435476
972.384000	-19.021309
972.604000	-41.261333
972.825000	-49.295104
973.045000	-32.105168
973.265000	25.556219
973.485000	5.740307
973.705000	-9.156366
973.925000	-13.841292
974.145000	-47.122084
974.365000	-8.484984
974.586000	-9.055119
974.806000	-34.029178
975.026000	-16.406160
975.246000	-17.763179
975.466000	-26.620724
975.686000	-13.208537
975.906000	-19.468050
976.127000	-51.705291
976.347000	-38.747774
976.567000	-4.563268
976.787000	-8.391813
977.007000	-20.653591
977.227000	-24.447489
977.447000	-31.433288
977.668000	-55.954955
977.888000	-48.509709
978.108000	-37.525276
978.328000	-16.662801
978.548000	9.592945
978.768000	23.899608
978.988000	7.748626
979.209000	-17.385852
979.429000	-27.337106
979.649000	-8.065402
979.869000	-31.218047
980.089000	-41.874669
980.309000	-41.407286
980.529000	-52.667512
980.750000	-24.048546
980.970000	-36.484190
981.190000	-29.053442
981.410000	-27.387416
981.630000	-34.692117
981.850000	-20.473299
982.070000	-7.897492
982.291000	-43.382402
982.511000	-47.815875
982.731000	-18.600567
982.951000	-38.529919
983.171000	-23.537490
983.391000	-20.740223
983.611000	10.436499
983.832000	-25.855267
984.052000	-54.347845
984.272000	-27.365904
984.492000	-24.763139
984.712000	-36.827700
984.932000	-55.674261
985.152000	-56.522607
985.373000	-50.870343
985.593000	-16.525223
985.813000	-37.966821
986.033000	-56.514137
986.253000	-2.768592
986.473000	21.370937
986.693000	-22.642507
986.914000	-31.207876
987.134000	20.525853
987.354000	-21.560917
987.574000	179.329091
987.794000	128.741236
988.014000	-31.389973
988.234000	-21.775090
988.455000	-21.091963
988.675000	-30.256338
988.895000	-9.749752
989.115000	-28.850016
989.335000	-19.748406
989.555000	-3.131951
989.775000	-48.769071
989.995000	-14.267687
990.216000	-28.190238
990.436000	-20.191763
990.656000	26.544882
990.876000	-14.395506
991.096000	-5.377809
991.316000	28.217326
991.536000	3.737302
991.757000	-22.387470
991.977000	-81.440449
992.197000	-33.100140
992.417000	-45.895792
992.637000	-93.743737
992.857000	-94.521053
993.077000	-56.378370
993.298000	-28.499119
993.518000	-42.003909
993.738000	-75.929418
993.958000	-44.199808
994.178000	-69.146389
994.398000	-48.250380
994.618000	-79.616659
994.839000	-116.523849
995.059000	-2.963262
995.279000	50.825633
995.499000	0.756324
995.719000	-13.845347
995.939000	-39.433933
996.159000	-42.113550
996.380000	-45.854635
996.600000	-68.680789
996.820000	-5.730263
997.040000	39.212221
997.260000	-46.426949
997.480000	-55.711572
997.700000	-105.066827
997.921000	-56.833820
998.141000	16.843866
998.361000	0.810046
998.581000	-72.877113
998.801000	-106.327008
999.021000	-41.563532
999.241000	-0.595380
999.462000	-56.869008
999.682000	-111.005482
999.902000	-73.048244
1000.122000	-87.624137
1000.342000	-131.003645
1000.562000	-66.936859
1000.782000	-57.766317
1001.003000	-923.170135
