Wavelength	Irradiance
(nm)	(mW/cm2/nm)

294.396000	0.000000
294.577000	0.000000
294.757000	0.000000
294.938000	-0.000000
295.118000	0.000000
295.299000	0.000000
295.479000	-0.000000
295.660000	-0.000000
295.840000	-0.000000
296.021000	-0.000000
296.202000	-0.000000
296.382000	-0.000000
296.563000	-0.000000
296.743000	-0.000000
296.924000	0.000000
297.104000	-0.000000
297.285000	-0.000000
297.465000	-0.000000
297.646000	-0.000000
297.826000	0.000000
298.007000	0.000000
298.187000	0.000000
298.368000	-0.000000
298.548000	0.000000
298.729000	0.000000
298.909000	-0.000000
299.090000	-0.000000
299.270000	-0.000000
299.451000	-0.000000
299.631000	-0.000000
299.812000	-0.000000
299.992000	0.000000
300.173000	0.000000
300.353000	-0.000000
300.534000	0.000000
300.714000	0.000000
300.895000	0.000000
301.075000	-0.000000
301.256000	0.000000
301.436000	-0.000000
301.617000	-0.000000
301.797000	-0.000000
301.978000	-0.000000
302.159000	0.000000
302.339000	0.000000
302.520000	-0.000000
302.700000	-0.000000
302.881000	0.000000
303.061000	0.000000
303.242000	0.000000
303.422000	0.000000
303.603000	-0.000000
303.783000	-0.000000
303.964000	0.000000
304.144000	-0.000000
304.325000	-0.000000
304.505000	-0.000000
304.686000	-0.000000
304.866000	0.000000
305.047000	-0.000000
305.227000	-0.000000
305.408000	-0.000000
305.588000	-0.000000
305.769000	-0.000000
305.949000	-0.000000
306.130000	-0.000000
306.310000	-0.000000
306.491000	-0.000000
306.671000	0.000000
306.852000	-0.000000
307.032000	-0.000000
307.213000	-0.000000
307.393000	-0.000000
307.574000	0.000000
307.755000	0.000000
307.935000	0.000000
308.116000	-0.000000
308.296000	-0.000000
308.477000	0.000000
308.657000	0.000000
308.838000	0.000000
309.018000	0.000000
309.199000	-0.000000
309.379000	-0.000000
309.560000	0.000000
309.740000	-0.000000
309.921000	0.000000
310.101000	0.000000
310.282000	-0.000000
310.462000	-0.000000
310.643000	-0.000000
310.823000	-0.000000
311.004000	-0.000000
311.184000	-0.000000
311.365000	0.000000
311.545000	0.000000
311.726000	0.000000
311.906000	0.000000
312.087000	0.000000
312.267000	-0.000000
312.448000	-0.000000
312.628000	-0.000000
312.809000	-0.000000
312.989000	-0.000000
313.170000	-0.000000
313.344000	-0.000000
313.518000	-0.000000
313.691000	-0.000000
313.865000	-0.000000
314.039000	-0.000000
314.213000	-0.000000
314.387000	-0.000000
314.560000	-0.000000
314.734000	-0.000000
314.908000	-0.000000
315.082000	-0.000000
315.255000	0.000000
315.429000	0.000000
315.603000	0.000000
315.777000	-0.000000
315.951000	0.000000
316.124000	-0.000000
316.298000	-0.000000
316.472000	-0.000000
316.646000	-0.000000
316.820000	-0.000000
316.993000	0.000000
317.167000	-0.000000
317.341000	-0.000000
317.515000	-0.000000
317.688000	-0.000000
317.862000	-0.000000
318.036000	-0.000000
318.210000	-0.000000
318.384000	-0.000000
318.557000	-0.000000
318.731000	-0.000000
318.905000	-0.000000
319.079000	0.000000
319.253000	-0.000000
319.426000	0.000000
319.600000	0.000000
319.774000	-0.000000
319.948000	-0.000000
320.122000	0.000000
320.295000	0.000000
320.469000	-0.000000
320.643000	-0.000000
320.817000	-0.000000
320.990000	-0.000000
321.164000	-0.000000
321.338000	-0.000000
321.512000	-0.000000
321.686000	-0.000000
321.859000	-0.000000
322.033000	0.000000
322.207000	-0.000000
322.381000	-0.000000
322.555000	0.000000
322.728000	0.000000
322.902000	-0.000000
323.076000	-0.000000
323.250000	-0.000000
323.423000	-0.000000
323.597000	-0.000000
323.771000	-0.000000
323.945000	-0.000000
324.119000	-0.000000
324.292000	0.000000
324.466000	-0.000000
324.640000	0.000000
324.814000	0.000000
324.988000	-0.000000
325.161000	-0.000000
325.335000	-0.000000
325.509000	-0.000000
325.683000	-0.000000
325.856000	-0.000000
326.030000	-0.000000
326.204000	-0.000000
326.378000	0.000000
326.552000	-0.000000
326.725000	-0.000000
326.899000	-0.000000
327.073000	-0.000000
327.247000	-0.000000
327.421000	0.000000
327.594000	-0.000000
327.768000	-0.000000
327.942000	-0.000000
328.116000	0.000000
328.289000	0.000000
328.463000	0.000000
328.637000	0.000000
328.811000	-0.000000
328.985000	-0.000000
329.158000	-0.000000
329.332000	-0.000000
329.506000	0.000000
329.680000	-0.000000
329.854000	-0.000000
330.027000	0.000000
330.201000	0.000000
330.375000	0.000000
330.549000	0.000000
330.723000	-0.000000
330.896000	-0.000000
331.070000	-0.000000
331.244000	-0.000000
331.418000	-0.000000
331.591000	-0.000000
331.765000	-0.000000
331.939000	-0.000000
332.113000	-0.000000
332.287000	-0.000000
332.460000	0.000000
332.634000	0.000000
332.808000	-0.000000
332.982000	-0.000000
333.156000	-0.000000
333.329000	-0.000000
333.503000	-0.000000
333.677000	-0.000000
333.851000	-0.000000
334.024000	-0.000000
334.198000	-0.000000
334.372000	-0.000000
334.546000	-0.000000
334.720000	-0.000000
334.893000	-0.000000
335.067000	-0.000000
335.241000	0.000000
335.415000	-0.000000
335.589000	-0.000000
335.762000	-0.000000
335.936000	-0.000000
336.110000	-0.000000
336.284000	-0.000000
336.458000	-0.000000
336.631000	-0.000000
336.805000	-0.000000
336.979000	-0.000000
337.153000	-0.000000
337.326000	-0.000000
337.500000	-0.000000
337.674000	-0.000000
337.848000	-0.000000
338.022000	0.000000
338.195000	-0.000000
338.369000	-0.000000
338.543000	-0.000000
338.717000	-0.000000
338.891000	0.000000
339.064000	0.000000
339.238000	-0.000000
339.412000	-0.000000
339.586000	-0.000000
339.759000	-0.000000
339.933000	-0.000000
340.107000	0.000000
340.281000	-0.000000
340.455000	-0.000000
340.628000	-0.000000
340.802000	-0.000000
340.976000	-0.000000
341.150000	-0.000000
341.324000	-0.000000
341.497000	-0.000000
341.671000	-0.000000
341.845000	-0.000000
342.019000	-0.000000
342.192000	-0.000000
342.366000	-0.000000
342.540000	-0.000000
342.714000	-0.000000
342.888000	-0.000000
343.061000	-0.000000
343.235000	-0.000000
343.409000	-0.000000
343.583000	-0.000000
343.757000	-0.000000
343.930000	-0.000000
344.104000	-0.000000
344.278000	0.000000
344.452000	0.000000
344.626000	-0.000000
344.799000	-0.000000
344.973000	-0.000000
345.147000	-0.000000
345.321000	-0.000000
345.494000	-0.000000
345.668000	0.000000
345.842000	0.000000
346.016000	-0.000000
346.190000	0.000000
346.363000	0.000000
346.537000	-0.000000
346.711000	-0.000000
346.885000	-0.000000
347.059000	-0.000000
347.232000	0.000000
347.406000	0.000000
347.580000	-0.000000
347.754000	-0.000000
347.927000	0.000000
348.101000	0.000000
348.275000	-0.000000
348.449000	-0.000000
348.623000	-0.000000
348.796000	0.000000
348.970000	0.000000
349.144000	-0.000000
349.318000	-0.000000
349.492000	-0.000000
349.665000	-0.000000
349.839000	-0.000000
350.013000	-0.000000
350.187000	-0.000000
350.361000	-0.000000
350.534000	-0.000000
350.708000	-0.000000
350.882000	-0.000000
351.056000	0.000000
351.229000	-0.000000
351.403000	-0.000000
351.577000	-0.000000
351.751000	-0.000000
351.925000	-0.000000
352.098000	-0.000000
352.272000	-0.000000
352.446000	-0.000000
352.620000	-0.000000
352.794000	-0.000000
352.967000	-0.000000
353.141000	0.000000
353.315000	0.000000
353.489000	-0.000000
353.662000	-0.000000
353.836000	-0.000000
354.010000	-0.000000
354.184000	0.000000
354.358000	-0.000000
354.531000	-0.000000
354.705000	-0.000000
354.879000	-0.000000
355.053000	-0.000000
355.227000	0.000000
355.400000	-0.000000
355.574000	0.000000
355.748000	0.000000
355.922000	-0.000000
356.095000	-0.000000
356.269000	-0.000000
356.443000	-0.000000
356.617000	-0.000000
356.791000	-0.000000
356.964000	-0.000000
357.138000	-0.000000
357.312000	-0.000000
357.486000	-0.000000
357.660000	-0.000000
357.833000	-0.000000
358.007000	-0.000000
358.181000	-0.000000
358.355000	-0.000000
358.529000	-0.000000
358.702000	-0.000000
358.876000	-0.000000
359.050000	-0.000000
359.224000	-0.000000
359.397000	-0.000000
359.571000	-0.000000
359.745000	-0.000000
359.919000	-0.000000
360.093000	-0.038952
360.266000	0.038553
360.440000	0.142145
360.614000	0.175501
360.788000	0.042610
360.962000	-0.196220
361.135000	-0.078676
361.309000	-0.193136
361.483000	-0.327573
361.657000	-0.232119
361.830000	-0.220440
362.004000	-0.048060
362.178000	-0.347625
362.352000	-0.246433
362.526000	-0.072638
362.699000	-0.056237
362.873000	-0.354792
363.047000	-0.361921
363.221000	-0.348637
363.395000	-0.180235
363.568000	-0.205397
363.742000	-0.221694
363.916000	-0.201978
364.090000	-0.299305
364.263000	-0.284801
364.437000	-0.376429
364.611000	-0.056596
364.785000	-0.068792
364.959000	-0.210087
365.132000	-0.220763
365.306000	-0.261589
365.480000	-0.099434
365.656000	-0.186182
365.831000	-0.180138
366.007000	-0.196544
366.183000	-0.217552
366.358000	-0.345748
366.534000	-0.199064
366.710000	-0.333440
366.886000	-0.245516
367.061000	-0.104765
367.237000	0.000326
367.413000	-0.140093
367.588000	-0.315026
367.764000	-0.302528
367.940000	-0.292665
368.115000	-0.236205
368.291000	-0.297846
368.467000	-0.188226
368.643000	0.145922
368.818000	-0.255493
368.994000	-0.413073
369.170000	-0.277933
369.345000	-0.186632
369.521000	-0.258380
369.697000	-0.152717
369.872000	-0.237394
370.048000	-0.327172
370.224000	-0.277539
370.399000	-0.482713
370.575000	-0.377716
370.751000	-0.477551
370.927000	-0.412075
371.102000	-0.349262
371.278000	-0.337185
371.454000	-0.231779
371.629000	0.070477
371.805000	0.037939
371.981000	0.133498
372.156000	0.278521
372.332000	0.055803
372.508000	-0.044124
372.683000	-0.059163
372.859000	-0.148617
373.035000	-0.155405
373.211000	0.269501
373.386000	0.050585
373.562000	-0.381097
373.738000	-0.483704
373.913000	-0.643603
374.089000	-0.514495
374.265000	-0.072268
374.440000	-0.029303
374.616000	0.000348
374.792000	-0.182525
374.968000	0.212294
375.143000	0.002048
375.319000	-0.246998
375.495000	-0.383550
375.670000	-0.253089
375.846000	-0.135172
376.022000	-0.278717
376.197000	-0.216256
376.373000	-0.393536
376.549000	-0.400608
376.724000	-0.463552
376.900000	-0.315789
377.076000	-0.212248
377.252000	0.056565
377.427000	0.160114
377.603000	-0.215324
377.779000	-0.225517
377.954000	-0.374794
378.130000	-0.185131
378.306000	-0.136768
378.481000	-0.151193
378.657000	-0.244851
378.833000	-0.313901
379.009000	-0.185823
379.184000	-0.038065
379.360000	-0.089033
379.536000	-0.063074
379.711000	-0.186258
379.887000	-0.298847
380.063000	-0.312212
380.238000	-0.361037
380.414000	-0.087427
380.590000	-0.308960
380.765000	-0.343004
380.941000	-0.124924
381.117000	-0.070088
381.293000	-0.143442
381.468000	-0.293704
381.644000	-0.221023
381.820000	-0.119470
381.995000	-0.002983
382.171000	0.186810
382.347000	0.096784
382.522000	-0.282439
382.698000	0.087530
382.874000	0.100542
383.050000	-0.322148
383.225000	0.036654
383.401000	0.237210
383.577000	-0.116445
383.752000	-0.235269
383.928000	-0.161282
384.104000	-0.100064
384.279000	-0.195599
384.455000	-0.118471
384.631000	-0.195240
384.806000	-0.411807
384.982000	-0.190574
385.158000	-0.239945
385.334000	-0.106632
385.509000	-0.177050
385.685000	-0.454220
385.861000	-0.247631
386.036000	-0.394207
386.212000	-0.541989
386.388000	-0.319755
386.563000	-0.303013
386.739000	-0.381223
386.915000	-0.576745
387.090000	-0.249105
387.266000	-0.069991
387.442000	0.036270
387.618000	-0.046681
387.793000	-0.387118
387.969000	-0.511100
388.145000	-0.398845
388.320000	-0.379638
388.496000	-0.386846
388.672000	-0.591641
388.847000	-0.127109
389.023000	-0.121433
389.199000	-0.420707
389.375000	-0.197542
389.550000	-0.291830
389.726000	-0.162930
389.902000	-0.389498
390.077000	-0.238638
390.253000	-0.200906
390.429000	-0.260379
390.604000	-0.152444
390.780000	-0.135686
390.956000	-0.318811
391.131000	-0.340387
391.307000	0.016175
391.483000	-0.185149
391.659000	-0.354335
391.834000	-0.159621
392.010000	-0.284335
392.186000	-0.325792
392.361000	-0.266209
392.537000	-0.381489
392.713000	0.093892
392.888000	0.272099
393.064000	-0.042011
393.240000	-0.220159
393.416000	-0.327587
393.591000	-0.419171
393.767000	-0.458187
393.943000	-0.317543
394.118000	-0.042865
394.294000	0.120496
394.470000	-0.042726
394.645000	0.020223
394.821000	0.253018
394.997000	-0.085447
395.172000	-0.126124
395.348000	-0.233209
395.524000	-0.527946
395.700000	-0.373073
395.875000	-0.096469
396.051000	-0.143156
396.227000	-0.217247
396.402000	-0.262754
396.578000	-0.188858
396.754000	-0.350178
396.929000	-0.270069
397.105000	0.001810
397.281000	-0.078100
397.457000	-0.201145
397.632000	-0.206464
397.808000	-0.505674
397.984000	-0.630256
398.159000	-0.523079
398.335000	-0.338846
398.511000	0.142598
398.686000	-0.098457
398.862000	-0.354905
399.038000	-0.422180
399.213000	-0.170851
399.389000	-0.487168
399.565000	-0.222003
399.741000	0.009178
399.916000	-0.038562
400.092000	0.221911
400.268000	-0.166391
400.443000	-0.305702
400.619000	0.088202
400.795000	-0.046058
400.970000	-0.240226
401.146000	-0.295977
401.322000	0.010738
401.497000	0.419067
401.673000	0.069206
401.849000	-0.247539
402.025000	-0.069577
402.200000	-0.228029
402.376000	-0.296100
402.552000	0.165478
402.727000	-0.038214
402.903000	-0.386948
403.079000	-0.304383
403.254000	-0.036711
403.430000	-0.026173
403.606000	-0.111642
403.782000	-0.199762
403.957000	-0.387677
404.133000	-0.487771
404.309000	-0.285062
404.484000	-0.070422
404.660000	-0.101643
404.841000	-0.237707
405.023000	0.006175
405.204000	-0.088178
405.385000	-0.420391
405.566000	-0.403755
405.748000	-0.220224
405.929000	-0.016172
406.110000	-0.085552
406.292000	-0.238562
406.473000	-0.153950
406.654000	-0.326930
406.835000	-0.172350
407.017000	-0.208450
407.198000	-0.200310
407.379000	-0.170765
407.560000	-0.188749
407.742000	-0.238573
407.923000	-0.195690
408.104000	-0.354617
408.286000	-0.204612
408.467000	-0.134026
408.648000	-0.380474
408.829000	-0.460859
409.011000	-0.281712
409.192000	-0.423628
409.373000	-0.210650
409.555000	-0.083220
409.736000	-0.126321
409.917000	-0.250952
410.098000	-0.246389
410.280000	-0.114956
410.461000	-0.134883
410.642000	-0.139455
410.823000	0.098216
411.005000	0.039221
411.186000	-0.213263
411.367000	-0.317427
411.549000	-0.322970
411.730000	-0.081946
411.911000	0.040616
412.092000	-0.105976
412.274000	-0.159334
412.455000	-0.082545
412.636000	-0.075473
412.818000	-0.293006
412.999000	-0.375871
413.180000	-0.301318
413.361000	-0.275308
413.543000	-0.320708
413.724000	-0.387888
413.905000	-0.363816
414.087000	-0.384452
414.268000	-0.378834
414.449000	-0.406271
414.630000	-0.506706
414.812000	-0.581784
414.993000	-0.196734
415.174000	-0.033271
415.355000	-0.233207
415.537000	-0.457629
415.718000	-0.177745
415.899000	-0.296011
416.081000	-0.414492
416.262000	-0.195569
416.443000	-0.304534
416.624000	-0.288624
416.806000	-0.181153
416.987000	-0.041470
417.168000	-0.115918
417.350000	-0.324715
417.531000	-0.346131
417.712000	-0.307617
417.893000	-0.106898
418.075000	-0.024366
418.256000	-0.270174
418.437000	-0.180290
418.618000	-0.065648
418.800000	-0.021666
418.981000	-0.257605
419.162000	-0.178675
419.344000	0.007096
419.525000	-0.109479
419.706000	-0.190633
419.887000	-0.057295
420.069000	0.093382
420.250000	-0.005202
420.431000	-0.072101
420.613000	-0.125952
420.794000	-0.359876
420.975000	-0.033738
421.156000	-0.197368
421.338000	-0.240789
421.519000	-0.251633
421.700000	-0.337052
421.882000	-0.313780
422.063000	-0.085540
422.244000	0.368889
422.425000	0.119986
422.607000	-0.251281
422.788000	-0.273376
422.969000	-0.319043
423.150000	-0.354783
423.332000	-0.441929
423.513000	-0.259635
423.694000	-0.204914
423.876000	-0.145651
424.057000	-0.047467
424.238000	0.012596
424.419000	-0.002472
424.601000	-0.178205
424.782000	-0.128650
424.963000	0.028835
425.145000	-0.077468
425.326000	-0.041827
425.507000	-0.002441
425.688000	-0.122389
425.870000	-0.276130
426.051000	-0.369369
426.232000	-0.335367
426.413000	-0.346907
426.595000	-0.334213
426.776000	-0.323187
426.957000	-0.253604
427.139000	-0.184574
427.320000	-0.132148
427.501000	-0.017542
427.682000	-0.069281
427.864000	-0.069241
428.045000	0.128771
428.226000	0.037315
428.408000	-0.309478
428.589000	-0.145756
428.770000	-0.119554
428.951000	-0.253927
429.133000	-0.395476
429.314000	-0.229806
429.495000	-0.247928
429.677000	-0.228501
429.858000	-0.234169
430.039000	-0.177461
430.220000	-0.079790
430.402000	-0.002435
430.583000	-0.243790
430.764000	-0.236067
430.945000	-0.102567
431.127000	-0.023914
431.308000	-0.169571
431.489000	-0.011833
431.671000	0.032675
431.852000	-0.088251
432.033000	-0.149962
432.214000	-0.057297
432.396000	-0.003739
432.577000	-0.193761
432.758000	-0.380768
432.940000	-0.326751
433.121000	-0.201895
433.302000	-0.145182
433.483000	0.042882
433.665000	0.138843
433.846000	0.018917
434.027000	-0.117558
434.208000	-0.184833
434.390000	-0.194803
434.571000	0.178159
434.752000	0.597210
434.934000	0.360663
435.115000	0.289304
435.296000	0.398223
435.477000	0.209789
435.659000	-0.067121
435.840000	-0.008838
436.026000	0.010626
436.211000	-0.107182
436.397000	-0.405953
436.582000	-0.289906
436.768000	-0.084787
436.953000	-0.185043
437.139000	-0.161528
437.325000	0.098690
437.510000	0.062887
437.696000	0.182551
437.881000	0.151716
438.067000	-0.181978
438.252000	-0.155519
438.438000	-0.193375
438.624000	-0.183259
438.809000	-0.069072
438.995000	0.012841
439.180000	-0.088860
439.366000	-0.146441
439.551000	-0.177548
439.737000	-0.099715
439.923000	-0.043542
440.108000	-0.150946
440.294000	-0.113112
440.479000	0.027557
440.665000	0.107539
440.850000	0.019868
441.036000	-0.031713
441.222000	-0.066411
441.407000	-0.192893
441.593000	-0.073248
441.778000	0.049127
441.964000	0.121747
442.149000	-0.200264
442.335000	-0.212638
442.521000	-0.104258
442.706000	0.054701
442.892000	-0.037194
443.077000	-0.148789
443.263000	-0.028717
443.448000	-0.098256
443.634000	-0.170446
443.820000	0.182977
444.005000	0.064693
444.191000	-0.164819
444.376000	-0.164044
444.562000	0.177711
444.747000	0.154852
444.933000	0.052419
445.119000	-0.075482
445.304000	-0.149739
445.490000	0.010869
445.675000	0.006140
445.861000	-0.163151
446.046000	-0.152163
446.232000	-0.062291
446.418000	0.000236
446.603000	-0.030401
446.789000	-0.031545
446.974000	-0.039904
447.160000	-0.246799
447.345000	-0.168272
447.531000	-0.198523
447.717000	-0.023291
447.902000	0.042760
448.088000	0.095353
448.273000	-0.026636
448.459000	-0.087140
448.644000	-0.153627
448.830000	-0.222059
449.016000	-0.290844
449.201000	-0.202883
449.387000	-0.044224
449.572000	0.032894
449.758000	-0.087194
449.943000	-0.184209
450.129000	-0.212542
450.315000	-0.178488
450.500000	-0.214650
450.686000	-0.151043
450.871000	-0.271159
451.057000	-0.104418
451.243000	-0.100813
451.428000	-0.120719
451.614000	-0.098389
451.799000	-0.135436
451.985000	0.025731
452.170000	0.087077
452.356000	-0.122423
452.542000	-0.137630
452.727000	0.019863
452.913000	-0.099250
453.098000	0.060377
453.284000	0.206035
453.469000	0.038431
453.655000	0.171255
453.841000	0.119067
454.026000	-0.100856
454.212000	-0.069641
454.397000	-0.005505
454.583000	-0.160585
454.768000	-0.258665
454.954000	-0.058101
455.140000	0.008221
455.325000	-0.143306
455.511000	-0.264195
455.696000	-0.210415
455.882000	-0.058026
456.067000	0.143077
456.253000	-0.044343
456.439000	-0.216883
456.624000	-0.213891
456.810000	-0.200809
456.995000	-0.170372
457.181000	-0.265206
457.366000	-0.043788
457.552000	0.010340
457.738000	0.100142
457.923000	0.071078
458.109000	0.237119
458.294000	0.139965
458.480000	0.058898
458.665000	0.005850
458.851000	-0.131164
459.037000	-0.304312
459.222000	-0.138111
459.408000	-0.115802
459.593000	-0.045298
459.779000	0.094289
459.964000	0.226382
460.150000	0.352281
460.336000	0.255399
460.521000	0.061921
460.707000	-0.087719
460.892000	-0.168734
461.078000	0.060702
461.263000	0.143631
461.449000	-0.065700
461.635000	-0.082092
461.820000	-0.040306
462.006000	0.059112
462.191000	0.057808
462.377000	-0.155795
462.562000	0.144772
462.748000	0.324368
462.934000	-0.068163
463.119000	-0.219104
463.305000	-0.020225
463.490000	-0.091855
463.676000	-0.042717
463.861000	-0.061230
464.047000	-0.077155
464.233000	-0.016867
464.418000	-0.052039
464.604000	-0.129599
464.789000	0.070491
464.975000	0.083004
465.160000	-0.060391
465.346000	-0.065670
465.532000	-0.182824
465.717000	-0.198464
465.903000	0.067039
466.088000	0.015044
466.274000	-0.178975
466.459000	-0.177072
466.645000	0.184080
466.831000	0.149322
467.016000	0.149077
467.202000	0.037068
467.387000	-0.056495
467.573000	-0.208963
467.758000	0.094980
467.944000	0.003331
468.130000	-0.119075
468.315000	0.014866
468.501000	0.117045
468.686000	0.026224
468.872000	0.024151
469.057000	0.084507
469.243000	-0.000834
469.429000	-0.048738
469.614000	-0.124462
469.800000	-0.182647
469.985000	-0.014293
470.171000	0.073467
470.356000	-0.048470
470.542000	0.004367
470.728000	0.019892
470.913000	0.008453
471.099000	0.113529
471.284000	0.001245
471.470000	-0.050705
471.655000	-0.019537
471.841000	-0.013260
472.027000	-0.090467
472.212000	0.115706
472.398000	0.174025
472.583000	0.042672
472.769000	0.046903
472.954000	0.021964
473.140000	-0.119462
473.326000	-0.139242
473.511000	0.141433
473.697000	0.143664
473.882000	0.001244
474.068000	-0.072473
474.253000	-0.141430
474.439000	-0.035000
474.625000	0.045685
474.810000	0.032271
474.996000	0.051923
475.181000	-0.128608
475.367000	0.034248
475.552000	0.262683
475.738000	-0.036932
475.924000	-0.046320
476.109000	0.051883
476.295000	-0.070110
476.480000	0.010558
476.666000	0.008475
476.851000	-0.000826
477.037000	0.052128
477.223000	-0.063922
477.408000	-0.175678
477.594000	-0.223060
477.779000	-0.075404
477.965000	-0.035021
478.151000	-0.152072
478.336000	-0.011198
478.522000	-0.057719
478.707000	-0.112530
478.893000	-0.031922
479.078000	-0.160835
479.264000	-0.150484
479.450000	-0.068410
479.635000	0.082230
479.821000	0.005408
480.006000	0.043858
480.192000	0.043817
480.377000	0.059521
480.563000	0.048027
480.749000	-0.123579
480.934000	-0.112016
481.120000	0.037478
481.305000	0.137712
481.491000	0.126854
481.676000	0.164595
481.862000	0.146204
482.048000	0.007468
482.233000	0.062365
482.419000	0.042778
482.604000	-0.023698
482.790000	-0.008107
482.975000	0.066791
483.161000	0.229439
483.347000	0.205253
483.532000	0.157648
483.718000	-0.061106
483.903000	-0.029971
484.089000	0.041734
484.274000	-0.064058
484.460000	0.080181
484.646000	0.141471
484.831000	0.028273
485.017000	0.114188
485.202000	0.163613
485.388000	0.382615
485.573000	0.374641
485.759000	0.172903
485.945000	0.339466
486.130000	0.177976
486.316000	0.183214
486.501000	0.247696
486.687000	0.124806
486.872000	0.066170
487.058000	0.221951
487.244000	0.241696
487.429000	0.074295
487.615000	0.265740
487.800000	0.346989
487.986000	0.248283
488.171000	0.351606
488.357000	0.298192
488.543000	0.324654
488.728000	0.389058
488.914000	0.292289
489.099000	0.166572
489.285000	0.197051
489.470000	0.381722
489.656000	0.420697
489.842000	0.397783
490.027000	0.511852
490.213000	0.375971
490.398000	0.081433
490.584000	0.334107
490.769000	0.340177
490.955000	0.401206
491.141000	0.457768
491.326000	0.419007
491.512000	0.541284
491.697000	0.462035
491.883000	0.343962
492.068000	0.284866
492.254000	0.320518
492.440000	0.428709
492.625000	0.357396
492.811000	0.335705
492.996000	0.462880
493.182000	0.462399
493.367000	0.297249
493.553000	0.276392
493.739000	0.381509
493.924000	0.481618
494.110000	0.499964
494.295000	0.390475
494.481000	0.501042
494.666000	0.553999
494.852000	0.710665
495.038000	0.569779
495.223000	0.444858
495.409000	0.526806
495.594000	0.514812
495.780000	0.574670
495.965000	0.495218
496.151000	0.689035
496.337000	0.770227
496.522000	0.570818
496.708000	0.672447
496.893000	0.825184
497.079000	0.662846
497.264000	0.629198
497.450000	0.702085
497.636000	0.797049
497.821000	0.648956
498.007000	0.886142
498.192000	0.946490
498.378000	0.801465
498.563000	0.733946
498.749000	0.822205
498.935000	0.866125
499.120000	0.932581
499.306000	0.786796
499.491000	0.771953
499.677000	0.913503
499.862000	1.018067
500.048000	1.075904
500.234000	0.975107
500.419000	0.957234
500.605000	1.158711
500.790000	1.064101
500.976000	0.936914
501.161000	0.878625
501.347000	1.093023
501.533000	1.206914
501.718000	1.127507
501.904000	1.084780
502.089000	1.226616
502.275000	1.315024
502.460000	1.216879
502.646000	1.295949
502.832000	1.357631
503.017000	1.353474
503.203000	1.166851
503.388000	1.176578
503.574000	1.405393
503.759000	1.452368
503.945000	1.519080
504.131000	1.452864
504.316000	1.433215
504.502000	1.422892
504.687000	1.417776
504.873000	1.336301
505.058000	1.346044
505.244000	1.374453
505.430000	1.478296
505.615000	1.594475
505.801000	1.649135
505.986000	1.507404
506.172000	1.620363
506.358000	1.642938
506.543000	1.630129
506.729000	1.889509
506.914000	1.862785
507.100000	1.981091
507.285000	1.784206
507.471000	1.736219
507.657000	2.001981
507.842000	1.853441
508.028000	1.726795
508.213000	1.786200
508.399000	1.863175
508.584000	2.042867
508.770000	1.966046
508.956000	1.951529
509.141000	2.004951
509.327000	2.072398
509.512000	2.026162
509.698000	2.053297
509.883000	2.142463
510.069000	2.089774
510.255000	2.122973
510.440000	2.149827
510.626000	2.128531
510.811000	2.086120
510.997000	2.184617
511.182000	2.445529
511.368000	2.366320
511.554000	2.027905
511.739000	2.132712
511.925000	2.349460
512.110000	2.314918
512.296000	2.475683
512.481000	2.469638
512.667000	2.372047
512.853000	2.220516
513.038000	2.302751
513.224000	2.252583
513.409000	2.153945
513.595000	2.308815
513.780000	2.141084
513.966000	2.241284
514.152000	2.247642
514.337000	2.161373
514.523000	2.197051
514.708000	2.292660
514.894000	2.364113
515.079000	2.238315
515.265000	2.258215
515.451000	2.294767
515.636000	2.214788
515.822000	2.315284
516.007000	2.182260
516.193000	2.344905
516.378000	2.458970
516.564000	2.295647
516.750000	2.273032
516.935000	2.370926
517.121000	2.359272
517.306000	2.446009
517.492000	2.420090
517.677000	2.169623
517.863000	2.114965
518.049000	2.210479
518.234000	2.177220
518.420000	2.293199
518.605000	2.428084
518.791000	2.391188
518.976000	2.208229
519.162000	2.122437
519.348000	2.215885
519.533000	2.152457
519.719000	2.340554
519.904000	2.223545
520.090000	2.141472
520.275000	2.298142
520.461000	2.262786
520.647000	2.052615
520.832000	1.850940
521.018000	1.943344
521.203000	1.935965
521.389000	1.749073
521.574000	1.834525
521.760000	1.957492
521.946000	1.959341
522.131000	1.889247
522.317000	1.857662
522.502000	1.780102
522.688000	1.884310
522.873000	1.832796
523.059000	1.789988
523.245000	1.737080
523.430000	1.607957
523.616000	1.675204
523.801000	1.575741
523.987000	1.621784
524.172000	1.754327
524.358000	1.768456
524.544000	1.696717
524.729000	1.755756
524.915000	1.786671
525.100000	1.624747
525.286000	1.643604
525.471000	1.627619
525.657000	1.644785
525.843000	1.399690
526.028000	1.554791
526.214000	1.484934
526.399000	1.360647
526.585000	1.262395
526.770000	1.259135
526.956000	1.369359
527.142000	1.273487
527.327000	1.412317
527.513000	1.300498
527.698000	1.285264
527.884000	1.316116
528.069000	1.243470
528.255000	1.328792
528.441000	1.223547
528.626000	1.254620
528.812000	1.468811
528.997000	1.294015
529.183000	1.176751
529.368000	1.230804
529.554000	1.218177
529.740000	1.223734
529.925000	1.146448
530.111000	1.113684
530.296000	1.180299
530.482000	1.287831
530.667000	1.189019
530.853000	1.264615
531.039000	1.172879
531.224000	1.172703
531.410000	1.223069
531.595000	1.151830
531.781000	1.180098
531.967000	1.006328
532.152000	1.114102
532.338000	1.026768
532.523000	0.887572
532.709000	0.863398
532.894000	0.969178
533.080000	0.961381
533.266000	0.817268
533.451000	0.799222
533.637000	0.839672
533.822000	1.031917
534.008000	0.857913
534.193000	0.880151
534.379000	0.982309
534.565000	0.878969
534.750000	0.830076
534.936000	1.083586
535.121000	0.889006
535.307000	0.924832
535.492000	0.906861
535.678000	0.676208
535.864000	0.804539
536.049000	1.073398
536.235000	0.852029
536.420000	0.839540
536.606000	0.767987
536.791000	0.672169
536.977000	0.625313
537.163000	0.860678
537.348000	0.853761
537.534000	0.910024
537.719000	0.730127
537.905000	0.548880
538.090000	0.783291
538.276000	0.890994
538.462000	0.808200
538.647000	0.797953
538.833000	0.721988
539.018000	0.796138
539.204000	0.734564
539.389000	0.581969
539.575000	0.911745
539.761000	0.844573
539.946000	0.559046
540.132000	0.671639
540.317000	0.533562
540.503000	0.648235
540.688000	0.704945
540.874000	0.963302
541.060000	1.094264
541.245000	0.922243
541.431000	0.738829
541.616000	0.800724
541.802000	0.745395
541.987000	0.838974
542.173000	0.846113
542.359000	0.727633
542.544000	0.827524
542.730000	0.662339
542.915000	0.694285
543.101000	0.862353
543.286000	0.672320
543.472000	0.572683
543.658000	0.649032
543.843000	0.634605
544.029000	0.826886
544.214000	0.696485
544.400000	0.373613
544.585000	0.546711
544.771000	0.651126
544.957000	0.860932
545.142000	0.940193
545.328000	0.972541
545.513000	1.001563
545.699000	0.937568
545.884000	0.737222
546.070000	0.615818
546.261000	0.607080
546.451000	0.423052
546.642000	0.222376
546.833000	0.358183
547.023000	0.242050
547.214000	0.256901
547.405000	0.438537
547.595000	0.683512
547.786000	0.602503
547.977000	0.363717
548.167000	0.198940
548.358000	0.254620
548.549000	0.630711
548.740000	0.421978
548.930000	0.115972
549.121000	0.228082
549.312000	0.157939
549.502000	0.070048
549.693000	0.212252
549.884000	0.304812
550.074000	0.422985
550.265000	0.169195
550.456000	0.251397
550.646000	0.332538
550.837000	0.301000
551.028000	0.178940
551.218000	0.294123
551.409000	0.149295
551.600000	0.202995
551.790000	0.357877
551.981000	0.094770
552.172000	0.131353
552.362000	0.455898
552.553000	0.468456
552.744000	0.269307
552.934000	0.194911
553.125000	0.123430
553.316000	0.089771
553.506000	0.472123
553.697000	0.279134
553.888000	0.291899
554.079000	0.433623
554.269000	0.363240
554.460000	0.032836
554.651000	0.021025
554.841000	-0.107911
555.032000	-0.030879
555.223000	0.056790
555.413000	0.213425
555.604000	0.181631
555.795000	0.150813
555.985000	0.198908
556.176000	0.074828
556.367000	-0.196417
556.557000	-0.049044
556.748000	0.039251
556.939000	0.004787
557.129000	-0.111794
557.320000	0.051146
557.511000	0.001791
557.701000	-0.013115
557.892000	0.051175
558.083000	0.321662
558.273000	0.191658
558.464000	-0.044553
558.655000	0.006274
558.845000	0.098598
559.036000	0.146363
559.227000	0.055486
559.418000	0.197547
559.608000	0.255724
559.799000	-0.086229
559.990000	-0.112481
560.180000	-0.063595
560.371000	-0.254172
560.562000	-0.169090
560.752000	0.034503
560.943000	-0.118734
561.134000	-0.303904
561.324000	-0.085666
561.515000	0.157108
561.706000	0.022511
561.896000	-0.216940
562.087000	-0.105986
562.278000	-0.128078
562.468000	-0.272954
562.659000	-0.127855
562.850000	0.215489
563.040000	0.225806
563.231000	-0.210642
563.422000	-0.077628
563.612000	-0.186632
563.803000	-0.077573
563.994000	-0.132762
564.185000	-0.223039
564.375000	-0.020167
564.566000	-0.056632
564.757000	-0.069963
564.947000	-0.173676
565.138000	-0.001166
565.329000	-0.062233
565.519000	-0.277286
565.710000	-0.167005
565.901000	0.049787
566.091000	0.163215
566.282000	-0.038896
566.473000	-0.043116
566.663000	-0.048847
566.854000	-0.266008
567.045000	-0.094469
567.235000	0.018948
567.426000	0.011766
567.617000	0.017443
567.807000	-0.039764
567.998000	-0.022554
568.189000	-0.136716
568.379000	-0.059501
568.570000	0.028714
568.761000	-0.020994
568.951000	-0.073362
569.142000	-0.150040
569.333000	-0.196836
569.524000	-0.265327
569.714000	-0.323223
569.905000	-0.445362
570.096000	-0.037788
570.286000	0.074911
570.477000	0.189858
570.668000	-0.012346
570.858000	-0.040403
571.049000	-0.164680
571.240000	-0.265467
571.430000	-0.061182
571.621000	-0.115248
571.812000	0.015526
572.002000	0.034995
572.193000	-0.135591
572.384000	-0.062084
572.574000	-0.012205
572.765000	-0.052330
572.956000	-0.118410
573.146000	0.065237
573.337000	-0.072832
573.528000	-0.091983
573.718000	0.049717
573.909000	0.103132
574.100000	0.026238
574.290000	-0.122324
574.481000	-0.100304
574.672000	-0.122190
574.863000	0.002982
575.053000	-0.124178
575.244000	-0.036166
575.435000	-0.188477
575.625000	-0.176907
575.816000	-0.159261
576.007000	-0.061399
576.197000	-0.023900
576.388000	-0.026482
576.579000	0.088512
576.769000	0.069712
576.960000	-0.233265
577.155000	-0.386991
577.350000	-0.087458
577.545000	0.044046
577.740000	-0.125396
577.935000	0.196945
578.130000	0.141615
578.326000	-0.172264
578.521000	0.083196
578.716000	0.094606
578.911000	-0.199998
579.106000	-0.061026
579.301000	0.071759
579.496000	-0.104708
579.691000	-0.370052
579.886000	-0.156003
580.081000	-0.029399
580.276000	-0.008747
580.471000	-0.128348
580.666000	-0.261642
580.861000	-0.243583
581.057000	-0.232183
581.252000	-0.133331
581.447000	-0.191987
581.642000	-0.152513
581.837000	-0.135641
582.032000	-0.136533
582.227000	0.091764
582.422000	0.059878
582.617000	-0.151289
582.812000	-0.252928
583.007000	-0.183550
583.202000	-0.248556
583.397000	-0.022289
583.592000	0.209003
583.788000	-0.068282
583.983000	-0.061993
584.178000	0.015163
584.373000	-0.169514
584.568000	-0.179052
584.763000	-0.217596
584.958000	-0.300504
585.153000	-0.195317
585.348000	-0.161809
585.543000	-0.043094
585.738000	-0.064117
585.933000	-0.274609
586.128000	-0.022030
586.324000	-0.003475
586.519000	-0.009672
586.714000	0.058574
586.909000	0.130783
587.104000	0.129971
587.299000	-0.010945
587.494000	-0.023351
587.689000	-0.104290
587.884000	-0.084632
588.079000	-0.089631
588.274000	-0.071036
588.469000	-0.075887
588.664000	0.028995
588.859000	0.036546
589.055000	0.014034
589.250000	-0.047387
589.445000	-0.183000
589.640000	-0.166817
589.835000	0.094688
590.030000	0.190328
590.225000	0.206731
590.420000	0.002774
590.615000	-0.101961
590.810000	-0.094284
591.005000	-0.066826
591.200000	-0.125097
591.395000	-0.164323
591.591000	-0.032606
591.786000	0.079805
591.981000	-0.011145
592.176000	0.018021
592.371000	0.049766
592.566000	0.000254
592.761000	0.194325
592.956000	0.153995
593.151000	0.208735
593.346000	0.108608
593.541000	0.144152
593.736000	0.102443
593.931000	-0.044471
594.126000	0.057847
594.322000	0.142308
594.517000	0.030963
594.712000	-0.086787
594.907000	-0.085815
595.102000	0.041420
595.297000	0.177656
595.492000	0.261771
595.687000	0.089325
595.882000	0.040294
596.077000	0.156830
596.272000	0.324982
596.467000	0.372971
596.662000	0.230841
596.857000	0.255173
597.053000	0.275144
597.248000	0.359667
597.443000	0.407086
597.638000	0.325722
597.833000	0.144177
598.028000	0.363513
598.223000	0.489908
598.418000	0.398974
598.613000	0.311059
598.808000	0.451724
599.003000	0.462722
599.198000	0.305450
599.393000	0.365851
599.589000	0.500031
599.784000	0.340711
599.979000	0.446935
600.174000	0.656187
600.369000	0.439769
600.564000	0.545055
600.759000	0.845611
600.954000	0.946201
601.149000	0.768369
601.344000	0.460532
601.539000	0.691474
601.734000	0.616086
601.929000	0.432293
602.124000	0.519399
602.320000	0.790343
602.515000	1.064564
602.710000	1.037287
602.905000	0.712951
603.100000	0.698429
603.295000	0.792169
603.490000	0.924783
603.685000	0.984076
603.880000	1.018916
604.075000	0.877147
604.270000	0.884413
604.465000	1.008022
604.660000	0.829025
604.856000	1.006740
605.051000	1.207651
605.246000	1.221535
605.441000	0.993698
605.636000	0.970967
605.831000	1.169418
606.026000	1.121480
606.221000	1.080929
606.416000	1.260385
606.611000	1.520184
606.806000	1.613959
607.001000	1.791630
607.196000	1.512623
607.391000	1.344187
607.587000	1.598469
607.782000	1.625223
607.977000	1.442475
608.172000	1.878524
608.367000	1.964802
608.562000	1.794395
608.757000	1.811658
608.952000	1.814503
609.147000	2.261463
609.342000	2.181036
609.537000	2.022389
609.732000	2.100142
609.927000	2.122163
610.122000	2.278996
610.318000	2.659773
610.513000	2.908581
610.708000	2.749845
610.903000	2.819418
611.098000	2.951774
611.293000	2.973411
611.488000	3.022424
611.683000	3.015200
611.878000	3.052312
612.073000	3.163152
612.268000	3.179140
612.463000	3.263081
612.658000	3.231006
612.854000	3.216794
613.049000	3.209836
613.244000	3.427455
613.439000	3.566143
613.634000	3.362845
613.829000	3.563407
614.024000	3.498591
614.219000	3.536117
614.414000	3.873942
614.609000	3.751236
614.804000	3.673148
614.999000	3.720585
615.194000	3.902824
615.389000	4.003714
615.585000	3.952890
615.780000	4.203264
615.975000	4.211652
616.170000	4.409748
616.365000	4.675060
616.560000	4.887839
616.755000	4.885523
616.950000	4.893369
617.145000	5.046887
617.340000	4.995772
617.535000	4.807801
617.730000	5.183455
617.925000	5.108439
618.120000	5.102851
618.316000	5.579784
618.511000	5.576300
618.706000	5.555423
618.901000	5.771175
619.096000	6.051851
619.291000	6.056721
619.486000	6.249254
619.681000	6.019450
619.876000	6.110119
620.071000	6.414463
620.266000	6.699058
620.461000	6.967372
620.656000	7.043453
620.852000	7.050700
621.047000	6.995946
621.242000	7.065481
621.437000	7.588074
621.632000	7.809720
621.827000	7.668863
622.022000	7.519329
622.217000	7.918095
622.412000	8.210442
622.607000	8.377540
622.802000	8.198873
622.997000	8.294644
623.192000	8.571634
623.387000	8.746681
623.583000	8.656251
623.778000	9.226345
623.973000	9.321017
624.168000	9.474031
624.363000	9.618716
624.558000	9.857919
624.753000	9.705358
624.948000	10.107841
625.143000	10.268078
625.338000	10.373327
625.533000	10.379557
625.728000	10.674751
625.923000	11.006828
626.119000	11.065862
626.314000	10.978944
626.509000	11.162553
626.704000	11.487955
626.899000	11.608361
627.094000	11.715173
627.289000	11.842210
627.484000	12.064630
627.679000	12.203689
627.874000	12.463924
628.069000	13.013634
628.264000	12.998765
628.459000	12.988935
628.654000	13.173133
628.850000	13.234893
629.045000	13.439998
629.240000	13.626793
629.435000	13.678926
629.630000	13.877118
629.825000	14.022426
630.020000	14.225563
630.215000	13.996115
630.410000	14.263070
630.605000	14.325290
630.800000	14.409978
630.995000	14.556284
631.190000	14.804898
631.385000	14.688431
631.581000	14.519521
631.776000	14.574949
631.971000	14.299635
632.166000	14.312244
632.361000	14.079457
632.556000	14.094333
632.751000	14.175255
632.946000	13.755630
633.141000	13.542819
633.336000	13.484939
633.531000	13.458504
633.726000	13.223578
633.921000	12.831358
634.117000	12.414459
634.312000	12.098301
634.507000	11.855678
634.702000	11.679494
634.897000	11.455953
635.092000	11.335462
635.287000	11.184377
635.482000	10.828560
635.677000	10.680582
635.872000	10.347498
636.067000	10.047911
636.262000	9.522109
636.457000	8.864721
636.652000	8.628424
636.848000	8.335938
637.043000	8.119371
637.238000	7.862167
637.433000	7.531052
637.628000	7.373910
637.823000	7.302871
638.018000	7.092588
638.213000	6.653685
638.408000	6.256772
638.603000	5.887309
638.798000	5.690359
638.993000	5.613535
639.188000	5.406130
639.383000	5.153879
639.579000	5.405018
639.774000	4.981721
639.969000	4.641749
640.164000	4.416451
640.359000	4.253013
640.554000	4.365688
640.749000	4.173007
640.944000	4.065813
641.139000	3.851081
641.334000	3.533252
641.529000	3.031646
641.724000	3.078244
641.919000	3.129412
642.115000	3.379800
642.310000	3.249417
642.505000	2.983485
642.700000	2.888985
642.895000	2.645531
643.090000	2.713786
643.285000	2.790148
643.480000	2.638952
643.675000	2.564963
643.870000	2.795609
644.065000	2.559252
644.260000	2.066411
644.455000	2.082465
644.650000	1.932174
644.846000	1.963660
645.041000	1.646808
645.236000	1.460040
645.431000	1.467396
645.626000	1.224780
645.821000	1.369636
646.016000	1.438617
646.211000	1.826646
646.406000	1.652053
646.601000	1.511307
646.796000	1.220477
646.991000	0.975901
647.186000	1.106893
647.381000	1.266543
647.577000	1.244777
647.772000	1.253686
647.967000	1.144552
648.162000	1.115332
648.357000	1.049385
648.552000	1.132360
648.747000	1.076208
648.942000	1.078673
649.137000	0.987525
649.332000	0.801474
649.527000	0.776168
649.722000	0.980931
649.917000	1.064276
650.113000	0.743309
650.308000	0.542266
650.503000	0.549125
650.698000	0.701297
650.893000	0.612098
651.088000	0.704051
651.283000	0.757760
651.478000	0.441130
651.673000	0.618612
651.868000	0.443368
652.063000	0.677019
652.258000	0.742546
652.453000	0.868447
652.648000	0.534193
652.844000	0.435316
653.039000	0.508365
653.234000	0.101633
653.429000	-0.052175
653.624000	0.175961
653.819000	0.414017
654.014000	0.296147
654.209000	0.153193
654.404000	0.369318
654.599000	0.204444
654.794000	0.145884
654.989000	0.487474
655.184000	0.429597
655.380000	0.053291
655.575000	0.002190
655.770000	0.046073
655.965000	0.153980
656.160000	0.106489
656.355000	0.282083
656.550000	0.270105
656.745000	0.295994
656.940000	0.092252
657.135000	0.169394
657.330000	0.174977
657.525000	-0.056651
657.720000	0.193834
657.915000	0.304105
658.111000	0.169789
658.306000	0.407670
658.501000	0.175856
658.696000	-0.090109
658.891000	0.183257
659.086000	0.061307
659.281000	0.103949
659.476000	-0.114469
659.671000	-0.473759
659.866000	-0.218270
660.061000	0.089369
660.256000	0.182159
660.451000	0.150758
660.646000	-0.051682
660.842000	0.030152
661.037000	-0.176510
661.232000	-0.204732
661.427000	0.007825
661.622000	-0.148950
661.817000	-0.272069
662.012000	0.002245
662.207000	-0.130666
662.402000	-0.221077
662.597000	-0.001502
662.792000	-0.299829
662.987000	-0.320206
663.182000	-0.046592
663.378000	-0.087994
663.573000	-0.433132
663.768000	-0.419068
663.963000	-0.210516
664.158000	-0.150124
664.353000	0.306387
664.548000	0.444125
664.743000	0.077885
664.938000	-0.264254
665.133000	-0.289280
665.328000	0.184291
665.523000	0.140959
665.718000	-0.071818
665.913000	-0.129009
666.109000	-0.064458
666.304000	0.091890
666.499000	-0.079638
666.694000	0.063433
666.889000	0.367185
667.084000	0.011884
667.279000	-0.103065
667.474000	-0.080121
667.669000	-0.003449
667.864000	-0.051418
668.059000	-0.063025
668.254000	-0.091965
668.449000	-0.230749
668.644000	-0.140350
668.840000	0.148638
669.035000	-0.155790
669.230000	-0.479407
669.425000	-0.073179
669.620000	-0.183515
669.815000	-0.219151
670.010000	-0.257769
670.205000	-0.137539
670.400000	-0.121781
670.595000	-0.083250
670.790000	-0.182694
670.985000	-0.171187
671.180000	0.070659
671.376000	-0.259444
671.571000	-0.355960
671.766000	-0.329309
671.961000	-0.413854
672.156000	-0.361296
672.351000	-0.200155
672.546000	-0.271507
672.741000	-0.143124
672.936000	-0.115752
673.131000	0.438603
673.326000	0.123119
673.521000	-0.328470
673.716000	-0.417611
673.911000	-0.562631
674.107000	0.032177
674.302000	0.300524
674.497000	-0.007561
674.692000	-0.332146
674.887000	-0.357255
675.082000	-0.229725
675.277000	0.050498
675.472000	-0.071834
675.667000	-0.301039
675.862000	-0.325320
676.057000	-0.152508
676.252000	-0.100408
676.447000	-0.254263
676.643000	-0.044025
676.838000	0.255346
677.033000	-0.076590
677.228000	0.207596
677.423000	0.130487
677.618000	-0.303255
677.813000	-0.439544
678.008000	-0.185537
678.203000	-0.032319
678.398000	-0.270091
678.593000	-0.097988
678.788000	0.008638
678.983000	-0.328243
679.178000	-0.219487
679.374000	-0.281549
679.569000	-0.176966
679.764000	-0.287130
679.959000	-0.462002
680.154000	-0.420615
680.349000	-0.588570
680.544000	-0.496330
680.739000	-0.342707
680.934000	-0.465868
681.129000	-0.475522
681.324000	-0.517909
681.519000	-0.240692
681.714000	-0.335158
681.909000	-0.393405
682.105000	-0.512152
682.300000	-0.102912
682.495000	0.072086
682.690000	-0.020703
682.885000	-0.160261
683.080000	-0.338797
683.275000	-0.254119
683.470000	0.091747
683.665000	0.287766
683.860000	0.488680
684.055000	0.188160
684.250000	-0.251552
684.445000	-0.342829
684.641000	0.070996
684.836000	-0.179499
685.031000	-0.240339
685.226000	-0.199764
685.421000	0.175286
685.616000	-0.152835
685.811000	-0.328475
686.006000	-0.025531
686.201000	-0.138226
686.396000	-0.501957
686.591000	-0.468097
686.786000	0.000437
686.981000	-0.148000
687.176000	-0.069585
687.372000	-0.198912
687.567000	0.096871
687.762000	0.013626
687.957000	-0.080872
688.152000	-0.272643
688.347000	-0.233422
688.542000	-0.430847
688.737000	-0.786589
688.932000	-0.830001
689.127000	-0.414248
689.322000	-0.037362
689.517000	-0.257476
689.712000	-0.445817
689.908000	-0.336823
690.103000	-0.413565
690.298000	-0.268146
690.493000	-0.306998
690.688000	-0.556785
690.883000	-0.315199
691.078000	0.104199
691.273000	0.142557
691.468000	-0.196171
691.663000	-0.181037
691.858000	-0.038120
692.053000	-0.108455
692.248000	0.002726
692.443000	-0.010902
692.639000	-0.113339
692.834000	0.023272
693.029000	0.516274
693.224000	0.482034
693.419000	-0.164806
693.614000	-0.337594
693.809000	-0.496636
694.004000	-0.527547
694.199000	-0.495138
694.394000	-0.196137
694.589000	-0.471876
694.784000	-0.470037
694.979000	-0.226682
695.174000	-0.308585
695.370000	0.199963
695.565000	-0.078599
695.760000	-0.395757
695.955000	0.016822
696.150000	0.093951
696.345000	-0.313916
696.540000	-0.074739
696.740000	-0.201512
696.940000	-0.055940
697.140000	-0.018428
697.340000	-0.259855
697.539000	-0.039780
697.739000	-0.136918
697.939000	-0.174940
698.139000	-0.512078
698.339000	-0.816493
698.539000	-0.547032
698.739000	-0.589079
698.939000	-0.466993
699.138000	-0.508587
699.338000	0.213462
699.538000	0.271928
699.738000	-0.266943
699.938000	-0.380497
700.138000	-0.422202
700.338000	-0.452489
700.538000	-0.261775
700.737000	-0.237414
700.937000	-0.686895
701.137000	-0.729159
701.337000	-0.043372
701.537000	0.015140
701.737000	-0.233651
701.937000	-0.319736
702.137000	-0.177966
702.337000	-0.357019
702.536000	-0.573672
702.736000	-0.530143
702.936000	-0.688383
703.136000	-0.152494
703.336000	-0.140124
703.536000	-0.311208
703.736000	-0.629561
703.936000	-0.568847
704.135000	-0.598252
704.335000	-0.217840
704.535000	-0.467221
704.735000	-0.664442
704.935000	-0.188373
705.135000	-0.209268
705.335000	-0.347774
705.535000	-0.127367
705.735000	-0.077209
705.934000	-0.087192
706.134000	-0.355400
706.334000	-0.401464
706.534000	-0.497646
706.734000	-0.427540
706.934000	-0.513120
707.134000	-0.573695
707.334000	-0.284682
707.533000	-0.259923
707.733000	-0.254682
707.933000	-0.416801
708.133000	-0.148533
708.333000	-0.057894
708.533000	-0.248794
708.733000	0.038661
708.933000	-0.246431
709.132000	-0.402504
709.332000	-0.357194
709.532000	-0.427121
709.732000	-0.262854
709.932000	-0.783784
710.132000	-0.744871
710.332000	-0.890466
710.532000	-0.248065
710.732000	-0.063728
710.931000	-0.434083
711.131000	-0.459014
711.331000	-0.208756
711.531000	-0.341099
711.731000	-0.380876
711.931000	-0.332130
712.131000	-0.394028
712.331000	-0.225379
712.530000	-0.297720
712.730000	-0.516922
712.930000	-0.324398
713.130000	-0.289016
713.330000	-0.430404
713.530000	-0.308787
713.730000	0.346693
713.930000	-0.028314
714.129000	-0.525878
714.329000	-0.598504
714.529000	-0.254131
714.729000	0.061033
714.929000	-0.062613
715.129000	-0.423736
715.329000	-0.350275
715.529000	-0.341117
715.729000	0.267516
715.928000	-0.002120
716.128000	-0.283204
716.328000	-0.220214
716.528000	-0.340284
716.728000	-0.175243
716.928000	-0.398998
717.128000	-0.250398
717.328000	-0.303738
717.527000	-0.499184
717.727000	-0.462222
717.927000	-0.361736
718.127000	-0.412958
718.327000	-0.827951
718.527000	-0.666223
718.727000	-0.292785
718.927000	-0.471246
719.127000	-0.714042
719.326000	-0.468526
719.526000	-0.066978
719.726000	-0.243035
719.926000	-0.711182
720.126000	-0.616204
720.326000	-0.387922
720.526000	-0.480374
720.726000	-0.353738
720.925000	-0.152166
721.125000	-0.618036
721.325000	-0.278299
721.525000	-0.257050
721.725000	-0.511963
721.925000	-0.469431
722.125000	-0.444731
722.325000	-0.004947
722.524000	-0.299929
722.724000	-0.752963
722.924000	-0.841235
723.124000	-0.601866
723.324000	-0.204148
723.524000	-0.101890
723.724000	-0.664543
723.924000	-0.497275
724.124000	-0.249836
724.323000	-0.030086
724.523000	-0.194276
724.723000	0.181863
724.923000	-0.080356
725.123000	-0.136302
725.323000	0.017348
725.523000	-0.181660
725.723000	-0.472717
725.922000	-0.487268
726.122000	-0.310990
726.322000	-0.477875
726.522000	-0.545953
726.722000	0.155325
726.922000	-0.170965
727.122000	-0.290072
727.322000	0.014692
727.521000	-0.138214
727.721000	-0.388023
727.921000	-0.291598
728.121000	-0.243316
728.321000	-0.689812
728.521000	-0.526374
728.721000	-0.344665
728.921000	0.054762
729.121000	0.737647
729.320000	0.043473
729.520000	-0.414172
729.720000	-0.563837
729.920000	-0.460011
730.120000	-0.197550
730.320000	-0.189399
730.520000	-0.563822
730.720000	-0.502048
730.919000	-0.458632
731.119000	-0.097797
731.319000	-0.555860
731.519000	-0.689080
731.719000	-0.286513
731.919000	-0.510080
732.119000	-1.013713
732.319000	-1.025642
732.519000	-0.384456
732.718000	-0.694565
732.918000	-0.645466
733.118000	-0.433142
733.318000	0.015283
733.518000	-0.346245
733.718000	-0.956001
733.918000	-0.935944
734.118000	-0.664765
734.317000	-0.315705
734.517000	-0.569134
734.717000	-0.515519
734.917000	0.036269
735.117000	-0.070830
735.317000	-0.171971
735.517000	0.292968
735.717000	0.521242
735.916000	-0.448299
736.116000	-0.669174
736.316000	-0.414571
736.516000	-0.297147
736.716000	-0.363498
736.916000	-0.869547
737.116000	-0.591427
737.316000	0.106852
737.516000	-0.038932
737.715000	-0.124175
737.915000	-0.678404
738.115000	-0.747758
738.315000	-0.405947
738.515000	-0.708435
738.715000	-0.497403
738.915000	0.139139
739.115000	-0.427976
739.314000	-0.578540
739.514000	-0.061215
739.714000	0.065709
739.914000	-0.077092
740.114000	-0.366873
740.314000	-0.108461
740.514000	0.356471
740.714000	-0.481707
740.913000	-0.934079
741.113000	-0.747050
741.313000	-0.329231
741.513000	-0.390014
741.713000	-0.308932
741.913000	-0.310393
742.113000	-0.414495
742.313000	-0.910786
742.513000	-0.552449
742.712000	-0.413924
742.912000	-0.720252
743.112000	-0.540255
743.312000	-0.897006
743.512000	-0.622703
743.712000	-0.357156
743.912000	-1.013145
744.112000	-1.107484
744.311000	-1.052168
744.511000	-0.677617
744.711000	-0.279140
744.911000	-0.641182
745.111000	-0.645240
745.311000	-0.182375
745.511000	-0.536097
745.711000	-0.726608
745.911000	-0.409371
746.110000	-0.836197
746.310000	-1.025996
746.510000	-0.753671
746.710000	-0.254141
746.910000	-0.151693
747.110000	-0.715896
747.310000	-0.983005
747.510000	-0.743231
747.709000	-0.366575
747.909000	-0.337391
748.109000	-0.076572
748.309000	-0.443547
748.509000	-0.750966
748.709000	-0.838325
748.909000	-0.550594
749.109000	-0.529220
749.308000	0.061884
749.508000	-0.306462
749.708000	-0.514811
749.908000	-0.016390
750.108000	-0.016439
750.308000	-0.865367
750.508000	-0.126795
750.708000	-0.654178
750.908000	-1.149531
751.107000	-0.411614
751.307000	0.260242
751.507000	-0.287757
751.707000	-0.259624
751.907000	-0.375083
752.107000	-0.355406
752.307000	-0.783962
752.507000	-0.575287
752.706000	-0.666150
752.906000	0.331320
753.106000	-0.528704
753.306000	-1.064902
753.506000	-0.006390
753.706000	-0.490150
753.906000	-0.219855
754.106000	0.007837
754.305000	-0.159795
754.505000	-0.128028
754.705000	-0.319301
754.905000	-0.359386
755.105000	-0.150747
755.305000	-0.912968
755.505000	-0.698288
755.705000	-0.238614
755.905000	-0.352086
756.104000	-0.953056
756.304000	-1.411888
756.504000	-1.590369
756.704000	-0.491943
756.904000	-0.223416
757.104000	-0.461613
757.304000	-0.432671
757.504000	0.004434
757.703000	-0.435236
757.903000	-0.106664
758.103000	0.234548
758.303000	-0.207667
758.503000	-0.506732
758.703000	-0.683702
758.903000	-0.818714
759.103000	-0.381973
759.303000	-0.338564
759.502000	-0.502263
759.702000	-0.142909
759.902000	-0.489434
760.102000	-0.524888
760.302000	-0.595450
760.502000	-0.235487
760.702000	-0.056476
760.902000	-0.366343
761.101000	-0.747065
761.301000	-1.013456
761.501000	-0.748615
761.701000	-0.796328
761.901000	-0.564358
762.101000	-0.169902
762.301000	-0.476353
762.501000	-0.938737
762.700000	-0.880658
762.900000	-0.701501
763.100000	-0.499188
763.300000	-0.293363
763.500000	-0.537056
763.703000	-0.707421
763.905000	-0.949695
764.108000	-0.184466
764.311000	-0.460438
764.513000	-0.504410
764.716000	-0.399455
764.919000	-0.439672
765.121000	-0.967812
765.324000	-1.038408
765.527000	-0.855814
765.729000	-0.663656
765.932000	0.089006
766.135000	-0.035271
766.337000	-0.348084
766.540000	-0.449811
766.743000	-0.189693
766.945000	-0.788012
767.148000	-1.191180
767.351000	-1.089668
767.553000	-0.320637
767.756000	-0.646844
767.958000	-0.944100
768.161000	-0.472052
768.364000	-0.833839
768.566000	-1.212902
768.769000	-0.673889
768.972000	-0.291237
769.174000	-0.704730
769.377000	-1.277772
769.580000	-1.350989
769.782000	-0.512913
769.985000	-0.913557
770.188000	-1.823958
770.390000	-1.024929
770.593000	0.607166
770.796000	0.210072
770.998000	-0.325759
771.201000	-0.757831
771.404000	-0.473474
771.606000	-0.732414
771.809000	-0.551027
772.012000	-0.530985
772.214000	-1.439603
772.417000	-1.410185
772.620000	-0.256064
772.822000	-0.737645
773.025000	-0.967008
773.228000	-0.964561
773.430000	-0.838369
773.633000	-0.536925
773.836000	-0.439358
774.038000	-0.282286
774.241000	-0.496655
774.444000	-0.687472
774.646000	0.241582
774.849000	-0.227479
775.052000	-0.464357
775.254000	-0.305582
775.457000	-0.671841
775.659000	-0.608612
775.862000	-0.824935
776.065000	-0.644405
776.267000	-0.081556
776.470000	0.279752
776.673000	-0.461342
776.875000	0.048981
777.078000	-0.038424
777.281000	-0.950221
777.483000	-0.271728
777.686000	-0.069601
777.889000	-0.197562
778.091000	0.053986
778.294000	-1.024267
778.497000	-1.021159
778.699000	-0.902420
778.902000	-0.758880
779.105000	-0.625630
779.307000	0.178880
779.510000	-0.752795
779.713000	-0.478147
779.915000	-0.636940
780.118000	0.423544
780.321000	0.455576
780.523000	-0.545074
780.726000	-0.987681
780.929000	-1.073062
781.131000	-0.921061
781.334000	-1.441611
781.537000	-1.395606
781.739000	-0.340570
781.942000	-0.946892
782.145000	-1.501427
782.347000	-1.396960
782.550000	-0.985104
782.753000	-1.034354
782.955000	-0.903367
783.158000	-0.782949
783.361000	-0.604608
783.563000	-0.692547
783.766000	-0.805586
783.968000	1.110427
784.171000	0.924316
784.374000	-0.362857
784.576000	-0.535265
784.779000	-0.227176
784.982000	0.150763
785.184000	-0.559248
785.387000	-0.154641
785.590000	0.387338
785.792000	0.232716
785.995000	0.019896
786.198000	-0.226810
786.400000	-0.580376
786.603000	-0.510193
786.806000	-0.565766
787.008000	-0.360949
787.211000	-0.281008
787.414000	-1.106779
787.616000	-0.798083
787.819000	-0.727591
788.022000	-1.380810
788.224000	-0.711012
788.427000	-1.414106
788.630000	-0.777131
788.832000	-0.387659
789.035000	-0.993310
789.238000	-1.558077
789.440000	-1.302541
789.643000	-0.101718
789.846000	-0.665995
790.048000	-0.352977
790.251000	-0.112114
790.454000	-0.381800
790.656000	0.306370
790.859000	-0.532205
791.062000	-1.002981
791.264000	-0.280682
791.467000	-1.175118
791.669000	-1.708597
791.872000	-0.643301
792.075000	-1.191326
792.277000	-0.887153
792.480000	-0.606021
792.683000	-1.024620
792.885000	-1.200887
793.088000	-1.155029
793.291000	-1.404819
793.493000	-1.366996
793.696000	-0.463587
793.899000	-0.166096
794.101000	-0.547154
794.304000	-0.731527
794.507000	-0.360702
794.709000	-0.182895
794.912000	-0.788894
795.115000	-1.150157
795.317000	-0.779919
795.520000	-0.556277
795.723000	-0.755401
795.925000	-1.124899
796.128000	-1.444738
796.331000	-0.981575
796.533000	-1.359131
796.736000	-0.721738
796.939000	-0.508210
797.141000	-0.862237
797.344000	-0.104326
797.547000	0.064309
797.749000	-0.104521
797.952000	-0.688671
798.155000	-1.184808
798.357000	-1.538128
798.560000	-1.289723
798.763000	-0.453721
798.965000	-0.768670
799.168000	-0.733386
799.371000	-0.380002
799.573000	-0.769002
799.776000	-1.482061
799.978000	-1.470971
800.181000	-0.562837
800.384000	0.984044
800.586000	0.246045
800.789000	-1.489778
800.992000	-1.450707
801.194000	-1.666440
801.397000	-1.577867
801.600000	-1.226921
801.802000	-0.015373
802.005000	-0.257769
802.208000	-1.567602
802.410000	-0.605973
802.613000	-0.447894
802.816000	-0.753650
803.018000	-1.339926
803.221000	-1.113858
803.424000	0.347478
803.626000	-0.010071
803.829000	-0.565787
804.032000	0.395072
804.234000	1.126339
804.437000	-0.535650
804.640000	-0.631176
804.842000	-0.734473
805.045000	-1.204431
805.248000	-0.956004
805.450000	-0.994914
805.653000	-0.772108
805.856000	-0.839924
806.058000	-0.027548
806.261000	-1.074596
806.464000	-1.069912
806.666000	-0.569832
806.869000	-0.944971
807.072000	-2.169485
807.274000	-2.310294
807.477000	-1.169365
807.679000	-0.756524
807.882000	-1.447591
808.085000	-1.239748
808.287000	-0.434459
808.490000	-1.272847
808.693000	-1.061257
808.895000	-0.802451
809.098000	-0.690513
809.301000	-0.651300
809.503000	-0.934125
809.706000	-0.004792
809.909000	0.204822
810.111000	-0.130742
810.314000	-0.557825
810.517000	-0.969424
810.719000	-1.113468
810.922000	-0.724883
811.125000	0.212530
811.327000	0.280540
811.530000	-0.559646
811.735000	-1.167518
811.940000	-1.273844
812.146000	-1.052525
812.351000	-0.501183
812.556000	-0.656457
812.761000	-1.312148
812.967000	-0.203121
813.172000	0.013610
813.377000	-0.352464
813.582000	0.100953
813.788000	-0.356404
813.993000	-1.407016
814.198000	-0.543811
814.403000	-1.338734
814.609000	-0.521725
814.814000	-0.536736
815.019000	0.336110
815.224000	0.291735
815.429000	-1.041205
815.635000	-0.693766
815.840000	-0.656219
816.045000	-0.364232
816.250000	-0.017984
816.456000	-1.407729
816.661000	-2.151011
816.866000	-1.566279
817.071000	-1.558819
817.277000	-2.357217
817.482000	-1.460633
817.687000	-0.833557
817.892000	-0.739887
818.097000	-0.261869
818.303000	0.172384
818.508000	0.717084
818.713000	2.215323
818.918000	0.667316
819.124000	0.120320
819.329000	-0.974614
819.534000	-1.030789
819.739000	-1.084150
819.945000	-1.089264
820.150000	-0.833030
820.355000	-0.645876
820.560000	-0.207092
820.766000	-0.288515
820.971000	-0.418997
821.176000	-2.051138
821.381000	-2.675458
821.586000	-1.648438
821.792000	-0.080726
821.997000	-0.614913
822.202000	-0.732042
822.407000	-1.339271
822.613000	-1.645223
822.818000	-1.020934
823.023000	-0.655633
823.228000	-0.896528
823.434000	-0.137711
823.639000	0.092004
823.844000	-0.795279
824.049000	0.050354
824.255000	0.169792
824.460000	-0.668239
824.665000	-1.057400
824.870000	-0.048162
825.075000	-0.331888
825.281000	-0.318662
825.486000	0.681173
825.691000	-1.596583
825.896000	-2.547470
826.102000	-0.781671
826.307000	-0.531506
826.512000	-0.967228
826.717000	-0.803433
826.923000	-0.922078
827.128000	-0.596146
827.333000	-1.480194
827.538000	-0.712683
827.744000	-0.005904
827.949000	-1.059278
828.154000	-0.745534
828.359000	0.053226
828.564000	-0.741470
828.770000	-0.945963
828.975000	0.278152
829.180000	-0.223950
829.385000	-1.748849
829.591000	-1.341293
829.796000	-0.764218
830.001000	-0.773274
830.206000	-1.370074
830.412000	-1.460023
830.617000	-1.303307
830.822000	-0.075153
831.027000	-0.794236
831.232000	-1.330218
831.438000	-1.308604
831.643000	-0.843388
831.848000	-1.117431
832.053000	-0.848683
832.259000	-0.935644
832.464000	-2.755291
832.669000	-2.325072
832.874000	-1.795510
833.080000	-1.732509
833.285000	0.017369
833.490000	-0.180134
833.695000	-1.461695
833.901000	-1.156960
834.106000	-1.662866
834.311000	-1.349835
834.516000	-0.707373
834.721000	-1.100264
834.927000	0.196881
835.132000	-0.471158
835.337000	1.136383
835.542000	0.059128
835.748000	-1.752366
835.953000	0.157913
836.158000	-0.113778
836.363000	-0.544686
836.569000	-0.407093
836.774000	-1.360475
836.979000	-1.797207
837.184000	-2.271253
837.390000	-1.880481
837.595000	-1.211517
837.800000	-1.003190
838.005000	-0.610019
838.210000	-0.933274
838.416000	-1.167273
838.621000	-0.905188
838.826000	-1.323605
839.031000	-1.158515
839.237000	-1.669369
839.442000	-2.149020
839.647000	-2.561465
839.852000	-1.981129
840.058000	-1.796267
840.263000	-1.603355
840.468000	-2.289802
840.673000	-1.227556
840.878000	-1.000198
841.084000	-1.766525
841.289000	-0.928917
841.494000	1.724407
841.699000	1.551013
841.905000	0.549490
842.110000	0.444134
842.315000	-1.680808
842.520000	-1.064588
842.726000	-1.556310
842.931000	-1.880902
843.136000	-0.709300
843.341000	-2.055594
843.547000	-1.217266
843.752000	-1.301249
843.957000	-2.098310
844.162000	-1.885171
844.367000	-1.321006
844.573000	-0.615630
844.778000	-0.502028
844.983000	-0.484551
845.188000	-0.355404
845.394000	-2.066303
845.599000	-1.853026
845.804000	-1.564966
846.009000	-0.820402
846.215000	-2.034572
846.420000	-1.539197
846.625000	-0.490901
846.830000	0.242642
847.036000	-1.042997
847.241000	-1.815010
847.446000	-0.056348
847.651000	-0.798044
847.856000	-2.252400
848.062000	-2.140598
848.267000	-0.086913
848.472000	-1.335974
848.677000	-2.880166
848.883000	-0.632740
849.088000	0.893605
849.293000	-0.893105
849.498000	-1.434379
849.704000	-0.380752
849.909000	-0.755399
850.114000	-2.017828
850.319000	-0.757113
850.524000	-0.852874
850.730000	-0.704184
850.935000	-1.015302
851.140000	0.032971
851.345000	-0.111261
851.551000	-0.121929
851.756000	-0.070642
851.961000	-1.581180
852.166000	-1.446520
852.372000	-0.781558
852.577000	-1.092493
852.782000	-1.397714
852.987000	0.171309
853.193000	-0.443612
853.398000	-0.602983
853.603000	-2.115157
853.808000	-2.850785
854.013000	-1.390537
854.219000	0.141667
854.424000	1.704450
854.629000	1.449066
854.834000	-1.226124
855.040000	-0.643244
855.245000	-0.379423
855.450000	-2.954306
855.655000	-4.202511
855.861000	-3.668682
856.066000	-2.379965
856.271000	-2.494775
856.476000	-0.253900
856.682000	-1.037396
856.887000	-4.063283
857.092000	-2.616781
857.297000	0.204521
857.502000	-0.234199
857.708000	-0.866419
857.913000	0.058766
858.118000	-0.716249
858.323000	-0.867058
858.529000	-0.979927
858.734000	-1.612461
858.939000	-1.410468
859.144000	-2.210450
859.350000	-2.994557
859.555000	-2.599235
859.760000	-0.474320
859.965000	0.327743
860.171000	-1.573433
860.376000	-0.548546
860.581000	-2.289376
860.786000	-4.741966
860.991000	-3.956622
861.197000	-2.686683
861.402000	-1.102465
861.607000	-1.554898
861.812000	-2.659955
862.018000	-2.778020
862.223000	-1.726624
862.428000	-0.794726
862.633000	0.401168
862.839000	-0.666322
863.044000	-1.922495
863.249000	-2.528656
863.454000	-0.719693
863.659000	-1.483042
863.865000	-2.280040
864.070000	-2.001505
864.275000	-2.512882
864.480000	-2.312770
864.686000	-4.195357
864.891000	-3.436106
865.096000	-0.989840
865.301000	-0.463125
865.507000	-0.427873
865.712000	-0.465818
865.917000	-1.564409
866.122000	-0.700022
866.328000	-3.517389
866.533000	-3.193994
866.738000	0.272504
866.943000	0.002576
867.148000	0.196893
867.354000	-1.916495
867.559000	-3.196824
867.764000	-1.624596
867.969000	-0.577691
868.175000	-2.139970
868.380000	-2.912548
868.585000	-3.735241
868.790000	-1.362476
868.996000	-1.758377
869.201000	-3.354752
869.406000	-4.215557
869.611000	-2.997308
869.817000	-2.429583
870.022000	1.958579
870.227000	-0.321823
870.432000	-2.565514
870.637000	-1.017584
870.843000	-1.707652
871.048000	-1.585269
871.253000	0.153414
871.458000	-1.043551
871.664000	-3.253080
871.869000	-3.578905
872.074000	-2.932695
872.279000	-1.799567
872.485000	-2.120524
872.690000	-2.073227
872.895000	-2.337057
873.100000	-2.850945
873.306000	-2.791775
873.511000	-1.619542
873.716000	0.103602
873.921000	-2.049402
874.126000	-2.483896
874.332000	-1.724504
874.537000	-0.682711
874.742000	-0.782292
874.947000	-1.252888
875.153000	0.798877
875.358000	-0.632326
875.563000	-1.473076
875.768000	-4.043502
875.974000	-4.566145
876.179000	-0.712801
876.384000	-0.251742
876.589000	-2.431360
876.794000	-2.070825
877.000000	-3.072439
877.205000	-4.052053
877.410000	-1.274212
877.615000	-3.260595
877.821000	-5.311000
878.026000	-3.582245
878.231000	-3.872482
878.436000	-3.925015
878.642000	-2.994240
878.847000	-1.607296
879.052000	-0.182457
879.257000	-2.242835
879.463000	-3.573498
879.668000	-2.699685
879.873000	-0.530165
880.078000	-2.984374
880.283000	-4.542926
880.489000	-4.605966
880.694000	-4.118675
880.899000	-1.977438
881.104000	-0.477923
881.310000	1.222042
881.515000	-0.573475
881.720000	0.773967
881.925000	2.376978
882.131000	3.685193
882.336000	0.279899
882.541000	-3.244154
882.746000	-3.111818
882.952000	-3.865495
883.157000	-3.693479
883.362000	-3.451221
883.567000	-3.698040
883.772000	-3.849641
883.978000	-3.233348
884.183000	-1.559837
884.388000	-2.260501
884.593000	-4.324870
884.799000	0.357244
885.004000	0.037596
885.209000	-1.518167
885.414000	-1.359622
885.620000	-3.977946
885.825000	-0.878049
886.030000	-1.462854
886.235000	-2.929793
886.440000	-2.044131
886.646000	-4.860404
886.851000	-4.726021
887.056000	-0.244317
887.261000	-0.846935
887.467000	-3.803590
887.672000	-1.268144
887.877000	-2.786864
888.082000	-5.187905
888.288000	-5.655594
888.493000	-7.496296
888.698000	-5.537439
888.903000	-2.298876
889.109000	-3.680068
889.314000	-0.233556
889.519000	-1.832263
889.724000	0.203877
889.929000	-1.563671
890.135000	-1.951624
890.340000	-1.524349
890.545000	-3.308611
890.750000	-5.289237
890.956000	-3.641517
891.161000	-0.901673
891.366000	-3.238893
891.571000	-2.262146
891.777000	-1.948227
891.982000	0.209225
892.187000	-0.371464
892.392000	0.471648
892.598000	0.041411
892.803000	-0.394980
893.008000	-3.354006
893.213000	-3.969524
893.418000	-3.978449
893.624000	-4.036708
893.829000	-6.069178
894.034000	-2.818354
894.239000	-0.960793
894.445000	-3.480103
894.650000	-3.787825
894.855000	-4.218678
895.060000	-4.695066
895.266000	-4.374773
895.471000	-5.156244
895.676000	-1.324826
895.881000	-1.099729
896.087000	-2.874041
896.292000	-3.964121
896.497000	0.522372
896.702000	-1.485375
896.907000	-3.635636
897.113000	0.802475
897.318000	0.502790
897.523000	-0.116027
897.728000	-1.743081
897.934000	-2.418037
898.139000	-2.866290
898.344000	-0.563246
898.549000	-2.135413
898.755000	-3.342327
898.960000	-3.506683
899.165000	-5.808756
899.370000	-1.893550
899.575000	1.617140
899.781000	-2.816256
899.986000	-3.480061
900.191000	-1.916033
900.396000	-2.816787
900.602000	-2.350203
900.807000	-2.959574
901.012000	-2.083916
901.217000	-0.166615
901.423000	-2.763132
901.628000	-4.352939
901.833000	0.261876
902.038000	0.112487
902.244000	-3.770914
902.449000	-3.445923
902.654000	-3.306814
902.859000	-2.314601
903.064000	0.246198
903.270000	0.048534
903.475000	-4.918972
903.680000	-6.722499
903.885000	-5.664524
904.091000	-4.844537
904.296000	-6.120126
904.501000	-4.928142
904.706000	-3.814201
904.912000	0.507046
905.117000	-1.922005
905.322000	-4.550373
905.527000	-4.091993
905.733000	-3.749236
905.938000	-3.934917
906.143000	-4.709223
906.348000	-6.895816
906.553000	-1.862791
906.759000	0.146473
906.964000	-1.443512
907.169000	-3.146819
907.374000	-5.974650
907.580000	-4.186326
907.785000	-3.454523
907.990000	22.510169
908.195000	14.794906
908.401000	-0.512189
908.606000	-7.942939
908.811000	-9.592303
909.016000	-2.415898
909.221000	-2.002276
909.427000	-3.508980
909.632000	-5.349910
909.837000	-5.007456
910.042000	-5.859801
910.248000	-7.419803
910.453000	-3.456002
910.658000	-4.334851
910.863000	-4.975495
911.069000	-6.003748
911.274000	-1.273229
911.479000	0.504025
911.684000	-6.735368
911.890000	-4.565081
912.095000	-3.962340
912.300000	-7.134055
912.506000	-5.805135
912.711000	-5.742545
912.917000	-3.019689
913.123000	-1.697727
913.328000	-2.415440
913.534000	-2.767002
913.740000	6.169911
913.946000	1.950244
914.151000	-4.922867
914.357000	-5.641706
914.563000	-1.301306
914.768000	-5.403032
914.974000	-7.131130
915.180000	-6.771554
915.385000	-4.932493
915.591000	-7.814919
915.797000	-2.522450
916.002000	0.912687
916.208000	-2.964535
916.414000	-6.088397
916.620000	-7.488104
916.825000	-3.160893
917.031000	-3.874154
917.237000	-9.628384
917.442000	-5.734813
917.648000	-7.294449
917.854000	-8.016174
918.059000	-0.633999
918.265000	0.036531
918.471000	-3.849069
918.676000	-6.858843
918.882000	-8.616129
919.088000	-6.916749
919.294000	-12.343709
919.499000	-7.999141
919.705000	-1.838875
919.911000	-3.079505
920.116000	-1.696543
920.322000	-8.125093
920.528000	-6.708734
920.733000	-9.170715
920.939000	-9.142476
921.145000	-7.408145
921.350000	-6.401699
921.556000	-4.334309
921.762000	-5.129036
921.968000	-5.244661
922.173000	-7.279215
922.379000	-9.567387
922.585000	-4.503984
922.790000	-5.926267
922.996000	-7.814907
923.202000	-9.316714
923.407000	-8.596140
923.613000	-6.232428
923.819000	-3.124958
924.024000	-3.105673
924.230000	-1.203121
924.436000	-4.255474
924.642000	5.918616
924.847000	1.106598
925.053000	-6.361773
925.259000	-10.732243
925.464000	-4.309111
925.670000	-5.927602
925.876000	-8.156695
926.081000	-7.900599
926.287000	-3.485569
926.493000	-2.247484
926.698000	-3.552966
926.904000	-2.123272
927.110000	-5.313218
927.316000	-4.528366
927.521000	2.959070
927.727000	-3.854968
927.933000	-5.930256
928.138000	-5.320031
928.344000	-11.656516
928.550000	-7.162155
928.755000	-2.477276
928.961000	-7.270694
929.167000	-6.660430
929.372000	0.460029
929.578000	-1.318181
929.784000	-5.837439
929.990000	-8.758693
930.195000	-6.258345
930.401000	-5.796463
930.607000	-3.899109
930.812000	-3.293881
931.018000	-6.666761
931.224000	-12.953506
931.429000	-9.153911
931.635000	-12.590021
931.841000	-12.050591
932.046000	-7.390786
932.252000	-2.976006
932.458000	4.099775
932.664000	-1.036481
932.869000	-6.498430
933.075000	-9.474981
933.281000	-9.516893
933.486000	-1.308891
933.692000	-4.436237
933.898000	-9.052243
934.103000	-1.564419
934.309000	-6.905347
934.515000	-4.494453
934.720000	-2.274815
934.926000	0.160272
935.132000	-0.791980
935.338000	-3.637993
935.543000	-11.193902
935.749000	-12.595830
935.955000	-13.748223
936.160000	-11.324229
936.366000	-2.907671
936.572000	-4.858659
936.777000	-2.252680
936.983000	0.841204
937.189000	-4.450953
937.394000	-10.672899
937.600000	-0.442983
937.806000	5.560452
938.012000	-4.985804
938.217000	4.285305
938.423000	0.837232
938.629000	-8.420709
938.834000	-14.776436
939.040000	-14.732214
939.246000	-10.033843
939.451000	-12.366440
939.657000	-6.980801
939.863000	-11.347285
940.068000	-3.345959
940.274000	-7.898903
940.480000	-4.383442
940.686000	-2.027672
940.891000	-6.384366
941.097000	18.330831
941.303000	5.475281
941.508000	-7.088485
941.714000	-4.701959
941.920000	-15.273474
942.125000	-4.101868
942.331000	-2.811629
942.537000	1.873001
942.742000	0.918191
942.948000	-9.865024
943.154000	-13.118800
943.360000	-23.770407
943.565000	-8.145823
943.771000	2.449804
943.977000	3.784767
944.182000	-15.397218
944.388000	-17.247273
944.594000	-2.370867
944.799000	7.608243
945.005000	-0.416401
945.211000	2.678632
945.416000	0.160858
945.622000	-13.326442
945.828000	-13.914788
946.034000	-3.599583
946.239000	-1.726541
946.445000	-8.484592
946.651000	-17.868974
946.856000	-14.938720
947.062000	-0.507691
947.268000	1.142795
947.473000	-15.007290
947.679000	-20.187247
947.885000	-6.079547
948.090000	-0.597891
948.296000	12.019781
948.502000	-0.599249
948.708000	-9.749199
948.913000	-12.295957
949.119000	-0.062711
949.325000	-7.043829
949.530000	-23.217482
949.736000	-28.534741
949.942000	-16.268435
950.147000	-15.052661
950.353000	-12.668241
950.559000	-8.861082
950.764000	15.262567
950.970000	7.928612
951.176000	-8.789057
951.382000	-16.703460
951.587000	-6.896288
951.793000	-0.480464
951.999000	1.649549
952.204000	-10.785657
952.410000	-23.111652
952.616000	-10.849594
952.821000	-5.615071
953.027000	-14.781530
953.233000	-18.958801
953.438000	-18.173314
953.644000	-0.067032
953.850000	-5.684751
954.056000	-11.083086
954.261000	-10.810925
954.467000	-0.410205
954.673000	5.816140
954.878000	-6.144191
955.084000	-7.694011
955.290000	-24.069756
955.495000	-23.363622
955.701000	-19.945467
955.907000	-0.157720
956.112000	-3.487719
956.318000	5.402188
956.524000	7.309324
956.730000	-7.745536
956.935000	-12.244179
957.141000	-16.605792
957.347000	-3.229339
957.552000	-7.461164
957.758000	-22.254590
957.964000	-31.862817
958.169000	4.777879
958.375000	4.333610
958.581000	-10.776230
958.786000	-25.662571
958.992000	-30.670787
959.198000	-10.073599
959.404000	-2.330884
959.609000	-12.727345
959.815000	-17.912318
960.021000	-1.129346
960.226000	-7.222284
960.432000	-29.807313
960.638000	-20.135862
960.843000	-12.410010
961.049000	-13.267440
961.255000	-0.574313
961.460000	-16.036974
961.666000	-35.564273
961.872000	-21.007957
962.078000	-18.153048
962.283000	-25.838435
962.489000	-27.149285
962.695000	-17.854481
962.900000	-15.151162
963.106000	-15.625957
963.312000	-16.773693
963.517000	-21.223035
963.723000	-24.896805
963.929000	-0.830223
964.134000	8.413459
964.340000	-16.735853
964.546000	-20.112718
964.752000	-24.927921
964.957000	-30.197719
965.163000	-3.189989
965.369000	-6.598383
965.574000	-4.852525
965.780000	-9.055015
966.000000	-17.693243
966.220000	-14.600272
966.440000	-14.103291
966.661000	-2.172194
966.881000	-21.417828
967.101000	-39.418657
967.321000	-38.751594
967.541000	-11.718621
967.761000	-19.456229
967.981000	-12.439668
968.202000	-10.546179
968.422000	1.122286
968.642000	-1.678251
968.862000	-4.072253
969.082000	-12.856720
969.302000	-5.397932
969.522000	-10.001742
969.743000	5.463042
969.963000	-12.228115
970.183000	-24.584975
970.403000	-25.918432
970.623000	-24.840824
970.843000	-0.365412
971.063000	-2.226308
971.284000	-23.704898
971.504000	-36.208284
971.724000	-14.735220
971.944000	-28.891315
972.164000	-37.591115
972.384000	-30.501993
972.604000	-45.177339
972.825000	-47.445848
973.045000	-34.720012
973.265000	20.702737
973.485000	9.626214
973.705000	-8.182062
973.925000	-12.546496
974.145000	-50.163171
974.365000	-15.246285
974.586000	-13.829188
974.806000	-35.723085
975.026000	-3.297182
975.246000	-16.749899
975.466000	-28.561124
975.686000	-12.915683
975.906000	-25.435038
976.127000	-46.991856
976.347000	-37.042598
976.567000	-8.617601
976.787000	-10.852570
977.007000	-21.921794
977.227000	-30.734963
977.447000	-31.579263
977.668000	-49.678878
977.888000	-33.408657
978.108000	-34.575215
978.328000	-24.253083
978.548000	3.713692
978.768000	9.406172
978.988000	-3.702769
979.209000	-18.748753
979.429000	-24.203514
979.649000	-7.108704
979.869000	-26.864271
980.089000	-43.028187
980.309000	-50.364536
980.529000	-57.875056
980.750000	-33.653074
980.970000	-43.218581
981.190000	-29.417199
981.410000	-32.732172
981.630000	-38.416376
981.850000	-23.947822
982.070000	-18.409251
982.291000	-45.591232
982.511000	-47.514174
982.731000	-10.360842
982.951000	-29.277669
983.171000	-35.917996
983.391000	-30.794739
983.611000	-0.786312
983.832000	-28.288568
984.052000	-52.898153
984.272000	-31.730362
984.492000	-21.204365
984.712000	-34.053655
984.932000	-59.834856
985.152000	-65.493060
985.373000	-51.742336
985.593000	-25.438113
985.813000	-26.618089
986.033000	-36.961771
986.253000	1.697155
986.473000	6.769094
986.693000	-25.109852
986.914000	-35.700650
987.134000	8.743469
987.354000	-27.963071
987.574000	181.959825
987.794000	104.377275
988.014000	-41.388832
988.234000	-19.839944
988.455000	-6.209937
988.675000	-11.223356
988.895000	-26.811818
989.115000	-43.349946
989.335000	-29.331192
989.555000	-7.412931
989.775000	-45.601322
989.995000	-34.073490
990.216000	-24.642056
990.436000	-21.522652
990.656000	11.901603
990.876000	-27.722925
991.096000	-20.122230
991.316000	8.053933
991.536000	-21.276397
991.757000	-31.736689
991.977000	-79.435727
992.197000	-18.858092
992.417000	-35.248795
992.637000	-87.822000
992.857000	-91.976737
993.077000	-88.204496
993.298000	-42.482939
993.518000	-37.713590
993.738000	-99.550736
993.958000	-50.291965
994.178000	-53.071898
994.398000	-41.440464
994.618000	-80.803083
994.839000	-132.440014
995.059000	-43.890066
995.279000	26.888697
995.499000	-11.603605
995.719000	-6.609459
995.939000	-35.161283
996.159000	-33.411725
996.380000	-21.806809
996.600000	-72.654387
996.820000	-42.524586
997.040000	6.979273
997.260000	-58.666515
997.480000	-43.032036
997.700000	-106.210431
997.921000	-63.945102
998.141000	26.778510
998.361000	-12.818616
998.581000	-57.315988
998.801000	-87.975573
999.021000	-60.485133
999.241000	-36.106687
999.462000	-72.270345
999.682000	-119.549198
999.902000	-71.346035
1000.122000	-82.645840
1000.342000	-131.794866
1000.562000	-55.336375
1000.782000	-60.396605
1001.003000	-1046.084883
