Wavelength	Irradiance
(nm)	(mW/cm2/nm)

294.396000	0.000000
294.577000	0.000000
294.757000	-0.000000
294.938000	-0.000000
295.118000	0.000000
295.299000	0.000000
295.479000	-0.000000
295.660000	-0.000000
295.840000	-0.000000
296.021000	-0.000000
296.202000	-0.000000
296.382000	-0.000000
296.563000	-0.000000
296.743000	-0.000000
296.924000	-0.000000
297.104000	-0.000000
297.285000	-0.000000
297.465000	-0.000000
297.646000	-0.000000
297.826000	-0.000000
298.007000	0.000000
298.187000	-0.000000
298.368000	-0.000000
298.548000	-0.000000
298.729000	0.000000
298.909000	-0.000000
299.090000	-0.000000
299.270000	-0.000000
299.451000	-0.000000
299.631000	-0.000000
299.812000	-0.000000
299.992000	-0.000000
300.173000	0.000000
300.353000	-0.000000
300.534000	-0.000000
300.714000	0.000000
300.895000	0.000000
301.075000	-0.000000
301.256000	0.000000
301.436000	-0.000000
301.617000	-0.000000
301.797000	-0.000000
301.978000	-0.000000
302.159000	-0.000000
302.339000	0.000000
302.520000	-0.000000
302.700000	-0.000000
302.881000	0.000000
303.061000	0.000000
303.242000	0.000000
303.422000	0.000000
303.603000	-0.000000
303.783000	-0.000000
303.964000	-0.000000
304.144000	-0.000000
304.325000	-0.000000
304.505000	-0.000000
304.686000	-0.000000
304.866000	-0.000000
305.047000	-0.000000
305.227000	-0.000000
305.408000	-0.000000
305.588000	-0.000000
305.769000	-0.000000
305.949000	-0.000000
306.130000	-0.000000
306.310000	-0.000000
306.491000	-0.000000
306.671000	-0.000000
306.852000	-0.000000
307.032000	-0.000000
307.213000	-0.000000
307.393000	-0.000000
307.574000	0.000000
307.755000	0.000000
307.935000	-0.000000
308.116000	-0.000000
308.296000	-0.000000
308.477000	-0.000000
308.657000	0.000000
308.838000	0.000000
309.018000	0.000000
309.199000	-0.000000
309.379000	-0.000000
309.560000	0.000000
309.740000	-0.000000
309.921000	-0.000000
310.101000	-0.000000
310.282000	-0.000000
310.462000	-0.000000
310.643000	-0.000000
310.823000	-0.000000
311.004000	-0.000000
311.184000	-0.000000
311.365000	0.000000
311.545000	0.000000
311.726000	-0.000000
311.906000	-0.000000
312.087000	0.000000
312.267000	-0.000000
312.448000	-0.000000
312.628000	-0.000000
312.809000	-0.000000
312.989000	-0.000000
313.170000	-0.000000
313.344000	-0.000000
313.518000	-0.000000
313.691000	-0.000000
313.865000	-0.000000
314.039000	-0.000000
314.213000	-0.000000
314.387000	-0.000000
314.560000	-0.000000
314.734000	-0.000000
314.908000	-0.000000
315.082000	-0.000000
315.255000	-0.000000
315.429000	0.000000
315.603000	0.000000
315.777000	-0.000000
315.951000	-0.000000
316.124000	-0.000000
316.298000	-0.000000
316.472000	-0.000000
316.646000	-0.000000
316.820000	-0.000000
316.993000	-0.000000
317.167000	-0.000000
317.341000	-0.000000
317.515000	-0.000000
317.688000	-0.000000
317.862000	-0.000000
318.036000	-0.000000
318.210000	-0.000000
318.384000	-0.000000
318.557000	-0.000000
318.731000	-0.000000
318.905000	-0.000000
319.079000	0.000000
319.253000	-0.000000
319.426000	0.000000
319.600000	0.000000
319.774000	-0.000000
319.948000	-0.000000
320.122000	0.000000
320.295000	0.000000
320.469000	-0.000000
320.643000	-0.000000
320.817000	-0.000000
320.990000	-0.000000
321.164000	-0.000000
321.338000	-0.000000
321.512000	-0.000000
321.686000	-0.000000
321.859000	-0.000000
322.033000	0.000000
322.207000	-0.000000
322.381000	-0.000000
322.555000	0.000000
322.728000	-0.000000
322.902000	-0.000000
323.076000	-0.000000
323.250000	-0.000000
323.423000	-0.000000
323.597000	-0.000000
323.771000	-0.000000
323.945000	-0.000000
324.119000	-0.000000
324.292000	-0.000000
324.466000	-0.000000
324.640000	-0.000000
324.814000	0.000000
324.988000	-0.000000
325.161000	-0.000000
325.335000	-0.000000
325.509000	-0.000000
325.683000	-0.000000
325.856000	-0.000000
326.030000	-0.000000
326.204000	-0.000000
326.378000	-0.000000
326.552000	-0.000000
326.725000	-0.000000
326.899000	-0.000000
327.073000	-0.000000
327.247000	-0.000000
327.421000	0.000000
327.594000	-0.000000
327.768000	-0.000000
327.942000	-0.000000
328.116000	-0.000000
328.289000	-0.000000
328.463000	-0.000000
328.637000	0.000000
328.811000	-0.000000
328.985000	-0.000000
329.158000	-0.000000
329.332000	-0.000000
329.506000	-0.000000
329.680000	-0.000000
329.854000	-0.000000
330.027000	0.000000
330.201000	0.000000
330.375000	0.000000
330.549000	0.000000
330.723000	-0.000000
330.896000	-0.000000
331.070000	-0.000000
331.244000	-0.000000
331.418000	-0.000000
331.591000	-0.000000
331.765000	-0.000000
331.939000	-0.000000
332.113000	-0.000000
332.287000	-0.000000
332.460000	0.000000
332.634000	0.000000
332.808000	-0.000000
332.982000	-0.000000
333.156000	-0.000000
333.329000	-0.000000
333.503000	-0.000000
333.677000	-0.000000
333.851000	-0.000000
334.024000	-0.000000
334.198000	-0.000000
334.372000	-0.000000
334.546000	-0.000000
334.720000	-0.000000
334.893000	-0.000000
335.067000	-0.000000
335.241000	-0.000000
335.415000	-0.000000
335.589000	-0.000000
335.762000	-0.000000
335.936000	-0.000000
336.110000	-0.000000
336.284000	-0.000000
336.458000	-0.000000
336.631000	-0.000000
336.805000	-0.000000
336.979000	-0.000000
337.153000	-0.000000
337.326000	-0.000000
337.500000	-0.000000
337.674000	-0.000000
337.848000	-0.000000
338.022000	-0.000000
338.195000	-0.000000
338.369000	-0.000000
338.543000	-0.000000
338.717000	-0.000000
338.891000	-0.000000
339.064000	0.000000
339.238000	-0.000000
339.412000	-0.000000
339.586000	-0.000000
339.759000	-0.000000
339.933000	-0.000000
340.107000	-0.000000
340.281000	-0.000000
340.455000	-0.000000
340.628000	-0.000000
340.802000	-0.000000
340.976000	-0.000000
341.150000	-0.000000
341.324000	-0.000000
341.497000	-0.000000
341.671000	-0.000000
341.845000	-0.000000
342.019000	-0.000000
342.192000	-0.000000
342.366000	-0.000000
342.540000	-0.000000
342.714000	-0.000000
342.888000	-0.000000
343.061000	-0.000000
343.235000	-0.000000
343.409000	-0.000000
343.583000	-0.000000
343.757000	-0.000000
343.930000	-0.000000
344.104000	-0.000000
344.278000	0.000000
344.452000	0.000000
344.626000	-0.000000
344.799000	-0.000000
344.973000	-0.000000
345.147000	-0.000000
345.321000	-0.000000
345.494000	-0.000000
345.668000	0.000000
345.842000	0.000000
346.016000	-0.000000
346.190000	0.000000
346.363000	-0.000000
346.537000	-0.000000
346.711000	-0.000000
346.885000	-0.000000
347.059000	-0.000000
347.232000	-0.000000
347.406000	0.000000
347.580000	-0.000000
347.754000	-0.000000
347.927000	0.000000
348.101000	0.000000
348.275000	-0.000000
348.449000	-0.000000
348.623000	-0.000000
348.796000	-0.000000
348.970000	0.000000
349.144000	-0.000000
349.318000	-0.000000
349.492000	-0.000000
349.665000	-0.000000
349.839000	-0.000000
350.013000	-0.000000
350.187000	-0.000000
350.361000	-0.000000
350.534000	-0.000000
350.708000	-0.000000
350.882000	-0.000000
351.056000	0.000000
351.229000	-0.000000
351.403000	-0.000000
351.577000	-0.000000
351.751000	-0.000000
351.925000	-0.000000
352.098000	-0.000000
352.272000	-0.000000
352.446000	-0.000000
352.620000	-0.000000
352.794000	-0.000000
352.967000	-0.000000
353.141000	0.000000
353.315000	0.000000
353.489000	-0.000000
353.662000	-0.000000
353.836000	-0.000000
354.010000	-0.000000
354.184000	-0.000000
354.358000	-0.000000
354.531000	-0.000000
354.705000	-0.000000
354.879000	-0.000000
355.053000	-0.000000
355.227000	-0.000000
355.400000	-0.000000
355.574000	0.000000
355.748000	0.000000
355.922000	-0.000000
356.095000	-0.000000
356.269000	-0.000000
356.443000	-0.000000
356.617000	-0.000000
356.791000	-0.000000
356.964000	-0.000000
357.138000	-0.000000
357.312000	-0.000000
357.486000	-0.000000
357.660000	-0.000000
357.833000	-0.000000
358.007000	-0.000000
358.181000	-0.000000
358.355000	-0.000000
358.529000	-0.000000
358.702000	-0.000000
358.876000	-0.000000
359.050000	-0.000000
359.224000	-0.000000
359.397000	-0.000000
359.571000	-0.000000
359.745000	-0.000000
359.919000	-0.000000
360.093000	-0.234754
360.266000	-0.134599
360.440000	0.093632
360.614000	0.107588
360.788000	-0.145003
360.962000	-0.392745
361.135000	-0.150995
361.309000	-0.297507
361.483000	-0.284394
361.657000	-0.251199
361.830000	-0.314412
362.004000	-0.163241
362.178000	-0.505795
362.352000	-0.345469
362.526000	-0.101556
362.699000	-0.120779
362.873000	-0.516223
363.047000	-0.611319
363.221000	-0.557975
363.395000	-0.310535
363.568000	-0.344849
363.742000	-0.359814
363.916000	-0.287590
364.090000	-0.418625
364.263000	-0.284829
364.437000	-0.427473
364.611000	-0.169299
364.785000	-0.158245
364.959000	-0.296974
365.132000	-0.247399
365.306000	-0.350325
365.480000	-0.135376
365.656000	-0.298929
365.831000	-0.381142
366.007000	-0.221904
366.183000	-0.147139
366.358000	-0.300325
366.534000	-0.245598
366.710000	-0.441518
366.886000	-0.319194
367.061000	-0.133307
367.237000	-0.097143
367.413000	-0.188958
367.588000	-0.351613
367.764000	-0.320161
367.940000	-0.410836
368.115000	-0.291422
368.291000	-0.306159
368.467000	-0.232227
368.643000	0.065726
368.818000	-0.251267
368.994000	-0.534823
369.170000	-0.566582
369.345000	-0.448681
369.521000	-0.553426
369.697000	-0.369832
369.872000	-0.335837
370.048000	-0.492045
370.224000	-0.357051
370.399000	-0.505093
370.575000	-0.455315
370.751000	-0.564708
370.927000	-0.688122
371.102000	-0.566501
371.278000	-0.340583
371.454000	-0.313136
371.629000	-0.079777
371.805000	-0.153496
371.981000	-0.177719
372.156000	0.068217
372.332000	0.066775
372.508000	-0.072374
372.683000	-0.042579
372.859000	-0.153785
373.035000	-0.170382
373.211000	0.263945
373.386000	-0.095753
373.562000	-0.460602
373.738000	-0.533915
373.913000	-0.717785
374.089000	-0.600776
374.265000	-0.125423
374.440000	0.009038
374.616000	0.054112
374.792000	-0.247128
374.968000	0.206482
375.143000	-0.079605
375.319000	-0.454119
375.495000	-0.499524
375.670000	-0.351074
375.846000	-0.168887
376.022000	-0.365257
376.197000	-0.362249
376.373000	-0.567913
376.549000	-0.493218
376.724000	-0.499353
376.900000	-0.332558
377.076000	-0.260823
377.252000	-0.005714
377.427000	0.116431
377.603000	-0.449626
377.779000	-0.391567
377.954000	-0.557635
378.130000	-0.341795
378.306000	-0.114075
378.481000	-0.199890
378.657000	-0.327638
378.833000	-0.427069
379.009000	-0.208571
379.184000	-0.077860
379.360000	-0.127201
379.536000	-0.257952
379.711000	-0.320840
379.887000	-0.467690
380.063000	-0.269923
380.238000	-0.307778
380.414000	-0.248823
380.590000	-0.583327
380.765000	-0.581522
380.941000	-0.283244
381.117000	-0.140012
381.293000	-0.301944
381.468000	-0.431128
381.644000	-0.303034
381.820000	-0.239521
381.995000	-0.084439
382.171000	0.130852
382.347000	0.094789
382.522000	-0.469855
382.698000	-0.041207
382.874000	0.072360
383.050000	-0.405616
383.225000	-0.012833
383.401000	0.180257
383.577000	-0.157044
383.752000	-0.302378
383.928000	-0.407434
384.104000	-0.367064
384.279000	-0.432440
384.455000	-0.202382
384.631000	-0.244902
384.806000	-0.334912
384.982000	-0.174732
385.158000	-0.353903
385.334000	-0.173545
385.509000	-0.349942
385.685000	-0.705192
385.861000	-0.419732
386.036000	-0.505467
386.212000	-0.746581
386.388000	-0.382536
386.563000	-0.305169
386.739000	-0.463299
386.915000	-0.764763
387.090000	-0.282030
387.266000	-0.146880
387.442000	-0.160852
387.618000	-0.243570
387.793000	-0.499800
387.969000	-0.591268
388.145000	-0.434792
388.320000	-0.413990
388.496000	-0.373220
388.672000	-0.674225
388.847000	-0.249363
389.023000	-0.180866
389.199000	-0.505967
389.375000	-0.276467
389.550000	-0.308839
389.726000	-0.171398
389.902000	-0.417733
390.077000	-0.476974
390.253000	-0.373991
390.429000	-0.383178
390.604000	-0.241648
390.780000	-0.302631
390.956000	-0.485404
391.131000	-0.388676
391.307000	0.083542
391.483000	-0.190294
391.659000	-0.458750
391.834000	-0.162745
392.010000	-0.285442
392.186000	-0.463474
392.361000	-0.416520
392.537000	-0.541424
392.713000	-0.113147
392.888000	0.237423
393.064000	-0.079876
393.240000	-0.478045
393.416000	-0.548921
393.591000	-0.478537
393.767000	-0.452934
393.943000	-0.487422
394.118000	-0.025301
394.294000	0.141060
394.470000	-0.051766
394.645000	0.027785
394.821000	0.161026
394.997000	-0.276402
395.172000	-0.169702
395.348000	-0.341391
395.524000	-0.699004
395.700000	-0.416682
395.875000	-0.103164
396.051000	-0.070425
396.227000	-0.156352
396.402000	-0.315686
396.578000	-0.242417
396.754000	-0.476963
396.929000	-0.507444
397.105000	-0.148489
397.281000	-0.128910
397.457000	-0.297318
397.632000	-0.268492
397.808000	-0.541696
397.984000	-0.737765
398.159000	-0.641646
398.335000	-0.342147
398.511000	0.137124
398.686000	-0.147318
398.862000	-0.390195
399.038000	-0.606829
399.213000	-0.304535
399.389000	-0.595550
399.565000	-0.197106
399.741000	-0.107392
399.916000	-0.205241
400.092000	0.258188
400.268000	-0.247146
400.443000	-0.482138
400.619000	-0.018014
400.795000	-0.153684
400.970000	-0.355551
401.146000	-0.337752
401.322000	-0.043792
401.497000	0.361664
401.673000	-0.121607
401.849000	-0.391980
402.025000	-0.101432
402.200000	-0.165179
402.376000	-0.357090
402.552000	0.020563
402.727000	-0.165013
402.903000	-0.451874
403.079000	-0.381924
403.254000	-0.107389
403.430000	-0.189216
403.606000	-0.265848
403.782000	-0.214699
403.957000	-0.470112
404.133000	-0.662923
404.309000	-0.337107
404.484000	-0.170496
404.660000	-0.215629
404.841000	-0.400882
405.023000	-0.087610
405.204000	-0.145175
405.385000	-0.548819
405.566000	-0.546352
405.748000	-0.391196
405.929000	-0.166829
406.110000	-0.126552
406.292000	-0.416364
406.473000	-0.252465
406.654000	-0.407922
406.835000	-0.291833
407.017000	-0.303427
407.198000	-0.287488
407.379000	-0.299215
407.560000	-0.381782
407.742000	-0.416384
407.923000	-0.405968
408.104000	-0.511700
408.286000	-0.390582
408.467000	-0.282439
408.648000	-0.466706
408.829000	-0.610003
409.011000	-0.339454
409.192000	-0.492797
409.373000	-0.365621
409.555000	-0.201190
409.736000	-0.199841
409.917000	-0.452890
410.098000	-0.387234
410.280000	-0.166711
410.461000	-0.122948
410.642000	-0.210269
410.823000	0.032337
411.005000	-0.054794
411.186000	-0.291601
411.367000	-0.273144
411.549000	-0.216862
411.730000	-0.092203
411.911000	-0.011195
412.092000	-0.259195
412.274000	-0.232626
412.455000	-0.177606
412.636000	-0.146905
412.818000	-0.404536
412.999000	-0.560566
413.180000	-0.404227
413.361000	-0.374901
413.543000	-0.409698
413.724000	-0.494294
413.905000	-0.518780
414.087000	-0.575039
414.268000	-0.441407
414.449000	-0.399710
414.630000	-0.590310
414.812000	-0.710830
414.993000	-0.270306
415.174000	-0.113486
415.355000	-0.235662
415.537000	-0.500682
415.718000	-0.234860
415.899000	-0.240196
416.081000	-0.533710
416.262000	-0.316689
416.443000	-0.393672
416.624000	-0.416638
416.806000	-0.303810
416.987000	-0.137009
417.168000	-0.291492
417.350000	-0.500436
417.531000	-0.538979
417.712000	-0.372744
417.893000	-0.147144
418.075000	-0.122949
418.256000	-0.324863
418.437000	-0.290459
418.618000	-0.153009
418.800000	-0.170533
418.981000	-0.487847
419.162000	-0.314942
419.344000	-0.057745
419.525000	-0.099527
419.706000	-0.253837
419.887000	-0.170463
420.069000	0.007095
420.250000	-0.087484
420.431000	-0.258276
420.613000	-0.389842
420.794000	-0.449939
420.975000	-0.128064
421.156000	-0.375517
421.338000	-0.345806
421.519000	-0.239898
421.700000	-0.329069
421.882000	-0.441039
422.063000	-0.198804
422.244000	0.176732
422.425000	-0.004700
422.607000	-0.248120
422.788000	-0.306053
422.969000	-0.503431
423.150000	-0.521637
423.332000	-0.525991
423.513000	-0.269123
423.694000	-0.270536
423.876000	-0.257938
424.057000	-0.140180
424.238000	-0.105234
424.419000	0.013044
424.601000	-0.182598
424.782000	-0.229794
424.963000	-0.034066
425.145000	-0.110721
425.326000	-0.186479
425.507000	-0.086661
425.688000	-0.175381
425.870000	-0.311980
426.051000	-0.362660
426.232000	-0.438912
426.413000	-0.471005
426.595000	-0.368725
426.776000	-0.350949
426.957000	-0.393721
427.139000	-0.321627
427.320000	-0.317154
427.501000	-0.229619
427.682000	-0.257943
427.864000	-0.210711
428.045000	-0.016528
428.226000	-0.016587
428.408000	-0.436780
428.589000	-0.340631
428.770000	-0.210500
428.951000	-0.315802
429.133000	-0.496285
429.314000	-0.285197
429.495000	-0.371622
429.677000	-0.314484
429.858000	-0.256307
430.039000	-0.157011
430.220000	-0.133600
430.402000	-0.144865
430.583000	-0.467229
430.764000	-0.471201
430.945000	-0.203338
431.127000	-0.091661
431.308000	-0.310681
431.489000	-0.103360
431.671000	0.047810
431.852000	-0.097298
432.033000	-0.236320
432.214000	-0.108679
432.396000	-0.125689
432.577000	-0.218419
432.758000	-0.450742
432.940000	-0.386599
433.121000	-0.328377
433.302000	-0.350338
433.483000	-0.119615
433.665000	-0.044880
433.846000	-0.044871
434.027000	-0.221806
434.208000	-0.312862
434.390000	-0.245253
434.571000	0.092869
434.752000	0.422223
434.934000	0.097338
435.115000	-0.186085
435.296000	-0.015880
435.477000	-0.128931
435.659000	-0.474487
435.840000	-0.318788
436.026000	-0.245099
436.211000	-0.345445
436.397000	-0.655976
436.582000	-0.500078
436.768000	-0.277098
436.953000	-0.365629
437.139000	-0.337110
437.325000	0.061826
437.510000	0.006623
437.696000	0.138721
437.881000	0.105525
438.067000	-0.370502
438.252000	-0.288748
438.438000	-0.294009
438.624000	-0.386929
438.809000	-0.189410
438.995000	-0.129387
439.180000	-0.237382
439.366000	-0.394141
439.551000	-0.371987
439.737000	-0.209359
439.923000	-0.036740
440.108000	-0.279502
440.294000	-0.240992
440.479000	-0.057890
440.665000	-0.068165
440.850000	-0.126040
441.036000	-0.078557
441.222000	-0.153514
441.407000	-0.232673
441.593000	-0.231671
441.778000	-0.104486
441.964000	-0.004240
442.149000	-0.294594
442.335000	-0.319378
442.521000	-0.156364
442.706000	-0.030310
442.892000	-0.191897
443.077000	-0.375662
443.263000	-0.176109
443.448000	-0.216811
443.634000	-0.284441
443.820000	0.026819
444.005000	0.057726
444.191000	-0.246880
444.376000	-0.240579
444.562000	0.123641
444.747000	0.052385
444.933000	-0.106520
445.119000	-0.131808
445.304000	-0.238650
445.490000	-0.152022
445.675000	-0.039772
445.861000	-0.331297
446.046000	-0.371385
446.232000	-0.172191
446.418000	-0.039692
446.603000	-0.110922
446.789000	-0.222622
446.974000	-0.141726
447.160000	-0.319006
447.345000	-0.281960
447.531000	-0.322103
447.717000	-0.105654
447.902000	0.006121
448.088000	-0.044623
448.273000	-0.226006
448.459000	-0.185126
448.644000	-0.205359
448.830000	-0.322325
449.016000	-0.498733
449.201000	-0.281274
449.387000	-0.145500
449.572000	-0.104769
449.758000	-0.190273
449.943000	-0.366975
450.129000	-0.395636
450.315000	-0.374847
450.500000	-0.350094
450.686000	-0.340687
450.871000	-0.376222
451.057000	-0.169713
451.243000	-0.164502
451.428000	-0.114503
451.614000	-0.134272
451.799000	-0.194278
451.985000	-0.039039
452.170000	0.031001
452.356000	-0.263822
452.542000	-0.249130
452.727000	-0.053858
452.913000	-0.183820
453.098000	-0.018979
453.284000	0.230662
453.469000	-0.073979
453.655000	-0.013972
453.841000	-0.033878
454.026000	-0.256943
454.212000	-0.251261
454.397000	-0.177308
454.583000	-0.348715
454.768000	-0.386564
454.954000	-0.147175
455.140000	-0.151855
455.325000	-0.308920
455.511000	-0.389508
455.696000	-0.359884
455.882000	-0.196309
456.067000	0.050334
456.253000	-0.132260
456.439000	-0.270402
456.624000	-0.338366
456.810000	-0.376672
456.995000	-0.318246
457.181000	-0.381083
457.366000	-0.174465
457.552000	-0.096096
457.738000	0.020361
457.923000	-0.115583
458.109000	0.137367
458.294000	0.093433
458.480000	-0.028259
458.665000	-0.139905
458.851000	-0.207548
459.037000	-0.331409
459.222000	-0.105018
459.408000	-0.158013
459.593000	-0.267517
459.779000	0.015292
459.964000	0.149363
460.150000	0.274317
460.336000	0.192594
460.521000	-0.027595
460.707000	-0.193665
460.892000	-0.382788
461.078000	-0.084525
461.263000	0.010400
461.449000	-0.188820
461.635000	-0.174400
461.820000	-0.107836
462.006000	0.005651
462.191000	-0.022523
462.377000	-0.218949
462.562000	0.010325
462.748000	0.291184
462.934000	-0.088115
463.119000	-0.320976
463.305000	-0.124498
463.490000	-0.114649
463.676000	-0.087132
463.861000	-0.189923
464.047000	-0.198603
464.233000	-0.174249
464.418000	-0.174060
464.604000	-0.329899
464.789000	-0.150817
464.975000	-0.008250
465.160000	-0.035811
465.346000	-0.072500
465.532000	-0.224249
465.717000	-0.352344
465.903000	-0.054050
466.088000	-0.044833
466.274000	-0.117429
466.459000	-0.149463
466.645000	0.178873
466.831000	0.132406
467.016000	0.141243
467.202000	-0.030922
467.387000	-0.194077
467.573000	-0.328781
467.758000	0.018888
467.944000	-0.080013
468.130000	-0.211458
468.315000	-0.107594
468.501000	0.077480
468.686000	0.122229
468.872000	0.023375
469.057000	0.027863
469.243000	-0.026102
469.429000	-0.071052
469.614000	-0.124717
469.800000	-0.272771
469.985000	-0.110915
470.171000	0.036537
470.356000	0.000894
470.542000	0.036813
470.728000	0.032212
470.913000	0.032052
471.099000	0.112105
471.284000	0.009857
471.470000	-0.021537
471.655000	-0.039490
471.841000	-0.016998
472.027000	-0.052502
472.212000	0.161203
472.398000	0.197474
472.583000	0.036675
472.769000	0.072590
472.954000	0.121690
473.140000	-0.048111
473.326000	-0.101699
473.511000	0.227912
473.697000	0.196984
473.882000	0.081445
474.068000	0.045732
474.253000	-0.124108
474.439000	-0.075120
474.625000	0.094621
474.810000	0.152752
474.996000	0.166151
475.181000	-0.025810
475.367000	0.152345
475.552000	0.341369
475.738000	0.040983
475.924000	0.072328
476.109000	0.179409
476.295000	0.027685
476.480000	0.050063
476.666000	0.027671
476.851000	0.081185
477.037000	0.211648
477.223000	0.179551
477.408000	0.054506
477.594000	-0.070523
477.779000	0.152964
477.965000	0.130646
478.151000	-0.043838
478.336000	0.085966
478.522000	0.050027
478.707000	0.018758
478.893000	0.126208
479.078000	-0.003589
479.264000	0.135528
479.450000	0.220883
479.635000	0.278868
479.821000	0.220971
480.006000	0.391342
480.192000	0.350619
480.377000	0.378342
480.563000	0.364504
480.749000	0.203033
480.934000	0.157945
481.120000	0.291484
481.305000	0.420551
481.491000	0.404333
481.676000	0.432200
481.862000	0.509751
482.048000	0.381594
482.233000	0.412456
482.419000	0.386487
482.604000	0.382395
482.790000	0.481146
482.975000	0.463622
483.161000	0.583169
483.347000	0.591177
483.532000	0.519732
483.718000	0.319511
483.903000	0.499714
484.089000	0.547821
484.274000	0.381349
484.460000	0.498722
484.646000	0.507734
484.831000	0.521565
485.017000	0.600470
485.202000	0.563602
485.388000	0.799769
485.573000	0.838281
485.759000	0.693042
485.945000	0.992435
486.130000	0.808699
486.316000	0.755434
486.501000	0.900383
486.687000	0.707907
486.872000	0.503817
487.058000	0.749103
487.244000	0.950105
487.429000	0.831818
487.615000	0.983076
487.800000	1.067339
487.986000	1.027864
488.171000	1.234338
488.357000	1.194789
488.543000	1.141974
488.728000	1.204046
488.914000	1.173957
489.099000	1.093917
489.285000	1.128370
489.470000	1.323246
489.656000	1.398974
489.842000	1.358570
490.027000	1.428684
490.213000	1.299858
490.398000	1.066326
490.584000	1.311657
490.769000	1.455840
490.955000	1.540564
491.141000	1.511052
491.326000	1.501428
491.512000	1.760824
491.697000	1.718288
491.883000	1.524240
492.068000	1.628307
492.254000	1.691913
492.440000	1.790575
492.625000	1.746368
492.811000	1.742838
492.996000	1.916987
493.182000	2.005306
493.367000	1.843146
493.553000	1.761847
493.739000	1.982755
493.924000	2.088321
494.110000	2.201840
494.295000	2.139543
494.481000	2.197854
494.666000	2.276555
494.852000	2.495417
495.038000	2.409167
495.223000	2.288750
495.409000	2.381503
495.594000	2.432452
495.780000	2.652025
495.965000	2.680303
496.151000	2.941287
496.337000	2.947058
496.522000	2.791456
496.708000	3.001645
496.893000	3.180236
497.079000	3.083056
497.264000	3.064456
497.450000	3.116513
497.636000	3.382403
497.821000	3.191640
498.007000	3.411793
498.192000	3.590138
498.378000	3.545678
498.563000	3.563780
498.749000	3.643842
498.935000	3.812158
499.120000	4.043970
499.306000	3.854937
499.491000	3.852962
499.677000	4.050234
499.862000	4.222420
500.048000	4.378454
500.234000	4.346216
500.419000	4.417789
500.605000	4.723239
500.790000	4.650126
500.976000	4.644856
501.161000	4.613873
501.347000	4.944993
501.533000	5.096917
501.718000	5.064178
501.904000	5.173906
502.089000	5.292486
502.275000	5.419082
502.460000	5.377678
502.646000	5.536709
502.832000	5.722329
503.017000	5.819009
503.203000	5.767495
503.388000	5.841155
503.574000	6.102833
503.759000	6.122490
503.945000	6.337764
504.131000	6.423083
504.316000	6.449027
504.502000	6.575202
504.687000	6.605591
504.873000	6.562205
505.058000	6.621296
505.244000	6.683875
505.430000	6.799350
505.615000	7.048329
505.801000	7.245959
505.986000	7.146818
506.172000	7.369522
506.358000	7.536518
506.543000	7.558169
506.729000	7.875998
506.914000	8.000836
507.100000	8.213766
507.285000	8.089279
507.471000	8.222771
507.657000	8.498115
507.842000	8.434670
508.028000	8.440360
508.213000	8.582549
508.399000	8.635010
508.584000	8.756390
508.770000	8.823235
508.956000	8.938523
509.141000	8.891594
509.327000	9.009745
509.512000	9.051900
509.698000	9.208496
509.883000	9.312317
510.069000	9.337420
510.255000	9.419951
510.440000	9.514426
510.626000	9.422346
510.811000	9.497016
510.997000	9.774043
511.182000	10.185300
511.368000	10.052347
511.554000	9.700151
511.739000	9.986274
511.925000	10.149761
512.110000	10.140213
512.296000	10.323051
512.481000	10.319235
512.667000	10.247303
512.853000	10.087224
513.038000	10.175843
513.224000	10.252802
513.409000	10.247361
513.595000	10.250701
513.780000	10.144625
513.966000	10.163893
514.152000	10.117024
514.337000	10.221787
514.523000	10.489749
514.708000	10.478565
514.894000	10.538235
515.079000	10.466455
515.265000	10.480475
515.451000	10.511193
515.636000	10.275151
515.822000	10.424247
516.007000	10.307168
516.193000	10.503488
516.378000	10.459877
516.564000	10.260123
516.750000	10.448275
516.935000	10.352421
517.121000	10.156991
517.306000	10.280674
517.492000	10.221215
517.677000	10.007149
517.863000	10.004609
518.049000	9.976882
518.234000	9.898955
518.420000	9.999397
518.605000	10.308707
518.791000	10.105442
518.976000	9.743288
519.162000	9.540110
519.348000	9.745120
519.533000	9.550294
519.719000	9.692284
519.904000	9.659084
520.090000	9.458813
520.275000	9.703287
520.461000	9.642971
520.647000	9.186087
520.832000	8.790105
521.018000	8.842405
521.203000	8.804660
521.389000	8.595829
521.574000	8.767649
521.760000	8.840994
521.946000	8.770515
522.131000	8.556675
522.317000	8.530211
522.502000	8.363025
522.688000	8.379987
522.873000	8.272842
523.059000	8.167965
523.245000	8.133782
523.430000	7.896003
523.616000	7.760914
523.801000	7.624828
523.987000	7.665174
524.172000	7.659912
524.358000	7.694295
524.544000	7.539719
524.729000	7.532992
524.915000	7.582090
525.100000	7.277575
525.286000	7.359392
525.471000	7.291104
525.657000	7.155975
525.843000	6.896594
526.028000	6.972920
526.214000	6.854221
526.399000	6.694925
526.585000	6.432048
526.770000	6.377554
526.956000	6.599987
527.142000	6.284613
527.327000	6.413188
527.513000	6.263657
527.698000	6.203102
527.884000	6.126242
528.069000	5.983085
528.255000	6.036113
528.441000	5.862413
528.626000	5.812366
528.812000	6.106877
528.997000	5.873948
529.183000	5.703434
529.368000	5.647813
529.554000	5.557579
529.740000	5.531966
529.925000	5.345075
530.111000	5.341803
530.296000	5.363495
530.482000	5.362842
530.667000	5.231257
530.853000	5.363670
531.039000	5.250190
531.224000	5.199143
531.410000	5.197545
531.595000	5.001801
531.781000	5.086548
531.967000	4.903828
532.152000	4.980325
532.338000	4.806315
532.523000	4.479986
532.709000	4.520255
532.894000	4.671173
533.080000	4.661876
533.266000	4.450538
533.451000	4.308948
533.637000	4.318146
533.822000	4.456003
534.008000	4.254388
534.193000	4.192724
534.379000	4.227217
534.565000	4.215001
534.750000	4.142498
534.936000	4.241775
535.121000	3.962056
535.307000	3.998529
535.492000	3.906106
535.678000	3.710652
535.864000	3.883929
536.049000	4.072198
536.235000	3.774818
536.420000	3.756711
536.606000	3.635671
536.791000	3.499169
536.977000	3.518150
537.163000	3.778149
537.348000	3.655724
537.534000	3.617856
537.719000	3.413298
537.905000	3.238318
538.090000	3.314138
538.276000	3.404871
538.462000	3.341942
538.647000	3.275864
538.833000	3.074984
539.018000	3.201956
539.204000	3.214903
539.389000	2.972223
539.575000	3.201785
539.761000	3.125395
539.946000	2.736156
540.132000	2.790650
540.317000	2.688752
540.503000	2.622940
540.688000	2.595116
540.874000	2.803165
541.060000	3.002316
541.245000	2.826552
541.431000	2.557026
541.616000	2.451621
541.802000	2.352467
541.987000	2.550996
542.173000	2.617367
542.359000	2.382334
542.544000	2.390190
542.730000	2.206460
542.915000	2.154812
543.101000	2.395499
543.286000	2.177685
543.472000	1.961344
543.658000	2.192867
543.843000	2.082935
544.029000	2.141692
544.214000	2.190784
544.400000	1.810499
544.585000	1.797042
544.771000	1.849575
544.957000	2.023033
545.142000	2.106577
545.328000	2.217665
545.513000	2.227675
545.699000	2.083886
545.884000	1.801913
546.070000	1.773204
546.261000	1.910089
546.451000	1.725720
546.642000	1.418942
546.833000	1.600406
547.023000	1.480725
547.214000	1.546615
547.405000	1.642151
547.595000	1.728222
547.786000	1.662642
547.977000	1.486090
548.167000	1.281941
548.358000	1.372548
548.549000	1.779549
548.740000	1.590752
548.930000	1.183124
549.121000	1.265953
549.312000	1.166532
549.502000	1.089425
549.693000	1.205263
549.884000	1.303946
550.074000	1.271539
550.265000	1.113850
550.456000	1.321032
550.646000	1.398694
550.837000	1.287345
551.028000	1.089987
551.218000	1.201658
551.409000	1.119451
551.600000	1.095396
551.790000	1.250363
551.981000	1.055728
552.172000	0.982236
552.362000	1.327519
552.553000	1.340582
552.744000	1.156604
552.934000	1.195516
553.125000	0.988757
553.316000	1.002053
553.506000	1.416688
553.697000	1.065195
553.888000	1.006088
554.079000	1.204180
554.269000	1.243615
554.460000	0.895466
554.651000	0.819664
554.841000	0.538948
555.032000	0.591059
555.223000	0.726699
555.413000	0.928001
555.604000	0.899846
555.795000	0.921514
555.985000	1.013684
556.176000	0.747937
556.367000	0.419577
556.557000	0.569480
556.748000	0.699976
556.939000	0.673060
557.129000	0.607953
557.320000	0.659995
557.511000	0.645872
557.701000	0.651286
557.892000	0.828361
558.083000	1.098545
558.273000	0.930904
558.464000	0.672718
558.655000	0.594733
558.845000	0.625142
559.036000	0.715692
559.227000	0.658252
559.418000	0.962739
559.608000	0.955909
559.799000	0.523098
559.990000	0.462647
560.180000	0.514582
560.371000	0.284029
560.562000	0.405503
560.752000	0.592114
560.943000	0.316111
561.134000	0.014097
561.324000	0.295681
561.515000	0.684809
561.706000	0.615227
561.896000	0.313964
562.087000	0.390101
562.278000	0.294373
562.468000	0.058678
562.659000	0.103042
562.850000	0.574096
563.040000	0.605919
563.231000	0.166886
563.422000	0.344102
563.612000	0.274568
563.803000	0.280413
563.994000	0.222244
564.185000	0.083202
564.375000	0.291543
564.566000	0.253373
564.757000	0.292000
564.947000	0.146458
565.138000	0.139670
565.329000	0.139389
565.519000	-0.023847
565.710000	-0.048999
565.901000	0.277851
566.091000	0.440967
566.282000	0.383549
566.473000	0.294894
566.663000	0.288311
566.854000	0.032322
567.045000	0.218226
567.235000	0.360752
567.426000	0.354423
567.617000	0.266712
567.807000	0.192708
567.998000	0.192316
568.189000	0.124482
568.379000	0.265543
568.570000	0.406354
568.761000	0.264615
568.951000	0.190807
569.142000	0.227807
569.333000	0.013472
569.524000	-0.139098
569.714000	-0.157386
569.905000	-0.224104
570.096000	0.293471
570.286000	0.353882
570.477000	0.365048
570.668000	0.158726
570.858000	0.219297
571.049000	0.061574
571.240000	-0.173943
571.430000	0.109779
571.621000	0.199546
571.812000	0.294507
572.002000	0.163106
572.193000	-0.058670
572.384000	0.126865
572.574000	0.186857
572.765000	0.204451
572.956000	0.072705
573.146000	0.299612
573.337000	0.138190
573.528000	0.114165
573.718000	0.351089
573.909000	0.362433
574.100000	0.190011
574.290000	0.101173
574.481000	0.042257
574.672000	0.054057
574.863000	0.270375
575.053000	0.123833
575.244000	0.076921
575.435000	-0.074518
575.625000	-0.045209
575.816000	-0.056731
576.007000	0.082202
576.197000	0.117120
576.388000	0.047359
576.579000	0.064664
576.769000	0.093423
576.960000	-0.200534
577.155000	-0.286178
577.350000	0.029845
577.545000	0.230299
577.740000	0.052549
577.935000	0.445743
578.130000	0.286364
578.326000	-0.135352
578.521000	0.217145
578.716000	0.238778
578.911000	-0.089302
579.106000	0.057434
579.301000	0.253733
579.496000	0.113038
579.691000	-0.155434
579.886000	-0.132722
580.081000	0.118041
580.276000	0.151078
580.471000	-0.037763
580.666000	-0.154117
580.861000	-0.253814
581.057000	-0.287252
581.252000	-0.021077
581.447000	-0.070839
581.642000	-0.065414
581.837000	-0.032110
582.032000	0.056308
582.227000	0.237094
582.422000	0.159960
582.617000	-0.097067
582.812000	-0.102257
583.007000	-0.172873
583.202000	-0.253948
583.397000	0.168707
583.592000	0.330345
583.788000	-0.079632
583.983000	0.001075
584.178000	0.065477
584.373000	-0.095245
584.568000	-0.127083
584.763000	-0.121862
584.958000	-0.185987
585.153000	-0.121862
585.348000	-0.111112
585.543000	0.134754
585.738000	0.043829
585.933000	-0.170013
586.128000	0.145368
586.324000	0.167182
586.519000	0.140288
586.714000	0.301162
586.909000	0.328539
587.104000	0.297317
587.299000	0.092377
587.494000	0.070798
587.689000	-0.025795
587.884000	0.098102
588.079000	0.049593
588.274000	0.038884
588.469000	0.108872
588.664000	0.195363
588.859000	0.103768
589.055000	0.152584
589.250000	0.028150
589.445000	-0.063955
589.640000	0.104147
589.835000	0.359947
590.030000	0.463119
590.225000	0.506697
590.420000	0.278743
590.615000	0.153664
590.810000	0.158935
591.005000	0.230634
591.200000	0.072171
591.395000	0.132294
591.591000	0.333986
591.786000	0.475477
591.981000	0.340162
592.176000	0.444975
592.371000	0.489004
592.566000	0.494128
592.761000	0.795311
592.956000	0.758250
593.151000	0.764120
593.346000	0.672658
593.541000	0.666465
593.736000	0.640937
593.931000	0.641216
594.126000	0.785852
594.322000	0.846609
594.517000	0.807760
594.712000	0.758368
594.907000	0.761097
595.102000	0.823199
595.297000	1.133521
595.492000	1.302823
595.687000	1.049028
595.882000	0.982635
596.077000	1.280687
596.272000	1.453610
596.467000	1.554672
596.662000	1.550598
596.857000	1.663494
597.053000	1.705673
597.248000	1.800526
597.443000	1.836701
597.638000	1.824197
597.833000	1.656449
598.028000	1.913901
598.223000	2.149431
598.418000	2.051325
598.613000	1.943463
598.808000	2.171644
599.003000	2.361203
599.198000	2.193773
599.393000	2.386187
599.589000	2.626145
599.784000	2.434234
599.979000	2.666088
600.174000	3.027690
600.369000	2.847930
600.564000	2.988993
600.759000	3.319131
600.954000	3.508057
601.149000	3.381079
601.344000	3.120282
601.539000	3.526502
601.734000	3.481689
601.929000	3.381054
602.124000	3.695071
602.320000	4.082481
602.515000	4.435320
602.710000	4.375054
602.905000	4.073632
603.100000	4.228789
603.295000	4.496938
603.490000	4.643278
603.685000	4.812372
603.880000	4.754316
604.075000	4.789650
604.270000	5.097525
604.465000	5.157820
604.660000	5.016036
604.856000	5.537367
605.051000	5.816883
605.246000	5.759543
605.441000	5.582586
605.636000	5.706951
605.831000	6.051275
606.026000	6.224392
606.221000	6.320848
606.416000	6.551982
606.611000	7.093250
606.806000	7.403779
607.001000	7.430931
607.196000	7.255445
607.391000	7.336273
607.587000	7.864763
607.782000	8.028859
607.977000	7.921433
608.172000	8.555499
608.367000	8.815655
608.562000	8.602094
608.757000	8.806729
608.952000	9.035128
609.147000	9.723882
609.342000	9.774586
609.537000	9.602064
609.732000	9.945153
609.927000	10.026605
610.122000	10.437118
610.318000	10.775451
610.513000	10.966082
610.708000	10.989969
610.903000	11.319320
611.098000	11.637247
611.293000	11.748363
611.488000	12.097802
611.683000	12.455447
611.878000	12.543411
612.073000	12.961745
612.268000	13.391102
612.463000	13.692506
612.658000	14.006356
612.854000	14.295659
613.049000	14.628610
613.244000	15.078691
613.439000	15.387147
613.634000	15.540760
613.829000	16.036880
614.024000	16.208738
614.219000	16.613945
614.414000	17.209261
614.609000	17.204373
614.804000	17.422330
614.999000	18.046104
615.194000	18.752683
615.389000	19.080505
615.585000	19.115504
615.780000	19.609754
615.975000	19.943786
616.170000	20.554540
616.365000	21.073996
616.560000	21.722613
616.755000	22.134661
616.950000	22.539898
617.145000	23.197923
617.340000	23.350143
617.535000	23.721324
617.730000	24.417252
617.925000	24.587351
618.120000	25.179172
618.316000	26.074790
618.511000	26.211175
618.706000	26.660229
618.901000	27.309178
619.096000	27.927824
619.291000	28.267059
619.486000	29.092571
619.681000	29.197206
619.876000	29.650275
620.071000	30.255710
620.266000	31.124697
620.461000	31.673800
620.656000	32.398134
620.852000	33.104048
621.047000	33.362562
621.242000	33.838490
621.437000	34.880580
621.632000	35.765647
621.827000	35.887308
622.022000	36.144910
622.217000	37.223097
622.412000	37.981947
622.607000	38.449089
622.802000	38.764613
622.997000	39.550949
623.192000	40.160042
623.387000	41.129394
623.583000	41.507965
623.778000	42.685343
623.973000	43.225697
624.168000	43.815506
624.363000	44.643446
624.558000	45.350187
624.753000	45.965343
624.948000	47.116458
625.143000	47.686687
625.338000	47.897961
625.533000	48.823258
625.728000	50.246553
625.923000	50.849831
626.119000	51.539963
626.314000	52.010940
626.509000	52.817940
626.704000	53.811518
626.899000	54.176036
627.094000	55.140606
627.289000	55.892523
627.484000	56.604157
627.679000	57.735836
627.874000	58.511962
628.069000	59.554294
628.264000	60.162260
628.459000	60.551439
628.654000	60.546041
628.850000	61.074602
629.045000	61.937699
629.240000	62.599825
629.435000	62.843335
629.630000	63.395044
629.825000	63.812657
630.020000	64.458153
630.215000	64.456906
630.410000	64.719064
630.605000	65.065339
630.800000	64.857621
630.995000	64.927934
631.190000	65.211283
631.385000	64.777679
631.581000	64.393916
631.776000	64.098435
631.971000	63.526803
632.166000	62.789325
632.361000	62.171701
632.556000	61.670878
632.751000	61.204391
632.946000	59.919737
633.141000	58.863161
633.336000	57.658794
633.531000	57.186260
633.726000	56.040259
633.921000	54.448745
634.117000	53.130641
634.312000	51.891391
634.507000	50.660461
634.702000	49.320966
634.897000	47.669685
635.092000	46.316942
635.287000	45.148829
635.482000	43.895491
635.677000	42.708140
635.872000	41.390323
636.067000	40.309976
636.262000	38.642751
636.457000	36.733249
636.652000	35.839015
636.848000	34.451320
637.043000	33.078859
637.238000	32.049421
637.433000	30.632579
637.628000	29.543379
637.823000	28.944600
638.018000	27.923119
638.213000	26.434843
638.408000	25.400518
638.603000	24.696155
638.798000	23.684616
638.993000	22.841030
639.188000	21.937644
639.383000	20.956633
639.579000	20.723212
639.774000	19.911298
639.969000	18.866669
640.164000	18.198909
640.359000	17.411511
640.554000	16.809591
640.749000	16.281322
640.944000	15.888487
641.139000	15.310904
641.334000	14.511780
641.529000	13.549710
641.724000	13.359055
641.919000	13.097849
642.115000	12.980573
642.310000	12.442141
642.505000	11.806659
642.700000	11.418954
642.895000	11.222442
643.090000	10.935489
643.285000	10.601249
643.480000	10.184304
643.675000	9.990976
643.870000	10.062707
644.065000	9.263513
644.260000	8.645278
644.455000	8.488368
644.650000	8.034237
644.846000	7.876030
645.041000	7.465571
645.236000	7.075614
645.431000	7.108486
645.626000	6.612540
645.821000	6.473863
646.016000	6.272877
646.211000	6.482241
646.406000	6.281332
646.601000	5.963372
646.796000	5.695996
646.991000	5.347109
647.186000	5.206531
647.381000	5.263269
647.577000	5.092751
647.772000	4.948002
647.967000	4.904144
648.162000	4.578919
648.357000	4.355144
648.552000	4.361076
648.747000	4.202621
648.942000	4.074900
649.137000	3.848807
649.332000	3.576482
649.527000	3.521064
649.722000	3.504460
649.917000	3.530195
650.113000	3.171184
650.308000	2.967163
650.503000	2.950136
650.698000	3.012846
650.893000	2.813575
651.088000	2.815421
651.283000	2.565200
651.478000	2.347696
651.673000	2.593671
651.868000	2.248926
652.063000	2.526110
652.258000	2.590425
652.453000	2.707983
652.648000	2.407984
652.844000	2.370760
653.039000	2.195211
653.234000	1.586800
653.429000	1.573987
653.624000	1.822970
653.819000	1.858310
654.014000	1.717629
654.209000	1.525730
654.404000	1.610477
654.599000	1.496556
654.794000	1.423283
654.989000	1.703223
655.184000	1.586912
655.380000	1.238873
655.575000	1.144432
655.770000	1.020015
655.965000	1.201895
656.160000	1.178827
656.355000	1.289181
656.550000	1.221826
656.745000	1.349518
656.940000	1.231591
657.135000	1.064686
657.330000	1.049246
657.525000	0.740239
657.720000	0.988184
657.915000	1.034964
658.111000	0.852461
658.306000	1.139641
658.501000	0.998680
658.696000	0.671368
658.891000	0.887062
659.086000	0.838860
659.281000	0.856205
659.476000	0.617470
659.671000	0.233529
659.866000	0.441660
660.061000	0.826268
660.256000	0.730525
660.451000	0.675053
660.646000	0.539469
660.842000	0.749056
661.037000	0.459895
661.232000	0.516916
661.427000	0.669364
661.622000	0.461036
661.817000	0.331985
662.012000	0.494380
662.207000	0.381549
662.402000	0.277157
662.597000	0.569292
662.792000	0.196071
662.987000	0.106860
663.182000	0.318013
663.378000	0.415697
663.573000	0.123713
663.768000	0.058479
663.963000	0.115460
664.158000	0.099108
664.353000	0.662334
664.548000	0.923029
664.743000	0.524077
664.938000	0.001632
665.133000	0.173313
665.328000	0.689368
665.523000	0.625093
665.718000	0.239565
665.913000	0.133109
666.109000	0.223991
666.304000	0.363867
666.499000	0.215550
666.694000	0.653439
666.889000	0.876106
667.084000	0.365856
667.279000	0.142284
667.474000	0.134087
667.669000	0.200255
667.864000	0.051366
668.059000	-0.023233
668.254000	0.101357
668.449000	-0.048241
668.644000	0.076589
668.840000	0.334225
669.035000	0.051620
669.230000	-0.265663
669.425000	0.227387
669.620000	0.026749
669.815000	-0.090606
670.010000	-0.165958
670.205000	0.119119
670.400000	0.252887
670.595000	0.211660
670.790000	0.060556
670.985000	0.052200
671.180000	0.203973
671.376000	0.018560
671.571000	-0.175862
671.766000	-0.252539
671.961000	-0.464578
672.156000	-0.295391
672.351000	-0.032263
672.546000	-0.040839
672.741000	0.112062
672.936000	0.137710
673.131000	0.743267
673.326000	0.223943
673.521000	-0.237825
673.716000	-0.314811
673.911000	-0.486251
674.107000	0.216137
674.302000	0.525267
674.497000	0.190756
674.692000	-0.239044
674.887000	-0.308884
675.082000	-0.188376
675.277000	0.244020
675.472000	-0.067584
675.667000	-0.275955
675.862000	-0.206638
676.057000	-0.119895
676.252000	-0.137562
676.447000	-0.129171
676.643000	0.088951
676.838000	0.281337
677.033000	0.071746
677.228000	0.343839
677.423000	0.247503
677.618000	-0.253454
677.813000	-0.534756
678.008000	-0.183531
678.203000	-0.015899
678.398000	-0.290248
678.593000	-0.069046
678.788000	0.001776
678.983000	-0.397373
679.178000	-0.149089
679.374000	-0.184855
679.569000	-0.122909
679.764000	-0.051811
679.959000	-0.302654
680.154000	-0.356452
680.349000	-0.528442
680.544000	-0.473883
680.739000	-0.240659
680.934000	-0.402700
681.129000	-0.367772
681.324000	-0.296024
681.519000	-0.179261
681.714000	-0.115927
681.909000	-0.197198
682.105000	-0.478961
682.300000	0.320547
682.495000	0.566129
682.690000	0.302866
682.885000	0.120513
683.080000	-0.281978
683.275000	-0.218001
683.470000	0.185251
683.665000	0.323523
683.860000	0.591080
684.055000	0.232145
684.250000	-0.357779
684.445000	-0.421655
684.641000	0.177296
684.836000	-0.109144
685.031000	-0.220933
685.226000	-0.249118
685.421000	0.225583
685.616000	0.039151
685.811000	-0.128947
686.006000	0.142016
686.201000	0.001871
686.396000	-0.542825
686.591000	-0.355709
686.786000	-0.007540
686.981000	-0.092376
687.176000	0.020788
687.372000	-0.140003
687.567000	0.105996
687.762000	0.115778
687.957000	-0.083509
688.152000	-0.235845
688.347000	-0.093365
688.542000	-0.456523
688.737000	-1.000470
688.932000	-0.868292
689.127000	-0.371549
689.322000	-0.094112
689.517000	-0.353326
689.712000	-0.412388
689.908000	-0.403160
690.103000	-0.452261
690.298000	-0.191373
690.493000	-0.317852
690.688000	-0.706347
690.883000	-0.523794
691.078000	0.050644
691.273000	0.225975
691.468000	-0.242030
691.663000	-0.252747
691.858000	-0.056829
692.053000	-0.056826
692.248000	0.041192
692.443000	0.129456
692.639000	0.031448
692.834000	-0.106402
693.029000	0.386345
693.224000	0.675352
693.419000	-0.116958
693.614000	-0.385302
693.809000	-0.614153
694.004000	-0.734789
694.199000	-0.485750
694.394000	-0.077904
694.589000	-0.647887
694.784000	-0.588495
694.979000	-0.298261
695.174000	-0.309050
695.370000	0.302517
695.565000	0.062257
695.760000	-0.229470
695.955000	0.264328
696.150000	0.335055
696.345000	-0.403220
696.540000	-0.200948
696.740000	-0.302226
696.940000	-0.190811
697.140000	-0.008161
697.340000	-0.222785
697.539000	0.012270
697.739000	0.022504
697.939000	-0.182203
698.139000	-0.674236
698.339000	-0.779617
698.539000	-0.624982
698.739000	-0.585433
698.939000	-0.515528
699.138000	-0.620071
699.338000	0.219075
699.538000	0.271775
699.738000	-0.174779
699.938000	-0.185338
700.138000	-0.456829
700.338000	-0.667349
700.538000	-0.301997
700.737000	-0.301898
700.937000	-0.719063
701.137000	-0.636427
701.337000	0.128367
701.537000	-0.040071
701.737000	-0.366507
701.937000	-0.567894
702.137000	-0.472917
702.337000	-0.399693
702.536000	-0.707777
702.736000	-0.772279
702.936000	-0.709675
703.136000	-0.083111
703.336000	-0.072439
703.536000	-0.286289
703.736000	-0.704812
703.936000	-0.607149
704.135000	-0.724367
704.335000	-0.415695
704.535000	-0.588719
704.735000	-0.686108
704.935000	-0.137360
705.135000	-0.094895
705.335000	-0.354880
705.535000	-0.300981
705.735000	-0.365877
705.934000	-0.300774
706.134000	-0.398281
706.334000	-0.366681
706.534000	-0.660539
706.734000	-0.574082
706.934000	-0.574050
707.134000	-0.672074
707.334000	-0.390153
707.533000	-0.227100
707.733000	-0.248756
707.933000	-0.565721
708.133000	-0.303243
708.333000	0.035087
708.533000	-0.129624
708.733000	0.079080
708.933000	-0.206670
709.132000	-0.229101
709.332000	-0.185356
709.532000	-0.605949
709.732000	-0.362156
709.932000	-0.661852
710.132000	-0.639316
710.332000	-1.070198
710.532000	-0.418294
710.732000	-0.042166
710.931000	-0.441961
711.131000	-0.488281
711.331000	-0.198586
711.531000	-0.355380
711.731000	-0.479514
711.931000	-0.424199
712.131000	-0.524569
712.331000	-0.311702
712.530000	-0.288926
712.730000	-0.480566
712.930000	-0.345712
713.130000	-0.245550
713.330000	-0.561629
713.530000	-0.676887
713.730000	-0.054357
713.930000	-0.178868
714.129000	-0.416169
714.329000	-0.599029
714.529000	-0.485208
714.729000	-0.043168
714.929000	-0.077250
715.129000	-0.589440
715.329000	-0.487479
715.529000	-0.157822
715.729000	0.424633
715.928000	0.002289
716.128000	-0.375581
716.328000	-0.307788
716.528000	-0.423117
716.728000	-0.423218
716.928000	-0.549778
717.128000	-0.216714
717.328000	-0.447187
717.527000	-0.620821
717.727000	-0.621427
717.927000	-0.472784
718.127000	-0.403487
718.327000	-0.938530
718.527000	-1.147034
718.727000	-0.660038
718.927000	-0.568103
719.127000	-0.804153
719.326000	-0.579714
719.526000	-0.020992
719.726000	-0.114530
719.926000	-0.795319
720.126000	-0.725055
720.326000	-0.689755
720.526000	-0.994933
720.726000	-0.550749
720.925000	-0.162504
721.125000	-0.683154
721.325000	-0.434422
721.525000	-0.494642
721.725000	-0.613046
721.925000	-0.602904
722.125000	-0.591084
722.325000	0.085449
722.524000	-0.283314
722.724000	-0.974952
722.924000	-1.070236
723.124000	-0.868709
723.324000	-0.296238
723.524000	-0.129124
723.724000	-0.775443
723.924000	-0.622099
724.124000	-0.454121
724.323000	-0.370505
724.523000	-0.454314
724.723000	0.195125
724.923000	-0.057832
725.123000	-0.094076
725.323000	-0.106326
725.523000	-0.639175
725.723000	-0.759433
725.922000	-0.615011
726.122000	-0.252099
726.322000	-0.483683
726.522000	-0.800439
726.722000	0.111787
726.922000	-0.179708
727.122000	-0.497135
727.322000	0.124442
727.521000	-0.193237
727.721000	-0.609960
727.921000	-0.365014
728.121000	-0.450642
728.321000	-0.966739
728.521000	-0.784719
728.721000	-0.502680
728.921000	0.014779
729.121000	0.792006
729.320000	0.163023
729.520000	-0.429826
729.720000	-0.739827
729.920000	-0.494738
730.120000	-0.357093
730.320000	-0.482262
730.520000	-0.867932
730.720000	-0.758402
730.919000	-0.608604
731.119000	-0.047478
731.319000	-0.848492
731.519000	-1.061095
731.719000	-0.360646
731.919000	-0.561304
732.119000	-1.352877
732.319000	-1.155696
732.519000	-0.488725
732.718000	-0.779454
732.918000	-0.754877
733.118000	-0.427734
733.318000	-0.162448
733.518000	-0.492460
733.718000	-1.204901
733.918000	-0.938541
734.118000	-0.849223
734.317000	-0.559094
734.517000	-0.711284
734.717000	-0.625051
734.917000	-0.318367
735.117000	-0.562877
735.317000	-0.639821
735.517000	-0.023189
735.717000	0.519419
735.916000	-0.501405
736.116000	-0.810848
736.316000	-0.711921
736.516000	-0.542865
736.716000	-0.387215
736.916000	-1.041132
737.116000	-0.836437
737.316000	-0.062919
737.516000	-0.417665
737.715000	-0.391645
737.915000	-0.773128
738.115000	-0.907484
738.315000	-0.802556
738.515000	-1.198322
738.715000	-0.634540
738.915000	-0.143561
739.115000	-0.742959
739.314000	-0.556051
739.514000	-0.077433
739.714000	-0.010707
739.914000	-0.252357
740.114000	-0.669731
740.314000	-0.293393
740.514000	0.231839
740.714000	-0.538282
740.913000	-1.135021
741.113000	-0.933313
741.313000	-0.363559
741.513000	-0.364582
741.713000	-0.392842
741.913000	-0.243946
742.113000	-0.462518
742.313000	-0.929754
742.513000	-0.765909
742.712000	-0.685767
742.912000	-0.837462
743.112000	-0.771191
743.312000	-1.187780
743.512000	-0.704842
743.712000	-0.553990
743.912000	-1.182267
744.112000	-1.266728
744.311000	-1.424025
744.511000	-0.964147
744.711000	-0.334359
744.911000	-0.644351
745.111000	-0.715583
745.311000	-0.110084
745.511000	-0.548355
745.711000	-0.633749
745.911000	-0.351281
746.110000	-0.974987
746.310000	-1.251585
746.510000	-0.964399
746.710000	-0.282931
746.910000	-0.082952
747.110000	-0.842320
747.310000	-1.231249
747.510000	-0.746172
747.709000	-0.314281
747.909000	-0.358447
748.109000	-0.200133
748.309000	-0.592905
748.509000	-1.088698
748.709000	-1.136559
748.909000	-0.552039
749.109000	-0.745133
749.308000	-0.187940
749.508000	-0.512839
749.708000	-0.763620
749.908000	-0.247716
750.108000	-0.381551
750.308000	-1.050701
750.508000	-0.249957
750.708000	-0.726307
750.908000	-1.130596
751.107000	-0.386006
751.307000	0.152427
751.507000	-0.402190
751.707000	-0.416667
751.907000	-0.552914
752.107000	-0.795997
752.307000	-1.282720
752.507000	-0.997924
752.706000	-0.906312
752.906000	0.306796
753.106000	-0.545613
753.306000	-1.250507
753.506000	-0.487463
753.706000	-0.749550
753.906000	-0.442426
754.106000	-0.519925
754.305000	-0.335771
754.505000	-0.135896
754.705000	-0.385070
754.905000	-0.385641
755.105000	-0.028032
755.305000	-1.010542
755.505000	-0.794497
755.705000	-0.028187
755.905000	-0.499461
756.104000	-1.348767
756.304000	-1.620346
756.504000	-1.876401
756.704000	-0.727151
756.904000	-0.488723
757.104000	-0.947545
757.304000	-0.948451
757.504000	-0.299999
757.703000	-0.523305
757.903000	-0.444601
758.103000	-0.205128
758.303000	-0.446765
758.503000	-0.834659
758.703000	-0.675100
758.903000	-0.626928
759.103000	-0.337015
759.303000	-0.599118
759.502000	-0.829655
759.702000	-0.159990
759.902000	-0.308487
760.102000	-0.835569
760.302000	-0.722857
760.502000	-0.128344
760.702000	-0.177962
760.902000	-0.739778
761.101000	-1.139354
761.301000	-1.323835
761.501000	-1.274476
761.701000	-1.160641
761.901000	-0.899250
762.101000	-0.197655
762.301000	-0.180907
762.501000	-1.052806
762.700000	-1.461854
762.900000	-1.344442
763.100000	-0.856836
763.300000	-0.657107
763.500000	-0.759473
763.703000	-0.824519
763.905000	-1.166855
764.108000	-0.302964
764.311000	-0.694527
764.513000	-0.916929
764.716000	-0.783744
764.919000	-0.819064
765.121000	-1.385062
765.324000	-1.251679
765.527000	-0.981795
765.729000	-0.947196
765.932000	0.020775
766.135000	-0.031154
766.337000	-0.862371
766.540000	-0.952072
766.743000	-0.154024
766.945000	-0.939781
767.148000	-1.869812
767.351000	-1.869550
767.553000	-0.576318
767.756000	-0.840771
767.958000	-0.858273
768.161000	-0.771004
768.364000	-1.197867
768.566000	-1.342139
768.769000	-0.653767
768.972000	-0.476046
769.174000	-1.136727
769.377000	-1.711759
769.580000	-1.715407
769.782000	-0.873059
769.985000	-1.145063
770.188000	-2.407111
770.390000	-1.424654
770.593000	0.310578
770.796000	-0.213229
770.998000	-0.864264
771.201000	-1.245270
771.404000	-1.138275
771.606000	-1.124596
771.809000	-0.833166
772.012000	-0.743639
772.214000	-1.802191
772.417000	-1.711172
772.620000	-0.378277
772.822000	-0.931026
773.025000	-1.279478
773.228000	-0.988030
773.430000	-0.879304
773.633000	-0.586085
773.836000	-0.328508
774.038000	-0.033345
774.241000	-0.496343
774.444000	-0.832257
774.646000	-0.237596
774.849000	-0.945087
775.052000	-0.777518
775.254000	-0.294478
775.457000	-0.499039
775.659000	-0.425573
775.862000	-0.612373
776.065000	-0.837789
776.267000	-0.295977
776.470000	0.361276
776.673000	-0.617607
776.875000	-0.185070
777.078000	-0.203631
777.281000	-0.885752
777.483000	-0.527828
777.686000	-0.642949
777.889000	-0.472257
778.091000	0.022930
778.294000	-1.312771
778.497000	-1.467302
778.699000	-0.933093
778.902000	-0.725234
779.105000	-0.552596
779.307000	0.330494
779.510000	-0.747200
779.713000	-0.498782
779.915000	-0.810774
780.118000	0.062130
780.321000	0.003888
780.523000	-0.872906
780.726000	-1.243629
780.929000	-1.087297
781.131000	-1.147526
781.334000	-1.445611
781.537000	-1.822873
781.739000	-0.664541
781.942000	-1.137323
782.145000	-1.954128
782.347000	-1.698077
782.550000	-1.164464
782.753000	-1.665014
782.955000	-1.410542
783.158000	-1.111043
783.361000	-0.794420
783.563000	-0.614879
783.766000	-0.476365
783.968000	1.487420
784.171000	0.890102
784.374000	-0.922406
784.576000	-0.781195
784.779000	-0.056286
784.982000	-0.076829
785.184000	-0.971665
785.387000	-0.342027
785.590000	0.553462
785.792000	0.187910
785.995000	0.045004
786.198000	-0.221288
786.400000	-0.716049
786.603000	-0.449698
786.806000	-0.366051
787.008000	-0.530515
787.211000	-0.841982
787.414000	-1.155474
787.616000	-0.827271
787.819000	-0.975063
788.022000	-1.372772
788.224000	-0.895149
788.427000	-2.046616
788.630000	-1.339798
788.832000	-0.625121
789.035000	-1.231496
789.238000	-1.931319
789.440000	-1.625170
789.643000	-0.439238
789.846000	-0.736973
790.048000	-0.250499
790.251000	-0.229325
790.454000	-1.055326
790.656000	-0.612561
790.859000	-0.848485
791.062000	-1.020830
791.264000	-0.593215
791.467000	-1.410024
791.669000	-1.927131
791.872000	-0.966222
792.075000	-1.352873
792.277000	-1.116085
792.480000	-0.927183
792.683000	-1.378334
792.885000	-1.422918
793.088000	-1.102573
793.291000	-1.453467
793.493000	-1.957474
793.696000	-1.107780
793.899000	-0.673498
794.101000	-0.938070
794.304000	-1.401499
794.507000	-0.875586
794.709000	-0.525045
794.912000	-1.235940
795.115000	-1.726544
795.317000	-1.592953
795.520000	-1.332523
795.723000	-1.516878
795.925000	-1.675933
796.128000	-1.875173
796.331000	-0.893523
796.533000	-1.818302
796.736000	-1.216783
796.939000	-0.834290
797.141000	-1.109260
797.344000	-0.382241
797.547000	-0.154784
797.749000	-0.793266
797.952000	-1.392970
798.155000	-1.595674
798.357000	-1.651280
798.560000	-1.521832
798.763000	-0.942657
798.965000	-1.518826
799.168000	-1.291759
799.371000	-0.644316
799.573000	-0.995277
799.776000	-1.602281
799.978000	-1.654584
800.181000	-1.002144
800.384000	0.825467
800.586000	0.192748
800.789000	-1.804473
800.992000	-2.061529
801.194000	-2.136677
801.397000	-2.236570
801.600000	-1.936470
801.802000	-0.398303
802.005000	-0.637412
802.208000	-1.831831
802.410000	-0.805505
802.613000	-1.024491
802.816000	-1.457049
803.018000	-1.893440
803.221000	-1.656242
803.424000	-0.164039
803.626000	-0.695831
803.829000	-1.110092
804.032000	0.563803
804.234000	0.952340
804.437000	-0.800291
804.640000	-1.262813
804.842000	-0.972489
805.045000	-1.247443
805.248000	-1.446592
805.450000	-1.518915
805.653000	-0.860733
805.856000	-1.156274
806.058000	-0.292434
806.261000	-1.386128
806.464000	-0.989661
806.666000	-0.866702
806.869000	-1.749526
807.072000	-2.275643
807.274000	-2.678395
807.477000	-1.528942
807.679000	-0.800342
807.882000	-1.685086
808.085000	-1.569467
808.287000	-0.757547
808.490000	-1.956081
808.693000	-2.110386
808.895000	-1.449332
809.098000	-0.964987
809.301000	-1.019443
809.503000	-1.641271
809.706000	-0.641468
809.909000	-0.356887
810.111000	-0.538671
810.314000	-0.669685
810.517000	-1.003848
810.719000	-1.711996
810.922000	-1.039909
811.125000	0.135575
811.327000	-0.125862
811.530000	-0.679191
811.735000	-1.230161
811.940000	-1.970554
812.146000	-1.767204
812.351000	-1.026539
812.556000	-1.242173
812.761000	-2.071533
812.967000	-0.743407
813.172000	-0.341928
813.377000	-0.557354
813.582000	-0.129166
813.788000	-0.238439
813.993000	-1.318935
814.198000	-1.374335
814.403000	-1.887309
814.609000	-0.919663
814.814000	-0.896478
815.019000	0.060020
815.224000	-0.485364
815.429000	-1.668887
815.635000	-1.150964
815.840000	-0.931693
816.045000	-0.963630
816.250000	-0.355010
816.456000	-2.078138
816.661000	-3.315711
816.866000	-2.483858
817.071000	-2.510248
817.277000	-3.314189
817.482000	-1.741688
817.687000	-1.092791
817.892000	-1.580489
818.097000	-1.216032
818.303000	-0.278434
818.508000	0.090740
818.713000	7.944300
818.918000	3.849714
819.124000	0.376826
819.329000	-1.513706
819.534000	-1.805758
819.739000	-1.575856
819.945000	-1.872211
820.150000	-1.272668
820.355000	-0.954901
820.560000	-0.371641
820.766000	-0.256158
820.971000	0.035132
821.176000	-2.165873
821.381000	-3.213100
821.586000	-2.349201
821.792000	-0.555382
821.997000	-1.147282
822.202000	-1.414794
822.407000	-2.101909
822.613000	-2.046821
822.818000	-0.918702
823.023000	-1.248330
823.228000	-1.346564
823.434000	-0.564628
823.639000	-0.355155
823.844000	-1.532999
824.049000	-0.295955
824.255000	0.581706
824.460000	-0.967947
824.665000	-2.005647
824.870000	-0.666737
825.075000	-0.636956
825.281000	-0.731021
825.486000	0.469640
825.691000	-2.005175
825.896000	-3.714353
826.102000	-1.607038
826.307000	-0.988962
826.512000	-1.866701
826.717000	-1.715898
826.923000	-1.469587
827.128000	-1.032225
827.333000	-2.020780
827.538000	-0.852034
827.744000	-0.184843
827.949000	-1.456859
828.154000	-1.207257
828.359000	-0.536290
828.564000	-0.956049
828.770000	-0.766713
828.975000	0.006458
829.180000	-1.096862
829.385000	-2.458892
829.591000	-2.925292
829.796000	-1.302988
830.001000	-0.977468
830.206000	-2.099307
830.412000	-1.867069
830.617000	-1.410274
830.822000	-0.225180
831.027000	-1.050704
831.232000	-1.522458
831.438000	-1.968403
831.643000	-1.231820
831.848000	-1.167729
832.053000	-1.172187
832.259000	-1.544615
832.464000	-2.834109
832.669000	-2.199451
832.874000	-2.500859
833.080000	-2.341731
833.285000	-0.368194
833.490000	-0.573153
833.695000	-1.778860
833.901000	-1.649220
834.106000	-2.722945
834.311000	-1.243577
834.516000	-0.723633
834.721000	-1.357469
834.927000	-0.274021
835.132000	-1.013753
835.337000	0.994112
835.542000	-0.631220
835.748000	-1.868753
835.953000	-0.028412
836.158000	-0.989751
836.363000	-1.422670
836.569000	-1.001427
836.774000	-2.194020
836.979000	-2.774764
837.184000	-3.107457
837.390000	-3.512247
837.595000	-2.284711
837.800000	-1.524207
838.005000	-1.240041
838.210000	-1.644318
838.416000	-1.576997
838.621000	-1.765965
838.826000	-1.912574
839.031000	-2.219288
839.237000	-2.534988
839.442000	-2.950981
839.647000	-3.357898
839.852000	-2.508629
840.058000	-2.178483
840.263000	-1.583182
840.468000	-2.570520
840.673000	-1.888271
840.878000	-1.244854
841.084000	-1.481347
841.289000	-0.451646
841.494000	1.202509
841.699000	0.665115
841.905000	0.783179
842.110000	0.202700
842.315000	-2.882900
842.520000	-2.021468
842.726000	-2.534830
842.931000	-2.884548
843.136000	-1.370032
843.341000	-2.570119
843.547000	-2.446114
843.752000	-1.616759
843.957000	-2.269216
844.162000	-3.042657
844.367000	-2.124043
844.573000	-0.517136
844.778000	-0.999305
844.983000	-1.082543
845.188000	-1.209896
845.394000	-2.613712
845.599000	-1.667362
845.804000	-1.960092
846.009000	-0.900112
846.215000	-2.687962
846.420000	-3.069551
846.625000	-1.160047
846.830000	-0.449045
847.036000	-1.579273
847.241000	-2.425108
847.446000	-0.788694
847.651000	-1.550323
847.856000	-2.882174
848.062000	-2.975995
848.267000	-1.484172
848.472000	-2.345252
848.677000	-2.823878
848.883000	-1.104906
849.088000	0.354728
849.293000	-1.771947
849.498000	-2.073311
849.704000	-0.643744
849.909000	-0.470977
850.114000	-1.561250
850.319000	-1.564743
850.524000	-1.221762
850.730000	-0.300544
850.935000	-0.923002
851.140000	-1.058912
851.345000	-1.236706
851.551000	-0.749610
851.756000	-0.798503
851.961000	-1.925104
852.166000	-1.881101
852.372000	-1.118954
852.577000	-1.854310
852.782000	-2.188929
852.987000	-0.630151
853.193000	-0.357456
853.398000	-0.770136
853.603000	-1.966395
853.808000	-2.748882
854.013000	-1.841161
854.219000	-1.334718
854.424000	0.474547
854.629000	1.408132
854.834000	-1.211005
855.040000	-1.738390
855.245000	-1.403014
855.450000	-3.792436
855.655000	-4.942378
855.861000	-4.499176
856.066000	-4.105107
856.271000	-4.495094
856.476000	-0.807864
856.682000	-1.486785
856.887000	-5.054481
857.092000	-2.986842
857.297000	0.058230
857.502000	-1.059933
857.708000	-2.328603
857.913000	-1.600642
858.118000	-1.664647
858.323000	-1.867117
858.529000	-1.371047
858.734000	-2.363826
858.939000	-2.916374
859.144000	-2.876477
859.350000	-3.822571
859.555000	-4.333810
859.760000	-1.797194
859.965000	-1.144249
860.171000	-2.661296
860.376000	-1.356448
860.581000	-3.288548
860.786000	-5.238930
860.991000	-4.698745
861.197000	-3.877425
861.402000	-2.400843
861.607000	-3.326367
861.812000	-3.753111
862.018000	-2.991236
862.223000	-1.545099
862.428000	-2.284371
862.633000	-1.398377
862.839000	-1.459652
863.044000	-2.901354
863.249000	-3.051884
863.454000	-1.152199
863.659000	-1.685834
863.865000	-2.706482
864.070000	-3.408002
864.275000	-2.985653
864.480000	-1.816788
864.686000	-4.251238
864.891000	-3.822822
865.096000	-2.701277
865.301000	-1.999857
865.507000	-1.355659
865.712000	-1.683528
865.917000	-2.574534
866.122000	0.066193
866.328000	-2.929016
866.533000	-3.592193
866.738000	-0.432945
866.943000	-0.600726
867.148000	-0.324426
867.354000	-4.329560
867.559000	-5.120284
867.764000	-2.878653
867.969000	-1.925038
868.175000	-3.110533
868.380000	-2.551837
868.585000	-3.068474
868.790000	-2.335053
868.996000	-2.638536
869.201000	-3.338579
869.406000	-3.701039
869.611000	-2.195882
869.817000	-2.309496
870.022000	0.943605
870.227000	-1.740030
870.432000	-2.746118
870.637000	0.129239
870.843000	-1.228992
871.048000	-1.406930
871.253000	0.189276
871.458000	-1.831033
871.664000	-4.175928
871.869000	-4.381143
872.074000	-2.462762
872.279000	-0.651594
872.485000	-2.052388
872.690000	-3.585907
872.895000	-2.743412
873.100000	-3.175819
873.306000	-3.312462
873.511000	-2.343558
873.716000	-2.410831
873.921000	-2.404538
874.126000	-2.532507
874.332000	-3.497703
874.537000	-1.688210
874.742000	-0.740917
874.947000	-0.807116
875.153000	0.458262
875.358000	-1.007988
875.563000	-3.365344
875.768000	-5.811659
875.974000	-5.257128
876.179000	-2.884824
876.384000	-2.963550
876.589000	-3.839206
876.794000	-3.124540
877.000000	-4.043009
877.205000	-5.605995
877.410000	-1.694019
877.615000	-3.723161
877.821000	-4.814260
878.026000	-3.030241
878.231000	-4.418651
878.436000	-4.492328
878.642000	-4.056368
878.847000	-1.591389
879.052000	-0.520804
879.257000	-3.286693
879.463000	-4.572652
879.668000	-4.776432
879.873000	-1.205634
880.078000	-3.720819
880.283000	-6.461809
880.489000	-6.189024
880.694000	-6.284373
880.899000	-3.917703
881.104000	-1.717492
881.310000	0.567866
881.515000	-0.608717
881.720000	1.192627
881.925000	3.779354
882.131000	4.058528
882.336000	-0.969735
882.541000	-5.368406
882.746000	-4.327297
882.952000	-4.677715
883.157000	-4.475444
883.362000	-4.553695
883.567000	-4.572756
883.772000	-4.108842
883.978000	-3.751250
884.183000	-2.598454
884.388000	-1.506188
884.593000	-4.404480
884.799000	-0.058213
885.004000	-0.132829
885.209000	-2.052353
885.414000	-1.383166
885.620000	-4.579677
885.825000	-2.149555
886.030000	-4.305603
886.235000	-5.231435
886.440000	-4.594840
886.646000	-6.960651
886.851000	-5.014318
887.056000	-0.672756
887.261000	-1.973979
887.467000	-5.823124
887.672000	-1.995519
887.877000	-3.560501
888.082000	-7.014394
888.288000	-6.910973
888.493000	-8.589334
888.698000	-6.989322
888.903000	-3.061735
889.109000	-5.102824
889.314000	-2.111627
889.519000	-3.830433
889.724000	-1.792202
889.929000	-3.368239
890.135000	-3.061664
890.340000	-2.766522
890.545000	-4.116107
890.750000	-4.204833
890.956000	-4.218831
891.161000	-1.579776
891.366000	-4.384667
891.571000	-4.154359
891.777000	-3.275212
891.982000	-0.467868
892.187000	-0.307848
892.392000	-0.387936
892.598000	0.016256
892.803000	-1.377598
893.008000	-4.816814
893.213000	-6.438136
893.418000	-5.660733
893.624000	-4.531461
893.829000	-6.436136
894.034000	-3.879862
894.239000	-2.565975
894.445000	-6.134101
894.650000	-4.744893
894.855000	-4.499888
895.060000	-4.074870
895.266000	-4.268978
895.471000	-4.691920
895.676000	-1.501931
895.881000	-2.791427
896.087000	-4.919989
896.292000	-5.123344
896.497000	-0.413258
896.702000	-0.840353
896.907000	-3.074597
897.113000	0.189640
897.318000	-2.050519
897.523000	-1.019324
897.728000	-2.930998
897.934000	-3.353734
898.139000	-2.929608
898.344000	-0.769905
898.549000	-1.566179
898.755000	-3.683089
898.960000	-4.947020
899.165000	-8.142305
899.370000	-2.654307
899.575000	0.464350
899.781000	-5.355185
899.986000	-4.459901
900.191000	-1.333899
900.396000	-3.591271
900.602000	-3.431281
900.807000	-4.918190
901.012000	-4.766199
901.217000	-2.010831
901.423000	-5.680889
901.628000	-7.083380
901.833000	-0.537607
902.038000	-1.942957
902.244000	-5.756978
902.449000	-4.572732
902.654000	-3.105869
902.859000	-1.870495
903.064000	-1.879461
903.270000	-1.505166
903.475000	-5.129114
903.680000	-8.552500
903.885000	-6.028713
904.091000	-4.901823
904.296000	-7.924470
904.501000	-5.038098
904.706000	-5.347030
904.912000	-1.262425
905.117000	-2.258116
905.322000	-5.471462
905.527000	-4.651038
905.733000	-4.256308
905.938000	-5.583840
906.143000	-7.271281
906.348000	-7.986583
906.553000	-1.919096
906.759000	-0.693707
906.964000	-3.977861
907.169000	-6.577759
907.374000	-8.003233
907.580000	-5.874094
907.785000	-4.397330
907.990000	26.006716
908.195000	18.600307
908.401000	-0.616731
908.606000	-10.349591
908.811000	-10.873360
909.016000	-5.098806
909.221000	-4.900935
909.427000	-4.821223
909.632000	-8.446083
909.837000	-6.427900
910.042000	-6.775424
910.248000	-9.233002
910.453000	-4.959787
910.658000	-4.439829
910.863000	-4.658075
911.069000	-8.030348
911.274000	-2.794082
911.479000	0.136030
911.684000	-7.905379
911.890000	-6.023371
912.095000	-6.487676
912.300000	-8.029384
912.506000	-7.227948
912.711000	-6.618843
912.917000	-2.892497
913.123000	-0.910550
913.328000	-3.030428
913.534000	-5.073337
913.740000	4.082364
913.946000	-1.535546
914.151000	-8.731764
914.357000	-8.266955
914.563000	-1.897106
914.768000	-7.236567
914.974000	-10.370493
915.180000	-7.137324
915.385000	-4.066475
915.591000	-10.731755
915.797000	-6.500301
916.002000	-3.764302
916.208000	-4.627619
916.414000	-5.695493
916.620000	-7.873533
916.825000	-5.342145
917.031000	-3.811416
917.237000	-10.631825
917.442000	-8.540194
917.648000	-10.046115
917.854000	-12.392486
918.059000	-6.554746
918.265000	-3.523035
918.471000	-4.862099
918.676000	-10.255373
918.882000	-11.801617
919.088000	-9.668650
919.294000	-15.306793
919.499000	-13.363064
919.705000	-7.116314
919.911000	-4.918010
920.116000	-0.943498
920.322000	-8.889845
920.528000	-10.618427
920.733000	-9.204207
920.939000	-7.815905
921.145000	-7.940508
921.350000	-10.636627
921.556000	-9.270980
921.762000	-8.522964
921.968000	-8.547285
922.173000	-10.067916
922.379000	-12.373444
922.585000	-7.850981
922.790000	-10.695065
922.996000	-9.877665
923.202000	-10.756698
923.407000	-8.530803
923.613000	-5.021265
923.819000	-4.580015
924.024000	-5.620953
924.230000	-3.350813
924.436000	-8.631110
924.642000	6.295453
924.847000	-0.126583
925.053000	-9.136022
925.259000	-10.572965
925.464000	-5.703334
925.670000	-10.314992
925.876000	-10.270427
926.081000	-11.134706
926.287000	-6.617391
926.493000	-4.258336
926.698000	-6.249364
926.904000	-5.060847
927.110000	-4.760599
927.316000	-8.598584
927.521000	-4.494030
927.727000	-6.604114
927.933000	-8.855077
928.138000	-8.378741
928.344000	-13.860350
928.550000	-10.401933
928.755000	-5.946870
928.961000	-6.637447
929.167000	-10.211196
929.372000	-3.689198
929.578000	-4.439157
929.784000	-6.635351
929.990000	-9.745228
930.195000	-10.315870
930.401000	-6.184358
930.607000	-6.199266
930.812000	-8.297086
931.018000	-11.307028
931.224000	-16.358523
931.429000	-11.131519
931.635000	-12.051948
931.841000	-11.788360
932.046000	-8.571829
932.252000	-1.500558
932.458000	4.503540
932.664000	-2.905287
932.869000	-9.786120
933.075000	-13.216158
933.281000	-14.407566
933.486000	-5.042098
933.692000	-8.332455
933.898000	-16.381795
934.103000	-5.931613
934.309000	-6.687093
934.515000	-1.453452
934.720000	-6.605904
934.926000	-5.579924
935.132000	-4.069265
935.338000	-7.395286
935.543000	-13.271674
935.749000	-13.620173
935.955000	-18.408823
936.160000	-16.345558
936.366000	-5.911331
936.572000	-7.196010
936.777000	-6.866457
936.983000	-5.926667
937.189000	-6.454846
937.394000	-13.377098
937.600000	-3.384325
937.806000	4.989949
938.012000	-7.226721
938.217000	5.359292
938.423000	-0.712880
938.629000	-12.426282
938.834000	-20.209076
939.040000	-20.908513
939.246000	-14.843353
939.451000	-16.353583
939.657000	-12.239469
939.863000	-13.225567
940.068000	-2.408076
940.274000	-9.036929
940.480000	-11.111421
940.686000	-9.040140
940.891000	-12.910567
941.097000	18.685598
941.303000	3.509097
941.508000	-14.118499
941.714000	-7.213998
941.920000	-21.159388
942.125000	-15.639228
942.331000	-11.545971
942.537000	-2.319341
942.742000	-0.240298
942.948000	-13.458630
943.154000	-18.843114
943.360000	-34.877594
943.565000	-20.161364
943.771000	0.680501
943.977000	0.983056
944.182000	-18.339399
944.388000	-16.570947
944.594000	-6.492285
944.799000	-0.252236
945.005000	-5.518288
945.211000	0.684059
945.416000	-4.672852
945.622000	-17.346099
945.828000	-17.533252
946.034000	-4.812679
946.239000	-4.839546
946.445000	-14.423400
946.651000	-27.173145
946.856000	-26.921212
947.062000	-6.061071
947.268000	-3.506304
947.473000	-26.664911
947.679000	-31.746686
947.885000	-7.829720
948.090000	0.728201
948.296000	11.511693
948.502000	-6.900445
948.708000	-19.008050
948.913000	-23.297303
949.119000	-2.978795
949.325000	-9.754968
949.530000	-22.640934
949.736000	-29.993904
949.942000	-21.465297
950.147000	-23.993790
950.353000	-25.134164
950.559000	-20.779442
950.764000	6.176617
950.970000	-1.298416
951.176000	-17.904847
951.382000	-22.601217
951.587000	-10.589819
951.793000	2.933239
951.999000	2.891536
952.204000	-13.815656
952.410000	-30.631780
952.616000	-16.737330
952.821000	-14.378975
953.027000	-18.993463
953.233000	-22.928664
953.438000	-22.007938
953.644000	-1.013096
953.850000	-6.444700
954.056000	-21.148606
954.261000	-19.071036
954.467000	-3.985517
954.673000	3.756225
954.878000	-11.750823
955.084000	-11.025382
955.290000	-22.956907
955.495000	-31.592813
955.701000	-28.164427
955.907000	-4.464747
956.112000	-11.276533
956.318000	-3.675414
956.524000	-7.890747
956.730000	-15.721458
956.935000	-18.860982
957.141000	-22.571528
957.347000	-11.607742
957.552000	-18.210548
957.758000	-34.187699
957.964000	-42.008439
958.169000	-3.082905
958.375000	0.872231
958.581000	-15.856525
958.786000	-29.166289
958.992000	-29.187655
959.198000	-10.915638
959.404000	-8.847618
959.609000	-14.784289
959.815000	-20.812029
960.021000	0.082656
960.226000	-12.841763
960.432000	-31.805627
960.638000	-17.738195
960.843000	-14.284679
961.049000	-20.189977
961.255000	-11.886844
961.460000	-25.322970
961.666000	-41.583644
961.872000	-31.496235
962.078000	-30.060619
962.283000	-33.630159
962.489000	-35.107489
962.695000	-26.235041
962.900000	-16.289969
963.106000	-14.676417
963.312000	-32.091211
963.517000	-35.051446
963.723000	-29.463359
963.929000	-12.317879
964.134000	-1.743147
964.340000	-17.997536
964.546000	-24.610773
964.752000	-29.545449
964.957000	-39.290601
965.163000	-3.252419
965.369000	-8.625437
965.574000	-14.589525
965.780000	-11.661762
966.000000	-23.930994
966.220000	-17.167627
966.440000	-14.282871
966.661000	-9.379927
966.881000	-26.424592
967.101000	-46.761785
967.321000	-51.033099
967.541000	-23.222682
967.761000	-27.594846
967.981000	-21.937756
968.202000	-20.356731
968.422000	-4.635531
968.642000	-4.096126
968.862000	-6.326214
969.082000	-12.853309
969.302000	0.111528
969.522000	-13.044496
969.743000	-2.028135
969.963000	-24.437856
970.183000	-41.619219
970.403000	-40.779842
970.623000	-32.213029
970.843000	-12.848730
971.063000	-11.902554
971.284000	-27.519159
971.504000	-42.985528
971.724000	-25.030666
971.944000	-31.828379
972.164000	-39.173873
972.384000	-36.371192
972.604000	-51.815447
972.825000	-60.069469
973.045000	-42.155895
973.265000	14.089931
973.485000	0.742281
973.705000	-15.426487
973.925000	-26.394435
974.145000	-64.894861
974.365000	-17.332131
974.586000	-16.132683
974.806000	-33.183574
975.026000	-3.134935
975.246000	-23.799468
975.466000	-38.821890
975.686000	-20.020814
975.906000	-21.992651
976.127000	-49.634955
976.347000	-50.062775
976.567000	-30.421789
976.787000	-26.428762
977.007000	-30.484467
977.227000	-36.021662
977.447000	-41.747335
977.668000	-58.144250
977.888000	-47.273976
978.108000	-56.080756
978.328000	-35.789818
978.548000	9.535156
978.768000	8.977069
978.988000	-7.533386
979.209000	-31.986294
979.429000	-29.861478
979.649000	-18.658765
979.869000	-46.918174
980.089000	-59.536718
980.309000	-59.198491
980.529000	-68.550857
980.750000	-45.653657
980.970000	-65.335163
981.190000	-51.035507
981.410000	-52.368264
981.630000	-60.057287
981.850000	-40.737687
982.070000	-20.609683
982.291000	-58.775071
982.511000	-54.876406
982.731000	1.937559
982.951000	-39.663152
983.171000	-58.843725
983.391000	-35.977938
983.611000	-3.395436
983.832000	-44.552861
984.052000	-51.645261
984.272000	-30.824232
984.492000	-28.544337
984.712000	-42.679875
984.932000	-60.365048
985.152000	-65.111826
985.373000	-54.253921
985.593000	-33.590990
985.813000	-44.855316
986.033000	-52.727527
986.253000	12.417947
986.473000	10.840331
986.693000	-51.623322
986.914000	-68.632293
987.134000	-13.350148
987.354000	-53.902293
987.574000	184.353030
987.794000	115.456415
988.014000	-56.915884
988.234000	-29.896128
988.455000	-16.675270
988.675000	-2.038226
988.895000	-22.030690
989.115000	-49.585965
989.335000	-36.682203
989.555000	-17.041500
989.775000	-57.816508
989.995000	-57.962480
990.216000	-44.974558
990.436000	-24.532049
990.656000	-7.234977
990.876000	-44.736035
991.096000	-22.158564
991.316000	3.946479
991.536000	-38.670698
991.757000	-54.660996
991.977000	-120.740200
992.197000	-61.667459
992.417000	-63.055030
992.637000	-106.154013
992.857000	-121.395747
993.077000	-99.813845
993.298000	-72.650314
993.518000	-63.480484
993.738000	-124.606392
993.958000	-84.515722
994.178000	-84.180660
994.398000	-58.037014
994.618000	-115.108422
994.839000	-182.541419
995.059000	-53.709120
995.279000	12.831595
995.499000	-45.379451
995.719000	-14.877676
995.939000	-40.772740
996.159000	-61.415594
996.380000	-40.626702
996.600000	-86.482244
996.820000	-43.628142
997.040000	-17.883952
997.260000	-109.117230
997.480000	-82.395208
997.700000	-137.178219
997.921000	-65.010384
998.141000	20.386425
998.361000	-16.538430
998.581000	-83.393387
998.801000	-131.822312
999.021000	-95.073046
999.241000	-62.887054
999.462000	-89.443700
999.682000	-113.392697
999.902000	-88.522204
1000.122000	-122.949430
1000.342000	-189.449065
1000.562000	-97.616253
1000.782000	-111.162156
1001.003000	-1228.319619
