Wavelength	Irradiance
(nm)	(mW/cm2/nm)

294.396000	0.000000
294.577000	0.000000
294.757000	0.000000
294.938000	-0.000000
295.118000	-0.000000
295.299000	0.000000
295.479000	-0.000000
295.660000	-0.000000
295.840000	-0.000000
296.021000	-0.000000
296.202000	-0.000000
296.382000	-0.000000
296.563000	-0.000000
296.743000	-0.000000
296.924000	0.000000
297.104000	-0.000000
297.285000	-0.000000
297.465000	-0.000000
297.646000	-0.000000
297.826000	-0.000000
298.007000	0.000000
298.187000	-0.000000
298.368000	-0.000000
298.548000	0.000000
298.729000	0.000000
298.909000	-0.000000
299.090000	-0.000000
299.270000	-0.000000
299.451000	-0.000000
299.631000	-0.000000
299.812000	-0.000000
299.992000	0.000000
300.173000	0.000000
300.353000	-0.000000
300.534000	0.000000
300.714000	0.000000
300.895000	0.000000
301.075000	-0.000000
301.256000	0.000000
301.436000	-0.000000
301.617000	-0.000000
301.797000	-0.000000
301.978000	-0.000000
302.159000	0.000000
302.339000	0.000000
302.520000	-0.000000
302.700000	-0.000000
302.881000	0.000000
303.061000	0.000000
303.242000	0.000000
303.422000	0.000000
303.603000	-0.000000
303.783000	-0.000000
303.964000	-0.000000
304.144000	-0.000000
304.325000	-0.000000
304.505000	-0.000000
304.686000	-0.000000
304.866000	0.000000
305.047000	-0.000000
305.227000	-0.000000
305.408000	-0.000000
305.588000	-0.000000
305.769000	-0.000000
305.949000	-0.000000
306.130000	-0.000000
306.310000	-0.000000
306.491000	-0.000000
306.671000	0.000000
306.852000	-0.000000
307.032000	-0.000000
307.213000	-0.000000
307.393000	-0.000000
307.574000	0.000000
307.755000	0.000000
307.935000	0.000000
308.116000	-0.000000
308.296000	-0.000000
308.477000	0.000000
308.657000	0.000000
308.838000	0.000000
309.018000	0.000000
309.199000	-0.000000
309.379000	-0.000000
309.560000	0.000000
309.740000	-0.000000
309.921000	0.000000
310.101000	0.000000
310.282000	-0.000000
310.462000	-0.000000
310.643000	-0.000000
310.823000	-0.000000
311.004000	-0.000000
311.184000	-0.000000
311.365000	0.000000
311.545000	0.000000
311.726000	0.000000
311.906000	0.000000
312.087000	0.000000
312.267000	-0.000000
312.448000	-0.000000
312.628000	-0.000000
312.809000	-0.000000
312.989000	-0.000000
313.170000	-0.000000
313.344000	-0.000000
313.518000	-0.000000
313.691000	-0.000000
313.865000	-0.000000
314.039000	-0.000000
314.213000	-0.000000
314.387000	-0.000000
314.560000	-0.000000
314.734000	-0.000000
314.908000	-0.000000
315.082000	-0.000000
315.255000	0.000000
315.429000	0.000000
315.603000	0.000000
315.777000	-0.000000
315.951000	0.000000
316.124000	-0.000000
316.298000	-0.000000
316.472000	-0.000000
316.646000	-0.000000
316.820000	-0.000000
316.993000	0.000000
317.167000	-0.000000
317.341000	-0.000000
317.515000	-0.000000
317.688000	-0.000000
317.862000	-0.000000
318.036000	-0.000000
318.210000	-0.000000
318.384000	-0.000000
318.557000	-0.000000
318.731000	-0.000000
318.905000	-0.000000
319.079000	-0.000000
319.253000	-0.000000
319.426000	0.000000
319.600000	0.000000
319.774000	-0.000000
319.948000	-0.000000
320.122000	0.000000
320.295000	-0.000000
320.469000	-0.000000
320.643000	-0.000000
320.817000	-0.000000
320.990000	-0.000000
321.164000	-0.000000
321.338000	-0.000000
321.512000	-0.000000
321.686000	-0.000000
321.859000	-0.000000
322.033000	-0.000000
322.207000	-0.000000
322.381000	-0.000000
322.555000	0.000000
322.728000	0.000000
322.902000	-0.000000
323.076000	-0.000000
323.250000	-0.000000
323.423000	-0.000000
323.597000	-0.000000
323.771000	-0.000000
323.945000	-0.000000
324.119000	-0.000000
324.292000	0.000000
324.466000	-0.000000
324.640000	0.000000
324.814000	0.000000
324.988000	-0.000000
325.161000	-0.000000
325.335000	-0.000000
325.509000	-0.000000
325.683000	-0.000000
325.856000	-0.000000
326.030000	-0.000000
326.204000	-0.000000
326.378000	-0.000000
326.552000	-0.000000
326.725000	-0.000000
326.899000	-0.000000
327.073000	-0.000000
327.247000	-0.000000
327.421000	0.000000
327.594000	0.000000
327.768000	-0.000000
327.942000	-0.000000
328.116000	0.000000
328.289000	0.000000
328.463000	-0.000000
328.637000	0.000000
328.811000	-0.000000
328.985000	-0.000000
329.158000	-0.000000
329.332000	-0.000000
329.506000	0.000000
329.680000	-0.000000
329.854000	-0.000000
330.027000	-0.000000
330.201000	0.000000
330.375000	0.000000
330.549000	0.000000
330.723000	-0.000000
330.896000	-0.000000
331.070000	-0.000000
331.244000	-0.000000
331.418000	-0.000000
331.591000	-0.000000
331.765000	-0.000000
331.939000	-0.000000
332.113000	-0.000000
332.287000	-0.000000
332.460000	0.000000
332.634000	0.000000
332.808000	-0.000000
332.982000	-0.000000
333.156000	-0.000000
333.329000	-0.000000
333.503000	-0.000000
333.677000	-0.000000
333.851000	-0.000000
334.024000	-0.000000
334.198000	-0.000000
334.372000	-0.000000
334.546000	-0.000000
334.720000	-0.000000
334.893000	-0.000000
335.067000	0.000000
335.241000	0.000000
335.415000	-0.000000
335.589000	-0.000000
335.762000	-0.000000
335.936000	-0.000000
336.110000	-0.000000
336.284000	-0.000000
336.458000	-0.000000
336.631000	-0.000000
336.805000	-0.000000
336.979000	-0.000000
337.153000	-0.000000
337.326000	-0.000000
337.500000	-0.000000
337.674000	-0.000000
337.848000	-0.000000
338.022000	-0.000000
338.195000	-0.000000
338.369000	-0.000000
338.543000	-0.000000
338.717000	-0.000000
338.891000	0.000000
339.064000	0.000000
339.238000	-0.000000
339.412000	-0.000000
339.586000	-0.000000
339.759000	-0.000000
339.933000	-0.000000
340.107000	0.000000
340.281000	-0.000000
340.455000	-0.000000
340.628000	-0.000000
340.802000	-0.000000
340.976000	-0.000000
341.150000	-0.000000
341.324000	-0.000000
341.497000	-0.000000
341.671000	-0.000000
341.845000	-0.000000
342.019000	-0.000000
342.192000	-0.000000
342.366000	-0.000000
342.540000	-0.000000
342.714000	-0.000000
342.888000	-0.000000
343.061000	-0.000000
343.235000	-0.000000
343.409000	-0.000000
343.583000	-0.000000
343.757000	-0.000000
343.930000	-0.000000
344.104000	-0.000000
344.278000	0.000000
344.452000	0.000000
344.626000	-0.000000
344.799000	-0.000000
344.973000	-0.000000
345.147000	-0.000000
345.321000	-0.000000
345.494000	-0.000000
345.668000	0.000000
345.842000	0.000000
346.016000	-0.000000
346.190000	0.000000
346.363000	0.000000
346.537000	-0.000000
346.711000	-0.000000
346.885000	-0.000000
347.059000	-0.000000
347.232000	0.000000
347.406000	0.000000
347.580000	-0.000000
347.754000	-0.000000
347.927000	0.000000
348.101000	0.000000
348.275000	-0.000000
348.449000	-0.000000
348.623000	-0.000000
348.796000	-0.000000
348.970000	0.000000
349.144000	-0.000000
349.318000	-0.000000
349.492000	-0.000000
349.665000	-0.000000
349.839000	-0.000000
350.013000	-0.000000
350.187000	-0.000000
350.361000	-0.000000
350.534000	-0.000000
350.708000	-0.000000
350.882000	-0.000000
351.056000	0.000000
351.229000	-0.000000
351.403000	-0.000000
351.577000	-0.000000
351.751000	-0.000000
351.925000	-0.000000
352.098000	-0.000000
352.272000	-0.000000
352.446000	-0.000000
352.620000	-0.000000
352.794000	-0.000000
352.967000	-0.000000
353.141000	0.000000
353.315000	0.000000
353.489000	-0.000000
353.662000	-0.000000
353.836000	-0.000000
354.010000	-0.000000
354.184000	-0.000000
354.358000	-0.000000
354.531000	-0.000000
354.705000	-0.000000
354.879000	-0.000000
355.053000	-0.000000
355.227000	0.000000
355.400000	-0.000000
355.574000	0.000000
355.748000	0.000000
355.922000	-0.000000
356.095000	-0.000000
356.269000	-0.000000
356.443000	-0.000000
356.617000	-0.000000
356.791000	-0.000000
356.964000	-0.000000
357.138000	-0.000000
357.312000	-0.000000
357.486000	-0.000000
357.660000	-0.000000
357.833000	0.000000
358.007000	-0.000000
358.181000	-0.000000
358.355000	-0.000000
358.529000	-0.000000
358.702000	-0.000000
358.876000	-0.000000
359.050000	-0.000000
359.224000	-0.000000
359.397000	-0.000000
359.571000	-0.000000
359.745000	-0.000000
359.919000	-0.000000
360.093000	-0.062924
360.266000	0.015349
360.440000	0.069357
360.614000	0.094583
360.788000	-0.003656
360.962000	-0.232738
361.135000	-0.135165
361.309000	-0.201183
361.483000	-0.303022
361.657000	-0.241348
361.830000	-0.216623
362.004000	-0.053148
362.178000	-0.399378
362.352000	-0.288731
362.526000	-0.071989
362.699000	-0.069384
362.873000	-0.392278
363.047000	-0.349325
363.221000	-0.353998
363.395000	-0.198794
363.568000	-0.206387
363.742000	-0.229808
363.916000	-0.220396
364.090000	-0.341403
364.263000	-0.294146
364.437000	-0.353959
364.611000	-0.088746
364.785000	-0.106885
364.959000	-0.272565
365.132000	-0.227231
365.306000	-0.255158
365.480000	-0.147683
365.656000	-0.245695
365.831000	-0.222451
366.007000	-0.206054
366.183000	-0.158458
366.358000	-0.280207
366.534000	-0.156674
366.710000	-0.352933
366.886000	-0.296395
367.061000	-0.126216
367.237000	0.028157
367.413000	-0.117041
367.588000	-0.338644
367.764000	-0.324449
367.940000	-0.329806
368.115000	-0.257137
368.291000	-0.293283
368.467000	-0.192579
368.643000	0.122880
368.818000	-0.261375
368.994000	-0.399648
369.170000	-0.308780
369.345000	-0.244345
369.521000	-0.273754
369.697000	-0.155953
369.872000	-0.265444
370.048000	-0.352092
370.224000	-0.294128
370.399000	-0.464865
370.575000	-0.362454
370.751000	-0.444018
370.927000	-0.431971
371.102000	-0.417028
371.278000	-0.342070
371.454000	-0.229731
371.629000	0.000000
371.805000	-0.066416
371.981000	0.088113
372.156000	0.261006
372.332000	0.043549
372.508000	-0.041357
372.683000	-0.049920
372.859000	-0.156742
373.035000	-0.192800
373.211000	0.169464
373.386000	-0.053861
373.562000	-0.400977
373.738000	-0.486977
373.913000	-0.640668
374.089000	-0.466940
374.265000	-0.046287
374.440000	-0.061761
374.616000	-0.037578
374.792000	-0.255902
374.968000	0.172801
375.143000	-0.039802
375.319000	-0.297269
375.495000	-0.403745
375.670000	-0.237966
375.846000	-0.111110
376.022000	-0.308373
376.197000	-0.274656
376.373000	-0.427759
376.549000	-0.417562
376.724000	-0.506507
376.900000	-0.344176
377.076000	-0.179225
377.252000	0.065706
377.427000	0.150929
377.603000	-0.235726
377.779000	-0.238725
377.954000	-0.392781
378.130000	-0.218806
378.306000	-0.148730
378.481000	-0.185509
378.657000	-0.266116
378.833000	-0.285665
379.009000	-0.166567
379.184000	-0.040372
379.360000	-0.122913
379.536000	-0.122491
379.711000	-0.202173
379.887000	-0.278593
380.063000	-0.317053
380.238000	-0.385441
380.414000	-0.114401
380.590000	-0.320541
380.765000	-0.336822
380.941000	-0.116713
381.117000	-0.086270
381.293000	-0.160849
381.468000	-0.346018
381.644000	-0.276129
381.820000	-0.154484
381.995000	-0.028623
382.171000	0.189807
382.347000	0.130693
382.522000	-0.285626
382.698000	0.061100
382.874000	0.087966
383.050000	-0.327064
383.225000	0.051333
383.401000	0.221745
383.577000	-0.164248
383.752000	-0.271292
383.928000	-0.186095
384.104000	-0.106940
384.279000	-0.206819
384.455000	-0.118056
384.631000	-0.178751
384.806000	-0.395168
384.982000	-0.202915
385.158000	-0.270047
385.334000	-0.117563
385.509000	-0.171458
385.685000	-0.473935
385.861000	-0.312657
386.036000	-0.402684
386.212000	-0.542460
386.388000	-0.340653
386.563000	-0.287054
386.739000	-0.368949
386.915000	-0.591474
387.090000	-0.304706
387.266000	-0.088975
387.442000	0.016932
387.618000	-0.097988
387.793000	-0.403793
387.969000	-0.526355
388.145000	-0.440421
388.320000	-0.386298
388.496000	-0.353796
388.672000	-0.573927
388.847000	-0.119806
389.023000	-0.064495
389.199000	-0.419995
389.375000	-0.243125
389.550000	-0.346066
389.726000	-0.218394
389.902000	-0.413611
390.077000	-0.220037
390.253000	-0.158494
390.429000	-0.246129
390.604000	-0.149988
390.780000	-0.113314
390.956000	-0.263270
391.131000	-0.290138
391.307000	0.013695
391.483000	-0.203984
391.659000	-0.362605
391.834000	-0.155907
392.010000	-0.318220
392.186000	-0.358201
392.361000	-0.289098
392.537000	-0.398944
392.713000	0.052533
392.888000	0.182114
393.064000	-0.123198
393.240000	-0.274133
393.416000	-0.358342
393.591000	-0.413650
393.767000	-0.463783
393.943000	-0.356193
394.118000	-0.065250
394.294000	0.098476
394.470000	-0.057075
394.645000	0.037047
394.821000	0.246196
394.997000	-0.100510
395.172000	-0.151285
395.348000	-0.238578
395.524000	-0.517583
395.700000	-0.399431
395.875000	-0.177598
396.051000	-0.176062
396.227000	-0.233872
396.402000	-0.320969
396.578000	-0.210798
396.754000	-0.335447
396.929000	-0.331339
397.105000	-0.048194
397.281000	-0.121097
397.457000	-0.270053
397.632000	-0.271061
397.808000	-0.505497
397.984000	-0.647003
398.159000	-0.532540
398.335000	-0.333075
398.511000	0.139711
398.686000	-0.083997
398.862000	-0.349122
399.038000	-0.460883
399.213000	-0.240825
399.389000	-0.542926
399.565000	-0.240622
399.741000	0.025570
399.916000	-0.025817
400.092000	0.206807
400.268000	-0.152874
400.443000	-0.291345
400.619000	0.065623
400.795000	-0.047784
400.970000	-0.254875
401.146000	-0.319840
401.322000	0.011592
401.497000	0.395128
401.673000	0.073741
401.849000	-0.237251
402.025000	-0.056494
402.200000	-0.189507
402.376000	-0.290536
402.552000	0.127233
402.727000	-0.061400
402.903000	-0.404644
403.079000	-0.284847
403.254000	-0.014063
403.430000	-0.024128
403.606000	-0.118296
403.782000	-0.144826
403.957000	-0.377109
404.133000	-0.544134
404.309000	-0.342214
404.484000	-0.111968
404.660000	-0.123763
404.841000	-0.246402
405.023000	-0.019046
405.204000	-0.066220
405.385000	-0.383790
405.566000	-0.412629
405.748000	-0.276668
405.929000	-0.045264
406.110000	-0.104821
406.292000	-0.246781
406.473000	-0.158584
406.654000	-0.336312
406.835000	-0.164395
407.017000	-0.215827
407.198000	-0.208397
407.379000	-0.175272
407.560000	-0.207217
407.742000	-0.235402
407.923000	-0.192167
408.104000	-0.336911
408.286000	-0.188339
408.467000	-0.161394
408.648000	-0.376906
408.829000	-0.415911
409.011000	-0.299073
409.192000	-0.459859
409.373000	-0.221397
409.555000	-0.088574
409.736000	-0.119402
409.917000	-0.242214
410.098000	-0.229332
410.280000	-0.126899
410.461000	-0.144060
410.642000	-0.155524
410.823000	0.068406
411.005000	-0.004981
411.186000	-0.230539
411.367000	-0.331764
411.549000	-0.347726
411.730000	-0.058561
411.911000	0.055975
412.092000	-0.125257
412.274000	-0.193240
412.455000	-0.134438
412.636000	-0.102463
412.818000	-0.300021
412.999000	-0.394473
413.180000	-0.308392
413.361000	-0.275010
413.543000	-0.309113
413.724000	-0.398861
413.905000	-0.375626
414.087000	-0.414421
414.268000	-0.391689
414.449000	-0.369337
414.630000	-0.467125
414.812000	-0.573289
414.993000	-0.229277
415.174000	-0.070023
415.355000	-0.225944
415.537000	-0.448679
415.718000	-0.199752
415.899000	-0.302960
416.081000	-0.409899
416.262000	-0.200330
416.443000	-0.333844
416.624000	-0.274575
416.806000	-0.168650
416.987000	-0.049275
417.168000	-0.125437
417.350000	-0.311728
417.531000	-0.377523
417.712000	-0.358499
417.893000	-0.117478
418.075000	-0.011822
418.256000	-0.247797
418.437000	-0.167847
418.618000	-0.085400
418.800000	-0.016580
418.981000	-0.234497
419.162000	-0.218938
419.344000	0.004714
419.525000	-0.098342
419.706000	-0.193343
419.887000	-0.065108
420.069000	0.063857
420.250000	-0.056746
420.431000	-0.090809
420.613000	-0.170630
420.794000	-0.394142
420.975000	-0.017624
421.156000	-0.173044
421.338000	-0.274057
421.519000	-0.255186
421.700000	-0.303121
421.882000	-0.320756
422.063000	-0.136458
422.244000	0.333568
422.425000	0.091641
422.607000	-0.254056
422.788000	-0.287146
422.969000	-0.347355
423.150000	-0.338359
423.332000	-0.414701
423.513000	-0.225640
423.694000	-0.173663
423.876000	-0.151936
424.057000	-0.062433
424.238000	-0.018919
424.419000	-0.047434
424.601000	-0.205127
424.782000	-0.162277
424.963000	0.025843
425.145000	-0.093053
425.326000	-0.066851
425.507000	-0.011711
425.688000	-0.130653
425.870000	-0.289527
426.051000	-0.375570
426.232000	-0.315688
426.413000	-0.265604
426.595000	-0.297094
426.776000	-0.345080
426.957000	-0.248728
427.139000	-0.196028
427.320000	-0.192179
427.501000	-0.062731
427.682000	-0.084803
427.864000	-0.094172
428.045000	0.095628
428.226000	0.031990
428.408000	-0.293554
428.589000	-0.157940
428.770000	-0.156405
428.951000	-0.275886
429.133000	-0.403817
429.314000	-0.243119
429.495000	-0.244642
429.677000	-0.215112
429.858000	-0.231730
430.039000	-0.187476
430.220000	-0.090239
430.402000	0.003505
430.583000	-0.265817
430.764000	-0.253095
430.945000	-0.100501
431.127000	-0.013923
431.308000	-0.169777
431.489000	-0.042970
431.671000	0.059471
431.852000	-0.081081
432.033000	-0.183032
432.214000	-0.084400
432.396000	-0.031134
432.577000	-0.202239
432.758000	-0.377743
432.940000	-0.297473
433.121000	-0.175751
433.302000	-0.140596
433.483000	0.025303
433.665000	0.132338
433.846000	0.002301
434.027000	-0.140630
434.208000	-0.198679
434.390000	-0.244107
434.571000	0.153635
434.752000	0.621385
434.934000	0.424439
435.115000	0.305225
435.296000	0.391333
435.477000	0.212623
435.659000	-0.044763
435.840000	0.012347
436.026000	-0.022383
436.211000	-0.173281
436.397000	-0.427665
436.582000	-0.309625
436.768000	-0.080125
436.953000	-0.176702
437.139000	-0.170773
437.325000	0.093844
437.510000	0.008831
437.696000	0.169548
437.881000	0.142899
438.067000	-0.203284
438.252000	-0.166249
438.438000	-0.169410
438.624000	-0.159581
438.809000	-0.118653
438.995000	-0.051103
439.180000	-0.126820
439.366000	-0.159172
439.551000	-0.149228
439.737000	-0.118708
439.923000	-0.063754
440.108000	-0.130578
440.294000	-0.101130
440.479000	0.019297
440.665000	0.073490
440.850000	-0.015887
441.036000	-0.013800
441.222000	-0.091682
441.407000	-0.219924
441.593000	-0.074050
441.778000	0.047494
441.964000	0.127191
442.149000	-0.197452
442.335000	-0.244786
442.521000	-0.136425
442.706000	0.029265
442.892000	-0.052146
443.077000	-0.127662
443.263000	-0.015631
443.448000	-0.077803
443.634000	-0.172326
443.820000	0.151630
444.005000	0.040202
444.191000	-0.213825
444.376000	-0.188145
444.562000	0.171666
444.747000	0.140721
444.933000	0.013315
445.119000	-0.079698
445.304000	-0.129524
445.490000	0.017345
445.675000	0.000000
445.861000	-0.168716
446.046000	-0.153043
446.232000	-0.075397
446.418000	-0.032568
446.603000	-0.026459
446.789000	-0.030496
446.974000	-0.062196
447.160000	-0.255001
447.345000	-0.181910
447.531000	-0.211033
447.717000	-0.029461
447.902000	0.025504
448.088000	0.075049
448.273000	-0.011099
448.459000	-0.037226
448.644000	-0.108719
448.830000	-0.188949
449.016000	-0.279654
449.201000	-0.199614
449.387000	-0.079823
449.572000	0.004030
449.758000	-0.101680
449.943000	-0.204659
450.129000	-0.218905
450.315000	-0.188426
450.500000	-0.226709
450.686000	-0.157781
450.871000	-0.264562
451.057000	-0.107451
451.243000	-0.113346
451.428000	-0.144635
451.614000	-0.122248
451.799000	-0.154221
451.985000	0.036036
452.170000	0.081003
452.356000	-0.117920
452.542000	-0.133069
452.727000	0.007979
452.913000	-0.090911
453.098000	0.071922
453.284000	0.203702
453.469000	0.036990
453.655000	0.150696
453.841000	0.068753
454.026000	-0.103174
454.212000	-0.052428
454.397000	-0.018820
454.583000	-0.182851
454.768000	-0.276259
454.954000	-0.061241
455.140000	-0.002958
455.325000	-0.160363
455.511000	-0.243195
455.696000	-0.198727
455.882000	-0.067081
456.067000	0.116460
456.253000	-0.078961
456.439000	-0.215137
456.624000	-0.207544
456.810000	-0.208935
456.995000	-0.159123
457.181000	-0.231197
457.366000	-0.056530
457.552000	-0.018443
457.738000	0.062053
457.923000	0.024282
458.109000	0.185105
458.294000	0.112898
458.480000	0.059442
458.665000	0.010687
458.851000	-0.111533
459.037000	-0.286129
459.222000	-0.127178
459.408000	-0.113692
459.593000	-0.055613
459.779000	0.054479
459.964000	0.205853
460.150000	0.363519
460.336000	0.227088
460.521000	0.041868
460.707000	-0.087339
460.892000	-0.186657
461.078000	0.017095
461.263000	0.086983
461.449000	-0.083498
461.635000	-0.064452
461.820000	-0.032162
462.006000	0.055572
462.191000	0.047860
462.377000	-0.159065
462.562000	0.137045
462.748000	0.330508
462.934000	-0.074054
463.119000	-0.241665
463.305000	-0.052029
463.490000	-0.103554
463.676000	-0.033370
463.861000	-0.060515
464.047000	-0.098373
464.233000	-0.019361
464.418000	-0.048811
464.604000	-0.159895
464.789000	0.024830
464.975000	0.044918
465.160000	-0.073459
465.346000	-0.036709
465.532000	-0.127748
465.717000	-0.143140
465.903000	0.077868
466.088000	0.019214
466.274000	-0.166586
466.459000	-0.181360
466.645000	0.164272
466.831000	0.131499
467.016000	0.170216
467.202000	0.057296
467.387000	-0.058949
467.573000	-0.214972
467.758000	0.094440
467.944000	-0.013485
468.130000	-0.149105
468.315000	0.004521
468.501000	0.150456
468.686000	0.044937
468.872000	0.051246
469.057000	0.095274
469.243000	0.014401
469.429000	-0.046769
469.614000	-0.139970
469.800000	-0.178557
469.985000	-0.005367
470.171000	0.083767
470.356000	-0.038461
470.542000	0.040405
470.728000	0.031317
470.913000	0.001781
471.099000	0.118333
471.284000	0.000896
471.470000	-0.050252
471.655000	-0.029617
471.841000	-0.051890
472.027000	-0.105004
472.212000	0.128250
472.398000	0.181390
472.583000	0.055459
472.769000	0.047497
472.954000	0.054581
473.140000	-0.113150
473.326000	-0.154332
473.511000	0.163812
473.697000	0.182723
473.882000	0.027745
474.068000	-0.043939
474.253000	-0.132144
474.439000	-0.050974
474.625000	0.041955
474.810000	0.048238
474.996000	0.039305
475.181000	-0.114808
475.367000	0.041873
475.552000	0.287610
475.738000	-0.013364
475.924000	-0.027681
476.109000	0.066051
476.295000	-0.039295
476.480000	0.007152
476.666000	0.003570
476.851000	0.033009
477.037000	0.067261
477.223000	-0.042878
477.408000	-0.103650
477.594000	-0.179431
477.779000	-0.031308
477.965000	-0.017897
478.151000	-0.129725
478.336000	0.018805
478.522000	-0.046454
478.707000	-0.084859
478.893000	0.000000
479.078000	-0.147159
479.264000	-0.135528
479.450000	-0.044895
479.635000	0.111189
479.821000	0.021558
480.006000	0.062830
480.192000	0.073531
480.377000	0.076387
480.563000	0.080801
480.749000	-0.113195
480.934000	-0.073588
481.120000	0.070636
481.305000	0.161613
481.491000	0.162271
481.676000	0.192289
481.862000	0.193633
482.048000	0.044788
482.233000	0.097522
482.419000	0.110297
482.604000	0.054756
482.790000	0.029623
482.975000	0.106921
483.161000	0.285762
483.347000	0.270994
483.532000	0.217375
483.718000	-0.007180
483.903000	0.062015
484.089000	0.106695
484.274000	0.000895
484.460000	0.146208
484.646000	0.216191
484.831000	0.118497
485.017000	0.163764
485.202000	0.188463
485.388000	0.427555
485.573000	0.447202
485.759000	0.250960
485.945000	0.387684
486.130000	0.242788
486.316000	0.235738
486.501000	0.325064
486.687000	0.157412
486.872000	0.118388
487.058000	0.320662
487.244000	0.334230
487.429000	0.154633
487.615000	0.342210
487.800000	0.463017
487.986000	0.349704
488.171000	0.453448
488.357000	0.389124
488.543000	0.374490
488.728000	0.455704
488.914000	0.391613
489.099000	0.321740
489.285000	0.330319
489.470000	0.489408
489.656000	0.535497
489.842000	0.540450
490.027000	0.615661
490.213000	0.465360
490.398000	0.169244
490.584000	0.441297
490.769000	0.488484
490.955000	0.537365
491.141000	0.571867
491.326000	0.550784
491.512000	0.694446
491.697000	0.594393
491.883000	0.463071
492.068000	0.426770
492.254000	0.457016
492.440000	0.527812
492.625000	0.490815
492.811000	0.507070
492.996000	0.626078
493.182000	0.623224
493.367000	0.487258
493.553000	0.434003
493.739000	0.508156
493.924000	0.630972
494.110000	0.665014
494.295000	0.560336
494.481000	0.670662
494.666000	0.702852
494.852000	0.900267
495.038000	0.780567
495.223000	0.655150
495.409000	0.688596
495.594000	0.695719
495.780000	0.779155
495.965000	0.708262
496.151000	0.908552
496.337000	1.019251
496.522000	0.816825
496.708000	0.898961
496.893000	1.048729
497.079000	0.893246
497.264000	0.870353
497.450000	0.930037
497.636000	1.044591
497.821000	0.933540
498.007000	1.166324
498.192000	1.237774
498.378000	1.093979
498.563000	1.038340
498.749000	1.124318
498.935000	1.130251
499.120000	1.214629
499.306000	1.091851
499.491000	1.098191
499.677000	1.238885
499.862000	1.319877
500.048000	1.396927
500.234000	1.322246
500.419000	1.305989
500.605000	1.469377
500.790000	1.415994
500.976000	1.299302
501.161000	1.240334
501.347000	1.450962
501.533000	1.599800
501.718000	1.537689
501.904000	1.493586
502.089000	1.606678
502.275000	1.697769
502.460000	1.613897
502.646000	1.680286
502.832000	1.778883
503.017000	1.752683
503.203000	1.565901
503.388000	1.598713
503.574000	1.851048
503.759000	1.904226
503.945000	1.969777
504.131000	1.881009
504.316000	1.872188
504.502000	1.962492
504.687000	1.974576
504.873000	1.870391
505.058000	1.875292
505.244000	1.903933
505.430000	1.994967
505.615000	2.109091
505.801000	2.190299
505.986000	2.050506
506.172000	2.163074
506.358000	2.224650
506.543000	2.238028
506.729000	2.453954
506.914000	2.447304
507.100000	2.559249
507.285000	2.361246
507.471000	2.324934
507.657000	2.599261
507.842000	2.455980
508.028000	2.354085
508.213000	2.431765
508.399000	2.534762
508.584000	2.696076
508.770000	2.579579
508.956000	2.537393
509.141000	2.626944
509.327000	2.712210
509.512000	2.674680
509.698000	2.739346
509.883000	2.827729
510.069000	2.776155
510.255000	2.806999
510.440000	2.845346
510.626000	2.795938
510.811000	2.799093
510.997000	2.941117
511.182000	3.193097
511.368000	3.106661
511.554000	2.759119
511.739000	2.862947
511.925000	3.096197
512.110000	3.088049
512.296000	3.193751
512.481000	3.216952
512.667000	3.124220
512.853000	2.955047
513.038000	3.078333
513.224000	3.011613
513.409000	2.944714
513.595000	3.068804
513.780000	2.892701
513.966000	2.978469
514.152000	2.987589
514.337000	2.966034
514.523000	3.033719
514.708000	3.085024
514.894000	3.110234
515.079000	3.000045
515.265000	3.066578
515.451000	3.076640
515.636000	2.966367
515.822000	3.065024
516.007000	2.945031
516.193000	3.135409
516.378000	3.215581
516.564000	3.116877
516.750000	3.090706
516.935000	3.149437
517.121000	3.181369
517.306000	3.229158
517.492000	3.149396
517.677000	2.915157
517.863000	2.904251
518.049000	3.054903
518.234000	2.938175
518.420000	3.014978
518.605000	3.158424
518.791000	3.116344
518.976000	2.967808
519.162000	2.853826
519.348000	2.952398
519.533000	2.873197
519.719000	3.045491
519.904000	2.942947
520.090000	2.870874
520.275000	3.065960
520.461000	2.968632
520.647000	2.757770
520.832000	2.563227
521.018000	2.634340
521.203000	2.634528
521.389000	2.444257
521.574000	2.526944
521.760000	2.654680
521.946000	2.622925
522.131000	2.524224
522.317000	2.530057
522.502000	2.456489
522.688000	2.504445
522.873000	2.458130
523.059000	2.443037
523.245000	2.416860
523.430000	2.257773
523.616000	2.265999
523.801000	2.182070
523.987000	2.226864
524.172000	2.336802
524.358000	2.365356
524.544000	2.280729
524.729000	2.339290
524.915000	2.343119
525.100000	2.194979
525.286000	2.220429
525.471000	2.204432
525.657000	2.200467
525.843000	1.958469
526.028000	2.098308
526.214000	2.033228
526.399000	1.911045
526.585000	1.849628
526.770000	1.797465
526.956000	1.922265
527.142000	1.832152
527.327000	1.948401
527.513000	1.818539
527.698000	1.791747
527.884000	1.822684
528.069000	1.767586
528.255000	1.830439
528.441000	1.720461
528.626000	1.766575
528.812000	1.960075
528.997000	1.768725
529.183000	1.649919
529.368000	1.699544
529.554000	1.682092
529.740000	1.673991
529.925000	1.587192
530.111000	1.591703
530.296000	1.649245
530.482000	1.711388
530.667000	1.586627
530.853000	1.637974
531.039000	1.530262
531.224000	1.568321
531.410000	1.648934
531.595000	1.532915
531.781000	1.535949
531.967000	1.400960
532.152000	1.526760
532.338000	1.432652
532.523000	1.295520
532.709000	1.243402
532.894000	1.340067
533.080000	1.349139
533.266000	1.167777
533.451000	1.114615
533.637000	1.204773
533.822000	1.372712
534.008000	1.213335
534.193000	1.213963
534.379000	1.279532
534.565000	1.170563
534.750000	1.147485
534.936000	1.373958
535.121000	1.187336
535.307000	1.198275
535.492000	1.192297
535.678000	0.961726
535.864000	1.091418
536.049000	1.384206
536.235000	1.163340
536.420000	1.099920
536.606000	1.002699
536.791000	0.914822
536.977000	0.931425
537.163000	1.155717
537.348000	1.133574
537.534000	1.158836
537.719000	0.998150
537.905000	0.844096
538.090000	1.045907
538.276000	1.094912
538.462000	1.086845
538.647000	1.075324
538.833000	0.969138
539.018000	1.086263
539.204000	1.024777
539.389000	0.824357
539.575000	1.144035
539.761000	1.039987
539.946000	0.767565
540.132000	0.917429
540.317000	0.776067
540.503000	0.916542
540.688000	0.973307
540.874000	1.188649
541.060000	1.314972
541.245000	1.125707
541.431000	0.936044
541.616000	0.991439
541.802000	0.942787
541.987000	1.050410
542.173000	1.080471
542.359000	0.952480
542.544000	1.042807
542.730000	0.852574
542.915000	0.826144
543.101000	0.982827
543.286000	0.807777
543.472000	0.746139
543.658000	0.853677
543.843000	0.843093
544.029000	1.045969
544.214000	0.882801
544.400000	0.531203
544.585000	0.727651
544.771000	0.811667
544.957000	0.986389
545.142000	1.069079
545.328000	1.130528
545.513000	1.122062
545.699000	1.098583
545.884000	0.945827
546.070000	0.816312
546.261000	0.777789
546.451000	0.572069
546.642000	0.334780
546.833000	0.477377
547.023000	0.399712
547.214000	0.386953
547.405000	0.566548
547.595000	0.871907
547.786000	0.788581
547.977000	0.516691
548.167000	0.335890
548.358000	0.361644
548.549000	0.762490
548.740000	0.557860
548.930000	0.236381
549.121000	0.329930
549.312000	0.273540
549.502000	0.196736
549.693000	0.334181
549.884000	0.423997
550.074000	0.506889
550.265000	0.312768
550.456000	0.387883
550.646000	0.457122
550.837000	0.395150
551.028000	0.268764
551.218000	0.406772
551.409000	0.268618
551.600000	0.298858
551.790000	0.402979
551.981000	0.128043
552.172000	0.167269
552.362000	0.575761
552.553000	0.620382
552.744000	0.386376
552.934000	0.285609
553.125000	0.201296
553.316000	0.140617
553.506000	0.525546
553.697000	0.342748
553.888000	0.326883
554.079000	0.490073
554.269000	0.429404
554.460000	0.097083
554.651000	0.078002
554.841000	-0.034564
555.032000	0.043592
555.223000	0.142515
555.413000	0.276099
555.604000	0.223357
555.795000	0.195629
555.985000	0.265673
556.176000	0.137744
556.367000	-0.115834
556.557000	0.006457
556.748000	0.067280
556.939000	0.021962
557.129000	-0.036142
557.320000	0.121408
557.511000	0.100555
557.701000	0.106832
557.892000	0.178337
558.083000	0.380812
558.273000	0.233694
558.464000	0.019368
558.655000	0.028382
558.845000	0.079751
559.036000	0.171200
559.227000	0.163597
559.418000	0.269722
559.608000	0.313476
559.799000	-0.036076
559.990000	-0.112778
560.180000	-0.021815
560.371000	-0.170932
560.562000	-0.132174
560.752000	0.060367
560.943000	-0.075815
561.134000	-0.288350
561.324000	-0.056320
561.515000	0.261914
561.706000	0.086976
561.896000	-0.140391
562.087000	-0.016573
562.278000	-0.038230
562.468000	-0.225783
562.659000	-0.148839
562.850000	0.203670
563.040000	0.294049
563.231000	-0.160516
563.422000	-0.011428
563.612000	-0.123302
563.803000	-0.044409
563.994000	-0.087130
564.185000	-0.211786
564.375000	-0.001262
564.566000	0.001261
564.757000	-0.022753
564.947000	-0.123731
565.138000	0.049073
565.329000	-0.016325
565.519000	-0.214623
565.710000	-0.138201
565.901000	0.081721
566.091000	0.195985
566.282000	0.008774
566.473000	0.019993
566.663000	0.003744
566.854000	-0.165339
567.045000	-0.027278
567.235000	0.034712
567.426000	0.003718
567.617000	0.038278
567.807000	-0.016059
567.998000	0.019725
568.189000	-0.086275
568.379000	-0.027046
568.570000	0.063838
568.761000	-0.007350
568.951000	-0.061156
569.142000	-0.124926
569.333000	-0.173914
569.524000	-0.250132
569.714000	-0.340393
569.905000	-0.440900
570.096000	-0.010960
570.286000	0.082694
570.477000	0.219514
570.668000	0.038773
570.858000	0.007270
571.049000	-0.124355
571.240000	-0.241588
571.430000	-0.045842
571.621000	-0.091358
571.812000	-0.003592
572.002000	0.044374
572.193000	-0.112551
572.384000	-0.047874
572.574000	-0.005989
572.765000	-0.060977
572.956000	-0.109653
573.146000	0.083557
573.337000	-0.085773
573.528000	-0.095138
573.718000	0.075911
573.909000	0.107782
574.100000	0.037766
574.290000	-0.101173
574.481000	-0.109163
574.672000	-0.112814
574.863000	0.005852
575.053000	-0.112151
575.244000	-0.003496
575.435000	-0.147872
575.625000	-0.155334
575.816000	-0.131986
576.007000	-0.053258
576.197000	-0.031309
576.388000	-0.025412
576.579000	0.086604
576.769000	0.058822
576.960000	-0.232804
577.155000	-0.368929
577.350000	-0.099867
577.545000	0.033227
577.740000	-0.123375
577.935000	0.169861
578.130000	0.095835
578.326000	-0.166062
578.521000	0.084129
578.716000	0.115428
578.911000	-0.143561
579.106000	-0.030406
579.301000	0.077467
579.496000	-0.091773
579.691000	-0.360070
579.886000	-0.173989
580.081000	-0.046771
580.276000	-0.019996
580.471000	-0.127728
580.666000	-0.251687
580.861000	-0.246056
581.057000	-0.225143
581.252000	-0.098731
581.447000	-0.159387
581.642000	-0.178503
581.837000	-0.162762
582.032000	-0.109303
582.227000	0.116352
582.422000	0.069024
582.617000	-0.114518
582.812000	-0.202338
583.007000	-0.154389
583.202000	-0.248522
583.397000	-0.003244
583.592000	0.199718
583.788000	-0.047349
583.983000	-0.062355
584.178000	0.035422
584.373000	-0.116648
584.568000	-0.148442
584.763000	-0.237310
584.958000	-0.305702
585.153000	-0.163552
585.348000	-0.169873
585.543000	-0.055613
585.738000	-0.069484
585.933000	-0.253415
586.128000	-0.022447
586.324000	-0.001072
586.519000	0.020347
586.714000	0.105032
586.909000	0.164269
587.104000	0.138963
587.299000	-0.011816
587.494000	-0.010727
587.689000	-0.072012
587.884000	-0.068995
588.079000	-0.103499
588.274000	-0.055085
588.469000	-0.060365
588.664000	0.026984
588.859000	0.035670
589.055000	0.014068
589.250000	-0.042224
589.445000	-0.179942
589.640000	-0.164899
589.835000	0.103308
590.030000	0.201120
590.225000	0.197895
590.420000	-0.006533
590.615000	-0.130778
590.810000	-0.116480
591.005000	-0.096189
591.200000	-0.160745
591.395000	-0.208828
591.591000	-0.060030
591.786000	0.069795
591.981000	-0.020782
592.176000	0.019728
592.371000	0.039471
592.566000	-0.002191
592.761000	0.168702
592.956000	0.147041
593.151000	0.211890
593.346000	0.102385
593.541000	0.157268
593.736000	0.120245
593.931000	-0.027591
594.126000	0.044211
594.322000	0.070735
594.517000	-0.016575
594.712000	-0.103916
594.907000	-0.122042
595.102000	0.043326
595.297000	0.186515
595.492000	0.260342
595.687000	0.079151
595.882000	-0.018961
596.077000	0.099460
596.272000	0.292733
596.467000	0.314064
596.662000	0.173407
596.857000	0.199934
597.053000	0.237399
597.248000	0.290154
597.443000	0.336710
597.638000	0.277693
597.833000	0.082483
598.028000	0.313717
598.223000	0.421745
598.418000	0.336413
598.613000	0.255957
598.808000	0.350229
599.003000	0.354010
599.198000	0.203359
599.393000	0.266899
599.589000	0.394036
599.784000	0.202853
599.979000	0.343533
600.174000	0.597315
600.369000	0.385288
600.564000	0.435012
600.759000	0.686519
600.954000	0.837540
601.149000	0.686315
601.344000	0.366484
601.539000	0.567047
601.734000	0.488195
601.929000	0.313231
602.124000	0.368816
602.320000	0.626919
602.515000	0.924939
602.710000	0.852794
602.905000	0.528728
603.100000	0.512861
603.295000	0.635311
603.490000	0.742739
603.685000	0.800901
603.880000	0.799553
604.075000	0.659436
604.270000	0.729719
604.465000	0.842331
604.660000	0.627004
604.856000	0.781719
605.051000	1.027540
605.246000	1.006840
605.441000	0.806529
605.636000	0.796237
605.831000	0.960520
606.026000	0.899235
606.221000	0.922743
606.416000	1.127021
606.611000	1.312651
606.806000	1.313801
607.001000	1.517692
607.196000	1.316711
607.391000	1.125304
607.587000	1.362549
607.782000	1.387996
607.977000	1.238461
608.172000	1.678918
608.367000	1.707286
608.562000	1.471224
608.757000	1.464825
608.952000	1.491996
609.147000	2.000301
609.342000	1.881008
609.537000	1.698753
609.732000	1.786097
609.927000	1.794460
610.122000	1.935802
610.318000	2.307576
610.513000	2.475904
610.708000	2.336384
610.903000	2.493337
611.098000	2.671315
611.293000	2.618076
611.488000	2.662812
611.683000	2.651859
611.878000	2.628636
612.073000	2.721954
612.268000	2.757416
612.463000	2.811843
612.658000	2.801030
612.854000	2.811746
613.049000	2.811799
613.244000	2.981614
613.439000	3.056608
613.634000	2.797240
613.829000	3.016550
614.024000	2.931225
614.219000	2.951481
614.414000	3.366129
614.609000	3.215076
614.804000	3.100067
614.999000	3.169125
615.194000	3.331286
615.389000	3.452616
615.585000	3.330295
615.780000	3.578342
615.975000	3.586711
616.170000	3.746691
616.365000	4.005302
616.560000	4.219837
616.755000	4.160985
616.950000	4.129409
617.145000	4.331203
617.340000	4.242440
617.535000	4.035511
617.730000	4.323811
617.925000	4.286108
618.120000	4.405516
618.316000	4.870964
618.511000	4.798193
618.706000	4.687527
618.901000	4.886419
619.096000	5.151040
619.291000	5.110167
619.486000	5.250903
619.681000	5.051062
619.876000	5.167184
620.071000	5.397182
620.266000	5.801711
620.461000	6.005639
620.656000	5.991488
620.852000	6.034566
621.047000	6.025206
621.242000	5.983604
621.437000	6.444840
621.632000	6.671762
621.827000	6.541106
622.022000	6.365881
622.217000	6.741968
622.412000	7.004610
622.607000	7.101317
622.802000	6.968789
622.997000	7.070453
623.192000	7.304522
623.387000	7.464706
623.583000	7.345079
623.778000	7.847437
623.973000	7.978393
624.168000	8.118171
624.363000	8.180933
624.558000	8.370402
624.753000	8.210798
624.948000	8.650844
625.143000	8.742102
625.338000	8.784327
625.533000	8.839439
625.728000	9.085064
625.923000	9.421642
626.119000	9.429021
626.314000	9.339348
626.509000	9.523897
626.704000	9.763567
626.899000	9.840911
627.094000	9.956791
627.289000	10.099392
627.484000	10.333849
627.679000	10.517929
627.874000	10.590310
628.069000	11.133057
628.264000	11.135019
628.459000	11.114253
628.654000	11.239704
628.850000	11.245448
629.045000	11.434507
629.240000	11.486392
629.435000	11.586428
629.630000	11.831594
629.825000	11.873192
630.020000	12.038184
630.215000	11.895830
630.410000	12.084727
630.605000	12.154643
630.800000	12.282380
630.995000	12.457589
631.190000	12.707678
631.385000	12.527532
631.581000	12.414344
631.776000	12.451141
631.971000	12.201900
632.166000	12.287177
632.361000	11.970065
632.556000	12.021368
632.751000	12.155972
632.946000	11.806031
633.141000	11.674912
633.336000	11.612344
633.531000	11.516687
633.726000	11.266437
633.921000	10.896472
634.117000	10.545838
634.312000	10.237488
634.507000	10.190888
634.702000	10.089372
634.897000	9.886440
635.092000	9.786605
635.287000	9.573888
635.482000	9.233675
635.677000	9.087353
635.872000	8.843758
636.067000	8.599062
636.262000	8.253402
636.457000	7.694088
636.652000	7.407291
636.848000	7.174617
637.043000	6.996097
637.238000	6.784005
637.433000	6.398600
637.628000	6.261450
637.823000	6.305293
638.018000	6.143925
638.213000	5.735930
638.408000	5.396033
638.603000	5.119067
638.798000	4.966481
638.993000	4.890030
639.188000	4.620523
639.383000	4.389496
639.579000	4.672052
639.774000	4.300642
639.969000	3.925133
640.164000	3.725969
640.359000	3.611135
640.554000	3.661350
640.749000	3.527055
640.944000	3.515518
641.139000	3.344794
641.334000	3.017198
641.529000	2.517368
641.724000	2.590066
641.919000	2.662309
642.115000	2.853167
642.310000	2.727289
642.505000	2.516952
642.700000	2.411428
642.895000	2.206886
643.090000	2.286742
643.285000	2.419818
643.480000	2.296739
643.675000	2.187958
643.870000	2.432083
644.065000	2.234000
644.260000	1.751285
644.455000	1.716934
644.650000	1.606546
644.846000	1.627703
645.041000	1.335992
645.236000	1.153321
645.431000	1.204931
645.626000	0.968205
645.821000	1.149296
646.016000	1.186023
646.211000	1.514954
646.406000	1.361006
646.601000	1.276019
646.796000	1.073511
646.991000	0.813624
647.186000	0.923641
647.381000	1.088952
647.577000	1.086942
647.772000	1.166391
647.967000	0.989701
648.162000	0.904761
648.357000	0.806338
648.552000	0.963850
648.747000	0.939878
648.942000	0.920535
649.137000	0.829471
649.332000	0.588632
649.527000	0.577602
649.722000	0.819144
649.917000	0.858613
650.113000	0.541384
650.308000	0.420129
650.503000	0.494005
650.698000	0.623935
650.893000	0.514376
651.088000	0.615486
651.283000	0.678978
651.478000	0.298317
651.673000	0.470307
651.868000	0.309499
652.063000	0.562570
652.258000	0.681527
652.453000	0.827482
652.648000	0.467267
652.844000	0.366291
653.039000	0.366909
653.234000	-0.024989
653.429000	-0.172106
653.624000	0.059411
653.819000	0.311808
654.014000	0.219405
654.209000	0.065995
654.404000	0.232311
654.599000	0.119599
654.794000	0.106825
654.989000	0.411231
655.184000	0.299715
655.380000	-0.014186
655.575000	-0.006305
655.770000	0.009474
655.965000	0.099500
656.160000	0.020543
656.355000	0.189585
656.550000	0.190167
656.745000	0.215669
656.940000	0.079355
657.135000	0.145978
657.330000	0.128576
657.525000	-0.085779
657.720000	0.140033
657.915000	0.262318
658.111000	0.114510
658.306000	0.315152
658.501000	0.122841
658.696000	-0.149902
658.891000	0.106894
659.086000	0.027111
659.281000	0.073480
659.476000	-0.148769
659.671000	-0.539036
659.866000	-0.259235
660.061000	0.104084
660.256000	0.184233
660.451000	0.091397
660.646000	-0.110784
660.842000	-0.025719
661.037000	-0.183315
661.232000	-0.169085
661.427000	-0.037008
661.622000	-0.146693
661.817000	-0.243349
662.012000	-0.019387
662.207000	-0.163290
662.402000	-0.230154
662.597000	-0.047035
662.792000	-0.367836
662.987000	-0.369153
663.182000	-0.087616
663.378000	-0.087686
663.573000	-0.457412
663.768000	-0.451590
663.963000	-0.260192
664.158000	-0.250206
664.353000	0.190870
664.548000	0.339205
664.743000	0.027755
664.938000	-0.257930
665.133000	-0.259970
665.328000	0.155558
665.523000	0.116487
665.718000	-0.091888
665.913000	-0.142969
666.109000	-0.146582
666.304000	0.075737
666.499000	-0.083916
666.694000	0.024751
666.889000	0.354732
667.084000	0.029798
667.279000	-0.062870
667.474000	-0.114223
667.669000	-0.081095
667.864000	-0.094446
668.059000	-0.084634
668.254000	-0.104680
668.449000	-0.247857
668.644000	-0.156509
668.840000	0.136350
669.035000	-0.143205
669.230000	-0.426063
669.425000	-0.083598
669.620000	-0.232386
669.815000	-0.273497
670.010000	-0.290007
670.205000	-0.167774
670.400000	-0.127281
670.595000	-0.062154
670.790000	-0.178303
670.985000	-0.133025
671.180000	0.114630
671.376000	-0.310452
671.571000	-0.380470
671.766000	-0.361013
671.961000	-0.395061
672.156000	-0.400645
672.351000	-0.266593
672.546000	-0.262050
672.741000	-0.117155
672.936000	-0.098607
673.131000	0.427890
673.326000	0.078636
673.521000	-0.369569
673.716000	-0.477350
673.911000	-0.628359
674.107000	0.000000
674.302000	0.274649
674.497000	-0.015467
674.692000	-0.331910
674.887000	-0.374457
675.082000	-0.279971
675.277000	-0.010384
675.472000	-0.100509
675.667000	-0.296782
675.862000	-0.331662
676.057000	-0.206776
676.252000	-0.148010
676.447000	-0.265324
676.643000	-0.080230
676.838000	0.153774
677.033000	-0.118993
677.228000	0.184199
677.423000	0.135161
677.618000	-0.281615
677.813000	-0.418658
678.008000	-0.155296
678.203000	-0.084796
678.398000	-0.355731
678.593000	-0.215990
678.788000	-0.122555
678.983000	-0.383181
679.178000	-0.289304
679.374000	-0.378598
679.569000	-0.210192
679.764000	-0.264412
679.959000	-0.488903
680.154000	-0.458551
680.349000	-0.609326
680.544000	-0.507989
680.739000	-0.364580
680.934000	-0.458431
681.129000	-0.493968
681.324000	-0.545118
681.519000	-0.302390
681.714000	-0.315176
681.909000	-0.356403
682.105000	-0.524317
682.300000	-0.116563
682.495000	0.018204
682.690000	0.005473
682.885000	-0.115035
683.080000	-0.338739
683.275000	-0.302271
683.470000	0.044020
683.665000	0.235290
683.860000	0.416150
684.055000	0.119758
684.250000	-0.319051
684.445000	-0.325908
684.641000	0.108963
684.836000	-0.183140
685.031000	-0.211650
685.226000	-0.195205
685.421000	0.080166
685.616000	-0.219990
685.811000	-0.327039
686.006000	-0.037373
686.201000	-0.117880
686.396000	-0.514650
686.591000	-0.442283
686.786000	0.028276
686.981000	-0.152703
687.176000	-0.109609
687.372000	-0.200545
687.567000	0.121138
687.762000	0.013286
687.957000	-0.123365
688.152000	-0.247257
688.347000	-0.186730
688.542000	-0.481355
688.737000	-0.864910
688.932000	-0.854904
689.127000	-0.417514
689.322000	-0.084509
689.517000	-0.297639
689.712000	-0.493323
689.908000	-0.383870
690.103000	-0.378817
690.298000	-0.237766
690.493000	-0.265522
690.688000	-0.578273
690.883000	-0.408910
691.078000	0.013635
691.273000	0.077922
691.468000	-0.220559
691.663000	-0.199846
691.858000	-0.025475
692.053000	-0.080341
692.248000	0.031385
692.443000	-0.021576
692.639000	-0.141518
692.834000	0.053201
693.029000	0.506585
693.224000	0.427789
693.419000	-0.222022
693.614000	-0.329692
693.809000	-0.465086
694.004000	-0.565529
694.199000	-0.471815
694.394000	-0.183773
694.589000	-0.503912
694.784000	-0.514432
694.979000	-0.214187
695.174000	-0.280955
695.370000	0.214367
695.565000	-0.044183
695.760000	-0.352257
695.955000	0.044391
696.150000	0.076699
696.345000	-0.380931
696.540000	-0.148174
696.740000	-0.275857
696.940000	-0.136003
697.140000	0.020404
697.340000	-0.230961
697.539000	-0.034765
697.739000	-0.186168
697.939000	-0.149447
698.139000	-0.477498
698.339000	-0.841329
698.539000	-0.596199
698.739000	-0.601924
698.939000	-0.484472
699.138000	-0.572373
699.338000	0.165339
699.538000	0.282148
699.738000	-0.268410
699.938000	-0.308203
700.138000	-0.404680
700.338000	-0.523000
700.538000	-0.276831
700.737000	-0.222231
700.937000	-0.622909
701.137000	-0.642708
701.337000	-0.065236
701.537000	-0.023199
701.737000	-0.275933
701.937000	-0.380003
702.137000	-0.306129
702.337000	-0.365857
702.536000	-0.538250
702.736000	-0.530411
702.936000	-0.682053
703.136000	-0.119339
703.336000	-0.144879
703.536000	-0.382431
703.736000	-0.706954
703.936000	-0.652043
704.135000	-0.666674
704.335000	-0.229275
704.535000	-0.451208
704.735000	-0.705466
704.935000	-0.150237
705.135000	-0.140185
705.335000	-0.391667
705.535000	-0.145077
705.735000	-0.151547
705.934000	-0.175271
706.134000	-0.389623
706.334000	-0.427432
706.534000	-0.471503
706.734000	-0.421863
706.934000	-0.545782
707.134000	-0.535049
707.334000	-0.294249
707.533000	-0.286058
707.733000	-0.349131
707.933000	-0.465246
708.133000	-0.119988
708.333000	-0.021930
708.533000	-0.263641
708.733000	-0.006590
708.933000	-0.266033
709.132000	-0.425159
709.332000	-0.406018
709.532000	-0.468837
709.732000	-0.302533
709.932000	-0.765889
710.132000	-0.749924
710.332000	-0.904361
710.532000	-0.276650
710.732000	-0.059920
710.931000	-0.357566
711.131000	-0.441459
711.331000	-0.287839
711.531000	-0.391141
711.731000	-0.367478
711.931000	-0.352377
712.131000	-0.273493
712.331000	-0.183882
712.530000	-0.344920
712.730000	-0.532216
712.930000	-0.334488
713.130000	-0.378462
713.330000	-0.534562
713.530000	-0.378061
713.730000	0.348791
713.930000	0.009057
714.129000	-0.504379
714.329000	-0.669370
714.529000	-0.360505
714.729000	-0.036352
714.929000	-0.186309
715.129000	-0.480200
715.329000	-0.382694
715.529000	-0.372826
715.729000	0.312767
715.928000	0.064084
716.128000	-0.343519
716.328000	-0.303194
716.528000	-0.326536
716.728000	-0.223110
716.928000	-0.480768
717.128000	-0.272045
717.328000	-0.281221
717.527000	-0.452346
717.727000	-0.434306
717.927000	-0.349953
718.127000	-0.405806
718.327000	-0.833991
718.527000	-0.798744
718.727000	-0.343963
718.927000	-0.419092
719.127000	-0.717659
719.326000	-0.423727
719.526000	-0.074638
719.726000	-0.229060
719.926000	-0.764820
720.126000	-0.748519
720.326000	-0.502066
720.526000	-0.556130
720.726000	-0.451897
720.925000	-0.240223
721.125000	-0.687882
721.325000	-0.399007
721.525000	-0.345540
721.725000	-0.534936
721.925000	-0.541190
722.125000	-0.508000
722.325000	0.033230
722.524000	-0.290456
722.724000	-0.760415
722.924000	-0.898617
723.124000	-0.632439
723.324000	-0.183954
723.524000	-0.086083
723.724000	-0.670136
723.924000	-0.504405
724.124000	-0.348400
724.323000	-0.153976
724.523000	-0.201917
724.723000	0.214396
724.923000	-0.057832
725.123000	-0.094076
725.323000	0.000000
725.523000	-0.322009
725.723000	-0.493390
725.922000	-0.489104
726.122000	-0.368452
726.322000	-0.507988
726.522000	-0.598505
726.722000	0.150669
726.922000	-0.121424
727.122000	-0.297306
727.322000	0.048801
727.521000	-0.107626
727.721000	-0.384593
727.921000	-0.360114
728.121000	-0.347778
728.321000	-0.664940
728.521000	-0.509206
728.721000	-0.310479
728.921000	-0.216766
729.121000	0.542808
729.320000	0.118562
729.520000	-0.348307
729.720000	-0.630956
729.920000	-0.479822
730.120000	-0.277739
730.320000	-0.305764
730.520000	-0.564529
730.720000	-0.488970
730.919000	-0.533776
731.119000	-0.187413
731.319000	-0.633240
731.519000	-0.748272
731.719000	-0.338105
731.919000	-0.536246
732.119000	-1.024070
732.319000	-0.964339
732.519000	-0.418187
732.718000	-0.749184
732.918000	-0.631168
733.118000	-0.397362
733.318000	-0.116760
733.518000	-0.441691
733.718000	-0.927825
733.918000	-0.933454
734.118000	-0.625476
734.317000	-0.306353
734.517000	-0.594011
734.717000	-0.558448
734.917000	-0.061619
735.117000	-0.107949
735.317000	-0.269804
735.517000	0.131404
735.717000	0.364369
735.916000	-0.488482
736.116000	-0.555198
736.316000	-0.436506
736.516000	-0.358447
736.716000	-0.371622
736.916000	-0.913274
737.116000	-0.647649
737.316000	0.068162
737.516000	-0.028895
737.715000	-0.039427
737.915000	-0.660051
738.115000	-0.741288
738.315000	-0.406558
738.515000	-0.704740
738.715000	-0.499136
738.915000	0.031902
739.115000	-0.481991
739.314000	-0.494859
739.514000	-0.010680
739.714000	0.037476
739.914000	-0.115440
740.114000	-0.387314
740.314000	-0.191109
740.514000	0.307322
740.714000	-0.516643
740.913000	-0.934564
741.113000	-0.756960
741.313000	-0.398829
741.513000	-0.424439
741.713000	-0.371018
741.913000	-0.265874
742.113000	-0.363994
742.313000	-0.907813
742.513000	-0.592962
742.712000	-0.462686
742.912000	-0.749308
743.112000	-0.605343
743.312000	-0.899833
743.512000	-0.552219
743.712000	-0.367471
743.912000	-1.051214
744.112000	-1.171863
744.311000	-1.161042
744.511000	-0.689477
744.711000	-0.269735
744.911000	-0.616214
745.111000	-0.636700
745.311000	-0.146779
745.511000	-0.480518
745.711000	-0.656383
745.911000	-0.430603
746.110000	-0.909799
746.310000	-1.009251
746.510000	-0.702674
746.710000	-0.202910
746.910000	-0.008581
747.110000	-0.679013
747.310000	-1.056176
747.510000	-0.757696
747.709000	-0.366180
747.909000	-0.398917
748.109000	-0.139223
748.309000	-0.453398
748.509000	-0.753938
748.709000	-0.803480
748.909000	-0.552039
749.109000	-0.583785
749.308000	-0.070478
749.508000	-0.374313
749.708000	-0.515959
749.908000	-0.150399
750.108000	-0.147888
750.308000	-0.914169
750.508000	-0.151759
750.708000	-0.631054
750.908000	-1.047069
751.107000	-0.380022
751.307000	0.280943
751.507000	-0.273129
751.707000	-0.314748
751.907000	-0.399661
752.107000	-0.259302
752.307000	-0.771447
752.507000	-0.621807
752.706000	-0.618353
752.906000	0.379698
753.106000	-0.524276
753.306000	-1.171012
753.506000	-0.168619
753.706000	-0.531444
753.906000	-0.282661
754.106000	-0.095371
754.305000	-0.240276
754.505000	-0.169869
754.705000	-0.316751
754.905000	-0.320331
755.105000	-0.168189
755.305000	-0.985591
755.505000	-0.828904
755.705000	-0.313185
755.905000	-0.398941
756.104000	-0.936906
756.304000	-1.289342
756.504000	-1.516284
756.704000	-0.412793
756.904000	-0.218973
757.104000	-0.516555
757.304000	-0.567802
757.504000	-0.172340
757.703000	-0.453105
757.903000	-0.041581
758.103000	0.205128
758.303000	-0.250703
758.503000	-0.547846
758.703000	-0.694481
758.903000	-0.827286
759.103000	-0.411547
759.303000	-0.413522
759.502000	-0.503019
759.702000	-0.130604
759.902000	-0.459449
760.102000	-0.486867
760.302000	-0.580927
760.502000	-0.197452
760.702000	-0.191144
760.902000	-0.518505
761.101000	-0.834643
761.301000	-1.028543
761.501000	-0.753401
761.701000	-0.861335
761.901000	-0.588357
762.101000	-0.244557
762.301000	-0.405366
762.501000	-0.834869
762.700000	-0.943132
762.900000	-0.903034
763.100000	-0.570099
763.300000	-0.277746
763.500000	-0.488233
763.703000	-0.594735
763.905000	-0.980294
764.108000	-0.214458
764.311000	-0.473232
764.513000	-0.657871
764.716000	-0.455187
764.919000	-0.424954
765.121000	-0.901662
765.324000	-1.076306
765.527000	-0.981795
765.729000	-0.705211
765.932000	0.135040
766.135000	-0.013846
766.337000	-0.516037
766.540000	-0.722741
766.743000	-0.332552
766.945000	-0.897858
767.148000	-1.323575
767.351000	-1.106325
767.553000	-0.295187
767.756000	-0.643771
767.958000	-1.041183
768.161000	-0.714675
768.364000	-0.943453
768.566000	-1.087168
768.769000	-0.625342
768.972000	-0.422758
769.174000	-0.798203
769.377000	-1.297220
769.580000	-1.278497
769.782000	-0.493779
769.985000	-0.997892
770.188000	-1.946558
770.390000	-1.099225
770.593000	0.610321
770.796000	0.202387
770.998000	-0.386930
771.201000	-0.763814
771.404000	-0.467635
771.606000	-0.833438
771.809000	-0.665805
772.012000	-0.550439
772.214000	-1.484801
772.417000	-1.466719
772.620000	-0.389188
772.822000	-0.736757
773.025000	-1.055844
773.228000	-1.116584
773.430000	-0.923453
773.633000	-0.563969
773.836000	-0.498299
774.038000	-0.344570
774.241000	-0.514864
774.444000	-0.821111
774.646000	0.167060
774.849000	-0.241853
775.052000	-0.524545
775.254000	-0.391395
775.457000	-0.737386
775.659000	-0.649559
775.862000	-0.922293
776.065000	-0.635822
776.267000	-0.007493
776.470000	0.293537
776.673000	-0.448142
776.875000	0.037769
777.078000	-0.064106
777.281000	-0.904679
777.483000	-0.243029
777.686000	-0.136959
777.889000	-0.239937
778.091000	-0.114649
778.294000	-1.240263
778.497000	-1.016413
778.699000	-0.829841
778.902000	-0.752094
779.105000	-0.602484
779.307000	0.245949
779.510000	-0.774161
779.713000	-0.541314
779.915000	-0.768101
780.118000	0.264051
780.321000	0.404338
780.523000	-0.436453
780.726000	-0.931747
780.929000	-1.067811
781.131000	-0.967981
781.334000	-1.473035
781.537000	-1.465370
781.739000	-0.424677
781.942000	-0.964167
782.145000	-1.550644
782.347000	-1.440792
782.550000	-1.073367
782.753000	-1.180213
782.955000	-1.024037
783.158000	-0.939807
783.361000	-0.734539
783.563000	-0.770595
783.766000	-0.944724
783.968000	0.930139
784.171000	0.853854
784.374000	-0.406825
784.576000	-0.519454
784.779000	-0.217104
784.982000	0.040436
785.184000	-0.691143
785.387000	-0.207659
785.590000	0.427305
785.792000	0.269610
785.995000	0.106373
786.198000	-0.122938
786.400000	-0.555555
786.603000	-0.503332
786.806000	-0.633391
787.008000	-0.407139
787.211000	-0.338444
787.414000	-1.126484
787.616000	-0.860528
787.819000	-0.683377
788.022000	-1.364427
788.224000	-0.778027
788.427000	-1.368596
788.630000	-0.810599
788.832000	-0.541212
789.035000	-1.043002
789.238000	-1.649405
789.440000	-1.278128
789.643000	-0.025341
789.846000	-0.720031
790.048000	-0.322676
790.251000	-0.174117
790.454000	-0.572165
790.656000	0.250980
790.859000	-0.520177
791.062000	-1.046457
791.264000	-0.345686
791.467000	-1.234307
791.669000	-1.716820
791.872000	-0.750548
792.075000	-1.210692
792.277000	-0.909243
792.480000	-0.619566
792.683000	-1.084520
792.885000	-1.284519
793.088000	-1.098232
793.291000	-1.335971
793.493000	-1.368924
793.696000	-0.379436
793.899000	-0.205548
794.101000	-0.688211
794.304000	-0.782028
794.507000	-0.422393
794.709000	-0.392681
794.912000	-0.956857
795.115000	-1.202811
795.317000	-0.754323
795.520000	-0.561531
795.723000	-0.724880
795.925000	-1.241266
796.128000	-1.561898
796.331000	-1.086596
796.533000	-1.498749
796.736000	-0.759924
796.939000	-0.593978
797.141000	-0.800122
797.344000	-0.022752
797.547000	0.009105
797.749000	-0.223391
797.952000	-0.820203
798.155000	-1.284769
798.357000	-1.536288
798.560000	-1.244295
798.763000	-0.494433
798.965000	-0.646309
799.168000	-0.666714
799.371000	-0.463536
799.573000	-0.762736
799.776000	-1.504467
799.978000	-1.575126
800.181000	-0.744583
800.384000	0.764495
800.586000	0.079920
800.789000	-1.480232
800.992000	-1.479229
801.194000	-1.482496
801.397000	-1.467454
801.600000	-1.302028
801.802000	0.042675
802.005000	-0.242597
802.208000	-1.655327
802.410000	-0.662516
802.613000	-0.435648
802.816000	-0.608701
803.018000	-1.326369
803.221000	-1.155517
803.424000	0.275006
803.626000	-0.144965
803.829000	-0.702896
804.032000	0.150672
804.234000	0.806573
804.437000	-0.619737
804.640000	-0.692353
804.842000	-0.620634
805.045000	-1.188508
805.248000	-1.008678
805.450000	-0.973285
805.653000	-0.910200
805.856000	-1.082154
806.058000	0.079304
806.261000	-1.102941
806.464000	-1.084151
806.666000	-0.373579
806.869000	-0.807088
807.072000	-2.150332
807.274000	-2.382467
807.477000	-1.212089
807.679000	-0.840611
807.882000	-1.347060
808.085000	-1.122499
808.287000	-0.411821
808.490000	-1.278584
808.693000	-1.162242
808.895000	-0.826732
809.098000	-0.806709
809.301000	-0.845267
809.503000	-1.044445
809.706000	-0.108636
809.909000	0.196546
810.111000	-0.015539
810.314000	-0.513944
810.517000	-1.169431
810.719000	-1.300909
810.922000	-0.846559
811.125000	0.041716
811.327000	0.010489
811.530000	-0.531769
811.735000	-0.941021
811.940000	-1.196031
812.146000	-1.137571
812.351000	-0.370401
812.556000	-0.674171
812.761000	-1.341970
812.967000	-0.358333
813.172000	-0.379326
813.377000	-0.664537
813.582000	0.064583
813.788000	-0.298049
813.993000	-1.356774
814.198000	-0.573541
814.403000	-1.308678
814.609000	-0.593155
814.814000	-0.628628
815.019000	0.283729
815.224000	0.098163
815.429000	-1.015606
815.635000	-0.556207
815.840000	-0.656044
816.045000	-0.592577
816.250000	-0.210787
816.456000	-1.505816
816.661000	-2.260712
816.866000	-1.711848
817.071000	-1.755496
817.277000	-2.408273
817.482000	-1.414769
817.687000	-0.664688
817.892000	-0.702439
818.097000	-0.403450
818.303000	0.153423
818.508000	0.652193
818.713000	7.392297
818.918000	3.787071
819.124000	0.239799
819.329000	-0.946066
819.534000	-1.046650
819.739000	-1.213524
819.945000	-1.190357
820.150000	-0.755465
820.355000	-0.745289
820.560000	-0.464552
820.766000	-0.553068
820.971000	-0.632378
821.176000	-2.124786
821.381000	-2.733183
821.586000	-1.607348
821.792000	0.047267
821.997000	-0.709659
822.202000	-1.024098
822.407000	-1.585338
822.613000	-1.713618
822.818000	-1.079773
823.023000	-0.561450
823.228000	-0.781488
823.434000	-0.210234
823.639000	0.186607
823.844000	-0.844960
824.049000	-0.060399
824.255000	0.121189
824.460000	-0.669649
824.665000	-1.261911
824.870000	-0.250791
825.075000	-0.465468
825.281000	-0.264150
825.486000	0.784792
825.691000	-1.584336
825.896000	-2.722206
826.102000	-1.023788
826.307000	-0.870784
826.512000	-1.361006
826.717000	-1.290055
826.923000	-1.300019
827.128000	-0.830815
827.333000	-1.526671
827.538000	-0.495960
827.744000	-0.101983
827.949000	-1.157853
828.154000	-0.836776
828.359000	0.089382
828.564000	-0.461983
828.770000	-0.811814
828.975000	0.232473
829.180000	-0.305045
829.385000	-1.751717
829.591000	-1.400752
829.796000	-0.942866
830.001000	-1.095551
830.206000	-1.664968
830.412000	-1.327985
830.617000	-1.258702
830.822000	-0.139082
831.027000	-0.845850
831.232000	-1.429382
831.438000	-1.325659
831.643000	-0.776582
831.848000	-1.013374
832.053000	-0.949876
832.259000	-1.045482
832.464000	-2.827345
832.669000	-2.348796
832.874000	-1.951890
833.080000	-1.769913
833.285000	0.102276
833.490000	-0.293400
833.695000	-1.751388
833.901000	-1.456006
834.106000	-1.817600
834.311000	-1.389471
834.516000	-0.848877
834.721000	-1.266505
834.927000	-0.049183
835.132000	-0.675835
835.337000	0.839002
835.542000	-0.262418
835.748000	-1.833360
835.953000	-0.156268
836.158000	-0.462833
836.363000	-0.736357
836.569000	-0.446680
836.774000	-1.421783
836.979000	-1.951006
837.184000	-2.317916
837.390000	-1.857717
837.595000	-1.360640
837.800000	-0.948071
838.005000	-0.711740
838.210000	-0.998336
838.416000	-1.407507
838.621000	-1.248736
838.826000	-1.358740
839.031000	-1.187579
839.237000	-1.630169
839.442000	-2.464144
839.647000	-2.729694
839.852000	-1.922781
840.058000	-1.763893
840.263000	-1.628632
840.468000	-2.494693
840.673000	-1.463599
840.878000	-1.093042
841.084000	-1.863138
841.289000	-1.163563
841.494000	1.549386
841.699000	1.539046
841.905000	0.294661
842.110000	0.483361
842.315000	-1.546922
842.520000	-0.897563
842.726000	-1.337827
842.931000	-1.821408
843.136000	-0.779501
843.341000	-2.292483
843.547000	-1.448670
843.752000	-1.394851
843.957000	-2.117402
844.162000	-1.894636
844.367000	-1.279253
844.573000	-0.719143
844.778000	-0.443240
844.983000	-0.573586
845.188000	-0.316684
845.394000	-1.933656
845.599000	-1.789962
845.804000	-1.550031
846.009000	-0.701922
846.215000	-1.941306
846.420000	-1.713625
846.625000	-0.567505
846.830000	0.074841
847.036000	-1.203255
847.241000	-1.762189
847.446000	-0.276882
847.651000	-0.842567
847.856000	-2.227521
848.062000	-2.242656
848.267000	-0.213243
848.472000	-1.266778
848.677000	-2.574965
848.883000	-0.976429
849.088000	0.527766
849.293000	-0.703567
849.498000	-1.344616
849.704000	-0.626346
849.909000	-1.264660
850.114000	-2.058408
850.319000	-0.751776
850.524000	-1.010810
850.730000	-0.945828
850.935000	-1.286878
851.140000	-0.177968
851.345000	-0.222429
851.551000	-0.294490
851.756000	0.017944
851.961000	-1.277405
852.166000	-1.683090
852.372000	-1.173097
852.577000	-1.072591
852.782000	-1.465391
852.987000	0.182653
853.193000	-0.430781
853.398000	-0.770136
853.603000	-2.168548
853.808000	-2.739688
854.013000	-1.609860
854.219000	-0.194646
854.424000	1.684176
854.629000	1.417458
854.834000	-1.248555
855.040000	-0.793613
855.245000	-0.301318
855.450000	-2.919425
855.655000	-4.046336
855.861000	-3.540491
856.066000	-2.440099
856.271000	-2.539872
856.476000	-0.509724
856.682000	-1.351623
856.887000	-4.070593
857.092000	-2.484202
857.297000	0.242626
857.502000	-0.213931
857.708000	-1.149687
857.913000	0.068320
858.118000	-0.719049
858.323000	-1.057045
858.529000	-1.055410
858.734000	-1.473682
858.939000	-1.190357
859.144000	-2.030454
859.350000	-3.026202
859.555000	-2.825964
859.760000	-0.622492
859.965000	0.481789
860.171000	-1.532261
860.376000	-0.485892
860.581000	-2.232965
860.786000	-4.586611
860.991000	-3.664816
861.197000	-2.721359
861.402000	-1.344061
861.607000	-1.745316
861.812000	-2.917941
862.018000	-3.125790
862.223000	-2.073958
862.428000	-1.293434
862.633000	-0.052178
862.839000	-0.661569
863.044000	-2.001299
863.249000	-2.756200
863.454000	-0.634238
863.659000	-1.378354
863.865000	-2.131088
864.070000	-2.200779
864.275000	-2.589706
864.480000	-2.053293
864.686000	-4.067809
864.891000	-3.293674
865.096000	-0.943820
865.301000	-0.413014
865.507000	-0.546637
865.712000	-0.655920
865.917000	-1.573326
866.122000	-0.529545
866.328000	-3.539228
866.533000	-3.259582
866.738000	0.188720
866.943000	0.233616
867.148000	0.660038
867.354000	-1.770159
867.559000	-3.484951
867.764000	-1.756658
867.969000	-0.706227
868.175000	-2.077473
868.380000	-2.517661
868.585000	-3.273799
868.790000	-1.430792
868.996000	-1.486337
869.201000	-3.061327
869.406000	-3.921477
869.611000	-3.090500
869.817000	-2.831744
870.022000	1.852262
870.227000	-0.560546
870.432000	-2.722646
870.637000	-1.186646
870.843000	-1.902574
871.048000	-1.808910
871.253000	-0.011830
871.458000	-1.319770
871.664000	-3.481934
871.869000	-3.442327
872.074000	-2.752499
872.279000	-1.411786
872.485000	-2.028099
872.690000	-2.171059
872.895000	-2.375990
873.100000	-2.893797
873.306000	-3.053868
873.511000	-1.785568
873.716000	-0.173977
873.921000	-1.933546
874.126000	-2.594579
874.332000	-1.629754
874.537000	-0.554338
874.742000	-0.678128
874.947000	-1.147618
875.153000	0.801958
875.358000	-1.084544
875.563000	-1.669924
875.768000	-4.288339
875.974000	-4.563033
876.179000	-0.862871
876.384000	-0.621181
876.589000	-2.076305
876.794000	-1.869495
877.000000	-3.218706
877.205000	-4.456047
877.410000	-1.628359
877.615000	-3.146333
877.821000	-4.972972
878.026000	-3.559541
878.231000	-3.889471
878.436000	-3.789987
878.642000	-3.202396
878.847000	-1.778611
879.052000	-0.681052
879.257000	-2.559310
879.463000	-3.318208
879.668000	-2.604100
879.873000	-0.582497
880.078000	-3.055417
880.283000	-4.975865
880.489000	-5.548311
880.694000	-4.381262
880.899000	-2.193362
881.104000	-0.678686
881.310000	1.163433
881.515000	-0.428869
881.720000	0.873669
881.925000	2.538164
882.131000	3.723804
882.336000	0.491895
882.541000	-3.484506
882.746000	-3.430521
882.952000	-3.881509
883.157000	-3.363710
883.362000	-3.568726
883.567000	-4.314733
883.772000	-4.166713
883.978000	-3.331226
884.183000	-1.553266
884.388000	-2.027560
884.593000	-4.013292
884.799000	0.538470
885.004000	0.044276
885.209000	-1.757051
885.414000	-1.265449
885.620000	-3.897913
885.825000	-1.447964
886.030000	-1.847387
886.235000	-3.102885
886.440000	-2.131159
886.646000	-4.640434
886.851000	-4.679014
887.056000	-0.672756
887.261000	-1.484310
887.467000	-4.332773
887.672000	-1.546914
887.877000	-3.358377
888.082000	-5.483413
888.288000	-5.447839
888.493000	-7.822709
888.698000	-5.966110
888.903000	-2.477796
889.109000	-3.874366
889.314000	-0.740645
889.519000	-2.040805
889.724000	0.235816
889.929000	-1.762817
890.135000	-2.619774
890.340000	-2.814221
890.545000	-3.877723
890.750000	-4.889711
890.956000	-3.483732
891.161000	-0.893610
891.366000	-2.944448
891.571000	-1.780440
891.777000	-2.263749
891.982000	-0.629202
892.187000	-0.972152
892.392000	-0.016164
892.598000	-0.390150
892.803000	-0.803599
893.008000	-3.227593
893.213000	-3.480515
893.418000	-3.702514
893.624000	-4.084930
893.829000	-6.254137
894.034000	-3.117154
894.239000	-1.549582
894.445000	-4.205766
894.650000	-4.277087
894.855000	-3.546380
895.060000	-3.774265
895.266000	-3.747961
895.471000	-5.061893
895.676000	-1.636936
895.881000	-1.242526
896.087000	-2.843039
896.292000	-4.009574
896.497000	0.740420
896.702000	-1.663555
896.907000	-4.036481
897.113000	0.603399
897.318000	0.878794
897.523000	0.155490
897.728000	-2.670850
897.934000	-3.025275
898.139000	-3.068288
898.344000	-0.314961
898.549000	-1.513387
898.755000	-3.348263
898.960000	-3.599445
899.165000	-5.516899
899.370000	-2.244582
899.575000	1.071576
899.781000	-3.223857
899.986000	-3.886741
900.191000	-2.379387
900.396000	-2.941593
900.602000	-2.559844
900.807000	-3.089866
901.012000	-2.005852
901.217000	-0.682576
901.423000	-3.327641
901.628000	-4.777592
901.833000	-0.352225
902.038000	-0.354963
902.244000	-4.303760
902.449000	-3.485771
902.654000	-3.465696
902.859000	-2.361736
903.064000	-0.170860
903.270000	0.076211
903.475000	-4.366421
903.680000	-6.419137
903.885000	-5.529520
904.091000	-4.689540
904.296000	-6.141949
904.501000	-4.824125
904.706000	-4.098089
904.912000	0.138078
905.117000	-1.782723
905.322000	-5.231835
905.527000	-4.829924
905.733000	-3.580072
905.938000	-3.902684
906.143000	-5.266109
906.348000	-6.446024
906.553000	-1.572026
906.759000	-0.081613
906.964000	-1.435311
907.169000	-3.154850
907.374000	-5.986994
907.580000	-4.116002
907.785000	-3.787174
907.990000	18.696948
908.195000	11.928688
908.401000	-0.978263
908.606000	-8.339546
908.811000	-9.655715
909.016000	-2.538736
909.221000	-1.840526
909.427000	-3.250021
909.632000	-5.688621
909.837000	-4.547630
910.042000	-5.591369
910.248000	-7.404030
910.453000	-3.409854
910.658000	-4.484450
910.863000	-4.724937
911.069000	-6.486911
911.274000	-2.118095
911.479000	-0.158701
911.684000	-6.999318
911.890000	-4.631607
912.095000	-4.454566
912.300000	-7.132118
912.506000	-5.961906
912.711000	-5.942975
912.917000	-3.359029
913.123000	-2.918429
913.328000	-3.006936
913.534000	-2.963398
913.740000	6.302597
913.946000	2.351304
914.151000	-5.034750
914.357000	-6.974482
914.563000	-2.113232
914.768000	-5.397172
914.974000	-7.802329
915.180000	-6.643391
915.385000	-4.909524
915.591000	-8.330244
915.797000	-3.588969
916.002000	0.227374
916.208000	-2.892262
916.414000	-6.178593
916.620000	-6.828824
916.825000	-3.271745
917.031000	-3.862576
917.237000	-9.578915
917.442000	-5.892474
917.648000	-6.461954
917.854000	-7.503467
918.059000	-1.263565
918.265000	-0.630991
918.471000	-3.752272
918.676000	-6.863622
918.882000	-9.650981
919.088000	-7.729533
919.294000	-12.077168
919.499000	-7.487688
919.705000	-1.703519
919.911000	-3.626689
920.116000	-1.914745
920.322000	-7.580056
920.528000	-5.743476
920.733000	-8.465598
920.939000	-9.185114
921.145000	-8.025890
921.350000	-6.687527
921.556000	-5.056898
921.762000	-5.826924
921.968000	-6.628507
922.173000	-7.492403
922.379000	-9.627071
922.585000	-5.769282
922.790000	-6.792409
922.996000	-7.776035
923.202000	-8.477736
923.407000	-8.286192
923.613000	-6.766461
923.819000	-4.580015
924.024000	-4.826688
924.230000	-2.397829
924.436000	-4.516638
924.642000	5.293192
924.847000	0.917724
925.053000	-6.448957
925.259000	-11.206077
925.464000	-4.683744
925.670000	-5.125660
925.876000	-8.692838
926.081000	-9.030765
926.287000	-3.633077
926.493000	-2.475777
926.698000	-4.959812
926.904000	-2.957638
927.110000	-5.388734
927.316000	-4.647883
927.521000	2.683003
927.727000	-3.165890
927.933000	-6.496002
928.138000	-6.112360
928.344000	-12.297153
928.550000	-6.992604
928.755000	-2.076126
928.961000	-7.199348
929.167000	-7.066572
929.372000	2.270275
929.578000	0.035800
929.784000	-6.923845
929.990000	-10.723373
930.195000	-7.228373
930.401000	-6.952829
930.607000	-4.952076
930.812000	-3.592935
931.018000	-7.699193
931.224000	-13.569282
931.429000	-9.314128
931.635000	-12.731995
931.841000	-12.475060
932.046000	-8.036090
932.252000	-3.155020
932.458000	2.717654
932.664000	-2.041553
932.869000	-7.742432
933.075000	-9.971472
933.281000	-9.190341
933.486000	-2.033104
933.692000	-5.554970
933.898000	-10.218347
934.103000	-2.924615
934.309000	-6.855321
934.515000	-4.103866
934.720000	-1.630028
934.926000	0.259531
935.132000	-0.259740
935.338000	-3.238173
935.543000	-10.830396
935.749000	-12.544896
935.955000	-14.402991
936.160000	-13.249463
936.366000	-3.116050
936.572000	-4.298915
936.777000	-2.717973
936.983000	-0.191183
937.189000	-5.635948
937.394000	-10.691914
937.600000	-1.422397
937.806000	2.816110
938.012000	-6.122639
938.217000	4.044749
938.423000	1.120240
938.629000	-8.250236
938.834000	-14.669532
939.040000	-13.519790
939.246000	-8.048861
939.451000	-11.855025
939.657000	-6.787828
939.863000	-11.111644
940.068000	-3.447928
940.274000	-6.998110
940.480000	-5.248611
940.686000	-4.150504
940.891000	-7.611033
941.097000	16.794111
941.303000	4.717147
941.508000	-7.637876
941.714000	-3.781531
941.920000	-14.911769
942.125000	-5.509273
942.331000	-4.225587
942.537000	2.438281
942.742000	0.180223
942.948000	-10.935137
943.154000	-12.962142
943.360000	-25.480522
943.565000	-10.050042
943.771000	2.969460
943.977000	4.362312
944.182000	-14.965931
944.388000	-17.186968
944.594000	-1.310942
944.799000	6.684262
945.005000	-3.162165
945.211000	2.736237
945.416000	-0.126293
945.622000	-14.750515
945.828000	-13.501884
946.034000	-3.707064
946.239000	-3.269964
946.445000	-9.272186
946.651000	-18.969932
946.856000	-16.127027
947.062000	-2.321261
947.268000	-2.142742
947.473000	-16.624822
947.679000	-20.333622
947.885000	-5.987433
948.090000	0.397200
948.296000	14.608406
948.502000	0.729855
948.708000	-11.244198
948.913000	-14.696264
949.119000	-2.234096
949.325000	-8.061397
949.530000	-21.352977
949.736000	-27.156642
949.942000	-16.889622
950.147000	-15.453628
950.353000	-13.776748
950.559000	-9.549129
950.764000	12.353234
950.970000	5.672029
951.176000	-11.130040
951.382000	-18.625077
951.587000	-5.970099
951.793000	0.715424
951.999000	0.141051
952.204000	-14.029300
952.410000	-26.114651
952.616000	-11.485030
952.821000	-8.951617
953.027000	-17.510702
953.233000	-19.981720
953.438000	-19.112157
953.644000	-0.434184
953.850000	-5.141277
954.056000	-9.805928
954.261000	-10.676835
954.467000	-0.959476
954.673000	4.419088
954.878000	-7.168741
955.084000	-6.881614
955.290000	-21.545317
955.495000	-23.471076
955.701000	-18.429493
955.907000	1.286453
956.112000	-1.664991
956.318000	5.925668
956.524000	5.083462
956.730000	-10.480972
956.935000	-12.754353
957.141000	-16.199294
957.347000	-4.051024
957.552000	-9.416565
957.758000	-23.051387
957.964000	-33.433683
958.169000	0.158098
958.375000	0.237881
958.581000	-14.422266
958.786000	-25.591590
958.992000	-29.187655
959.198000	-9.775199
959.404000	-4.464394
959.609000	-12.132759
959.815000	-17.452607
960.021000	2.397033
960.226000	-5.753777
960.432000	-32.054109
960.638000	-21.302412
960.843000	-14.538253
961.049000	-13.891394
961.255000	-2.223438
961.460000	-16.537450
961.666000	-37.937479
961.872000	-22.722911
962.078000	-19.419692
962.283000	-31.002803
962.489000	-29.782703
962.695000	-18.828550
962.900000	-13.722528
963.106000	-11.812726
963.312000	-17.133443
963.517000	-21.450754
963.723000	-24.752916
963.929000	-1.470792
964.134000	5.229440
964.340000	-19.667410
964.546000	-19.384547
964.752000	-24.370291
964.957000	-29.705213
965.163000	-3.443738
965.369000	-5.621071
965.574000	-3.427070
965.780000	-8.721822
966.000000	-19.517491
966.220000	-15.490330
966.440000	-12.894258
966.661000	-0.997865
966.881000	-20.218817
967.101000	-38.296290
967.321000	-39.703551
967.541000	-15.515591
967.761000	-19.901116
967.981000	-13.326674
968.202000	-14.270698
968.422000	-0.948177
968.642000	-1.155318
968.862000	-2.466151
969.082000	-11.665188
969.302000	-5.241793
969.522000	-11.838703
969.743000	3.415806
969.963000	-17.455611
970.183000	-29.378272
970.403000	-25.655450
970.623000	-26.734623
970.843000	-3.155828
971.063000	-5.722382
971.284000	-28.094873
971.504000	-37.080923
971.724000	-13.334093
971.944000	-28.111196
972.164000	-39.877595
972.384000	-31.780653
972.604000	-42.980555
972.825000	-47.912553
973.045000	-34.058153
973.265000	24.778844
973.485000	11.876498
973.705000	-9.330536
973.925000	-16.922748
974.145000	-53.037843
974.365000	-20.953770
974.586000	-16.653092
974.806000	-32.671086
975.026000	0.391867
975.246000	-14.093540
975.466000	-30.899055
975.686000	-15.340624
975.906000	-26.937744
976.127000	-50.298524
976.347000	-41.922486
976.567000	-10.321678
976.787000	-13.486843
977.007000	-21.003652
977.227000	-24.654170
977.447000	-28.601981
977.668000	-50.325341
977.888000	-33.767126
978.108000	-35.068969
978.328000	-23.175374
978.548000	5.489938
978.768000	11.037380
978.988000	-1.076198
979.209000	-19.436648
979.429000	-24.012323
979.649000	-8.727487
979.869000	-29.912234
980.089000	-46.986562
980.309000	-52.392247
980.529000	-58.324156
980.750000	-36.008518
980.970000	-49.648255
981.190000	-29.917366
981.410000	-25.590964
981.630000	-41.644308
981.850000	-31.858960
982.070000	-22.687971
982.291000	-51.533444
982.511000	-52.254922
982.731000	-13.739055
982.951000	-31.340973
983.171000	-31.782876
983.391000	-27.512541
983.611000	-1.072243
983.832000	-31.771302
984.052000	-57.198515
984.272000	-32.703759
984.492000	-24.281222
984.712000	-32.056500
984.932000	-53.059724
985.152000	-62.736927
985.373000	-47.253415
985.593000	-19.305167
985.813000	-34.041981
986.033000	-47.027253
986.253000	-5.700041
986.473000	-1.161464
986.693000	-34.880623
986.914000	-41.095932
987.134000	10.846996
987.354000	-26.314505
987.574000	167.535606
987.794000	95.340597
988.014000	-48.292265
988.234000	-33.019604
988.455000	-19.154026
988.675000	-17.211689
988.895000	-26.718071
989.115000	-43.891883
989.335000	-23.762685
989.555000	-13.356851
989.775000	-51.284936
989.995000	-41.614088
990.216000	-30.833073
990.436000	-31.608601
990.656000	9.230833
990.876000	-29.490794
991.096000	-22.656509
991.316000	6.413029
991.536000	-22.839070
991.757000	-33.738127
991.977000	-78.652113
992.197000	-16.602777
992.417000	-29.460137
992.637000	-87.436034
992.857000	-94.629201
993.077000	-85.828938
993.298000	-50.771069
993.518000	-53.691437
993.738000	-100.739689
993.958000	-51.420569
994.178000	-57.715837
994.398000	-50.640139
994.618000	-88.429647
994.839000	-139.349408
995.059000	-33.336695
995.279000	35.991058
995.499000	-15.126484
995.719000	-13.663171
995.939000	-35.600079
996.159000	-35.419575
996.380000	-27.714340
996.600000	-82.379072
996.820000	-40.046727
997.040000	5.298949
997.260000	-62.898786
997.480000	-45.506977
997.700000	-108.986204
997.921000	-70.372065
998.141000	26.736295
998.361000	-4.050228
998.581000	-61.624029
998.801000	-91.261601
999.021000	-63.971083
999.241000	-37.955500
999.462000	-64.836918
999.682000	-113.765699
999.902000	-68.656985
1000.122000	-85.230431
1000.342000	-139.594048
1000.562000	-68.218308
1000.782000	-76.958416
1001.003000	-1072.456012
