Wavelength	Irradiance
(nm)	(mW/cm2/nm)

294.396000	0.000000
294.577000	0.000000
294.757000	0.000000
294.938000	-0.000000
295.118000	0.000000
295.299000	0.000000
295.479000	-0.000000
295.660000	-0.000000
295.840000	-0.000000
296.021000	-0.000000
296.202000	-0.000000
296.382000	-0.000000
296.563000	-0.000000
296.743000	-0.000000
296.924000	0.000000
297.104000	-0.000000
297.285000	-0.000000
297.465000	-0.000000
297.646000	-0.000000
297.826000	0.000000
298.007000	0.000000
298.187000	-0.000000
298.368000	-0.000000
298.548000	0.000000
298.729000	0.000000
298.909000	-0.000000
299.090000	-0.000000
299.270000	-0.000000
299.451000	-0.000000
299.631000	-0.000000
299.812000	-0.000000
299.992000	0.000000
300.173000	0.000000
300.353000	-0.000000
300.534000	0.000000
300.714000	0.000000
300.895000	0.000000
301.075000	-0.000000
301.256000	0.000000
301.436000	0.000000
301.617000	-0.000000
301.797000	-0.000000
301.978000	-0.000000
302.159000	0.000000
302.339000	0.000000
302.520000	-0.000000
302.700000	-0.000000
302.881000	0.000000
303.061000	0.000000
303.242000	0.000000
303.422000	0.000000
303.603000	-0.000000
303.783000	-0.000000
303.964000	-0.000000
304.144000	-0.000000
304.325000	-0.000000
304.505000	0.000000
304.686000	-0.000000
304.866000	0.000000
305.047000	-0.000000
305.227000	-0.000000
305.408000	-0.000000
305.588000	-0.000000
305.769000	-0.000000
305.949000	-0.000000
306.130000	-0.000000
306.310000	-0.000000
306.491000	-0.000000
306.671000	0.000000
306.852000	-0.000000
307.032000	-0.000000
307.213000	0.000000
307.393000	-0.000000
307.574000	0.000000
307.755000	0.000000
307.935000	0.000000
308.116000	-0.000000
308.296000	-0.000000
308.477000	0.000000
308.657000	0.000000
308.838000	0.000000
309.018000	0.000000
309.199000	-0.000000
309.379000	-0.000000
309.560000	0.000000
309.740000	-0.000000
309.921000	0.000000
310.101000	0.000000
310.282000	-0.000000
310.462000	-0.000000
310.643000	-0.000000
310.823000	-0.000000
311.004000	-0.000000
311.184000	-0.000000
311.365000	0.000000
311.545000	0.000000
311.726000	0.000000
311.906000	-0.000000
312.087000	0.000000
312.267000	-0.000000
312.448000	-0.000000
312.628000	-0.000000
312.809000	-0.000000
312.989000	-0.000000
313.170000	-0.000000
313.344000	-0.000000
313.518000	-0.000000
313.691000	-0.000000
313.865000	-0.000000
314.039000	-0.000000
314.213000	-0.000000
314.387000	-0.000000
314.560000	-0.000000
314.734000	-0.000000
314.908000	-0.000000
315.082000	-0.000000
315.255000	0.000000
315.429000	0.000000
315.603000	0.000000
315.777000	-0.000000
315.951000	0.000000
316.124000	-0.000000
316.298000	-0.000000
316.472000	-0.000000
316.646000	-0.000000
316.820000	-0.000000
316.993000	0.000000
317.167000	-0.000000
317.341000	-0.000000
317.515000	-0.000000
317.688000	-0.000000
317.862000	-0.000000
318.036000	-0.000000
318.210000	-0.000000
318.384000	-0.000000
318.557000	-0.000000
318.731000	-0.000000
318.905000	-0.000000
319.079000	-0.000000
319.253000	-0.000000
319.426000	0.000000
319.600000	0.000000
319.774000	-0.000000
319.948000	-0.000000
320.122000	0.000000
320.295000	-0.000000
320.469000	-0.000000
320.643000	-0.000000
320.817000	-0.000000
320.990000	-0.000000
321.164000	-0.000000
321.338000	-0.000000
321.512000	-0.000000
321.686000	-0.000000
321.859000	-0.000000
322.033000	0.000000
322.207000	-0.000000
322.381000	-0.000000
322.555000	0.000000
322.728000	0.000000
322.902000	-0.000000
323.076000	-0.000000
323.250000	-0.000000
323.423000	-0.000000
323.597000	-0.000000
323.771000	-0.000000
323.945000	-0.000000
324.119000	-0.000000
324.292000	0.000000
324.466000	-0.000000
324.640000	0.000000
324.814000	0.000000
324.988000	-0.000000
325.161000	-0.000000
325.335000	-0.000000
325.509000	-0.000000
325.683000	-0.000000
325.856000	-0.000000
326.030000	-0.000000
326.204000	-0.000000
326.378000	-0.000000
326.552000	-0.000000
326.725000	-0.000000
326.899000	-0.000000
327.073000	-0.000000
327.247000	-0.000000
327.421000	0.000000
327.594000	0.000000
327.768000	-0.000000
327.942000	-0.000000
328.116000	0.000000
328.289000	0.000000
328.463000	-0.000000
328.637000	0.000000
328.811000	-0.000000
328.985000	-0.000000
329.158000	-0.000000
329.332000	-0.000000
329.506000	0.000000
329.680000	-0.000000
329.854000	-0.000000
330.027000	-0.000000
330.201000	0.000000
330.375000	0.000000
330.549000	0.000000
330.723000	-0.000000
330.896000	-0.000000
331.070000	-0.000000
331.244000	-0.000000
331.418000	-0.000000
331.591000	-0.000000
331.765000	-0.000000
331.939000	-0.000000
332.113000	-0.000000
332.287000	-0.000000
332.460000	0.000000
332.634000	0.000000
332.808000	-0.000000
332.982000	-0.000000
333.156000	-0.000000
333.329000	-0.000000
333.503000	-0.000000
333.677000	-0.000000
333.851000	-0.000000
334.024000	-0.000000
334.198000	-0.000000
334.372000	-0.000000
334.546000	-0.000000
334.720000	-0.000000
334.893000	-0.000000
335.067000	-0.000000
335.241000	0.000000
335.415000	-0.000000
335.589000	-0.000000
335.762000	-0.000000
335.936000	-0.000000
336.110000	-0.000000
336.284000	-0.000000
336.458000	-0.000000
336.631000	-0.000000
336.805000	-0.000000
336.979000	-0.000000
337.153000	-0.000000
337.326000	-0.000000
337.500000	-0.000000
337.674000	-0.000000
337.848000	-0.000000
338.022000	0.000000
338.195000	-0.000000
338.369000	-0.000000
338.543000	-0.000000
338.717000	-0.000000
338.891000	0.000000
339.064000	0.000000
339.238000	-0.000000
339.412000	-0.000000
339.586000	-0.000000
339.759000	-0.000000
339.933000	-0.000000
340.107000	0.000000
340.281000	0.000000
340.455000	-0.000000
340.628000	-0.000000
340.802000	-0.000000
340.976000	-0.000000
341.150000	-0.000000
341.324000	-0.000000
341.497000	-0.000000
341.671000	-0.000000
341.845000	-0.000000
342.019000	-0.000000
342.192000	-0.000000
342.366000	-0.000000
342.540000	-0.000000
342.714000	-0.000000
342.888000	-0.000000
343.061000	-0.000000
343.235000	-0.000000
343.409000	-0.000000
343.583000	-0.000000
343.757000	-0.000000
343.930000	-0.000000
344.104000	-0.000000
344.278000	0.000000
344.452000	0.000000
344.626000	-0.000000
344.799000	-0.000000
344.973000	-0.000000
345.147000	-0.000000
345.321000	-0.000000
345.494000	-0.000000
345.668000	0.000000
345.842000	0.000000
346.016000	-0.000000
346.190000	0.000000
346.363000	0.000000
346.537000	-0.000000
346.711000	-0.000000
346.885000	-0.000000
347.059000	-0.000000
347.232000	-0.000000
347.406000	0.000000
347.580000	-0.000000
347.754000	-0.000000
347.927000	0.000000
348.101000	0.000000
348.275000	-0.000000
348.449000	-0.000000
348.623000	-0.000000
348.796000	-0.000000
348.970000	0.000000
349.144000	-0.000000
349.318000	-0.000000
349.492000	-0.000000
349.665000	-0.000000
349.839000	-0.000000
350.013000	-0.000000
350.187000	-0.000000
350.361000	-0.000000
350.534000	-0.000000
350.708000	-0.000000
350.882000	-0.000000
351.056000	0.000000
351.229000	0.000000
351.403000	-0.000000
351.577000	-0.000000
351.751000	-0.000000
351.925000	-0.000000
352.098000	-0.000000
352.272000	-0.000000
352.446000	-0.000000
352.620000	-0.000000
352.794000	-0.000000
352.967000	-0.000000
353.141000	0.000000
353.315000	0.000000
353.489000	-0.000000
353.662000	-0.000000
353.836000	-0.000000
354.010000	-0.000000
354.184000	-0.000000
354.358000	-0.000000
354.531000	-0.000000
354.705000	-0.000000
354.879000	-0.000000
355.053000	-0.000000
355.227000	0.000000
355.400000	-0.000000
355.574000	0.000000
355.748000	0.000000
355.922000	-0.000000
356.095000	-0.000000
356.269000	-0.000000
356.443000	-0.000000
356.617000	-0.000000
356.791000	-0.000000
356.964000	-0.000000
357.138000	-0.000000
357.312000	-0.000000
357.486000	-0.000000
357.660000	-0.000000
357.833000	-0.000000
358.007000	-0.000000
358.181000	-0.000000
358.355000	-0.000000
358.529000	-0.000000
358.702000	-0.000000
358.876000	-0.000000
359.050000	-0.000000
359.224000	-0.000000
359.397000	0.000000
359.571000	-0.000000
359.745000	-0.000000
359.919000	-0.000000
360.093000	-0.039830
360.266000	0.030071
360.440000	0.080303
360.614000	0.102140
360.788000	0.010414
360.962000	-0.206061
361.135000	-0.110146
361.309000	-0.203144
361.483000	-0.307789
361.657000	-0.265587
361.830000	-0.237656
362.004000	-0.034157
362.178000	-0.337829
362.352000	-0.194062
362.526000	-0.056454
362.699000	-0.070560
362.873000	-0.357769
363.047000	-0.328560
363.221000	-0.299426
363.395000	-0.159305
363.568000	-0.188893
363.742000	-0.204343
363.916000	-0.200021
364.090000	-0.313984
364.263000	-0.276936
364.437000	-0.315515
364.611000	-0.042629
364.785000	-0.069181
364.959000	-0.216748
365.132000	-0.213775
365.306000	-0.240294
365.480000	-0.086664
365.656000	-0.177751
365.831000	-0.154539
366.007000	-0.174231
366.183000	-0.160297
366.358000	-0.264942
366.534000	-0.173059
366.710000	-0.354436
366.886000	-0.282025
367.061000	-0.077879
367.237000	0.090656
367.413000	-0.066699
367.588000	-0.316906
367.764000	-0.276832
367.940000	-0.289772
368.115000	-0.260972
368.291000	-0.295253
368.467000	-0.170021
368.643000	0.168174
368.818000	-0.216154
368.994000	-0.379067
369.170000	-0.277174
369.345000	-0.176406
369.521000	-0.232765
369.697000	-0.159484
369.872000	-0.234409
370.048000	-0.305279
370.224000	-0.247516
370.399000	-0.424739
370.575000	-0.311635
370.751000	-0.433577
370.927000	-0.421816
371.102000	-0.381833
371.278000	-0.334622
371.454000	-0.210359
371.629000	0.035127
371.805000	-0.026101
371.981000	0.135340
372.156000	0.303796
372.332000	0.068907
372.508000	-0.039868
372.683000	-0.055782
372.859000	-0.136257
373.035000	-0.170600
373.211000	0.099106
373.386000	-0.051778
373.562000	-0.360604
373.738000	-0.465302
373.913000	-0.605977
374.089000	-0.449084
374.265000	-0.003664
374.440000	0.007775
374.616000	-0.003688
374.792000	-0.205273
374.968000	0.208296
375.143000	-0.027317
375.319000	-0.252673
375.495000	-0.310335
375.670000	-0.180102
375.846000	-0.108933
376.022000	-0.286137
376.197000	-0.212176
376.373000	-0.386533
376.549000	-0.428295
376.724000	-0.457518
376.900000	-0.300933
377.076000	-0.147830
377.252000	0.044841
377.427000	0.121750
377.603000	-0.195644
377.779000	-0.173546
377.954000	-0.340723
378.130000	-0.233426
378.306000	-0.202702
378.481000	-0.133728
378.657000	-0.215369
378.833000	-0.277853
379.009000	-0.127337
379.184000	-0.004758
379.360000	-0.096626
379.536000	-0.104744
379.711000	-0.165987
379.887000	-0.242939
380.063000	-0.287490
380.238000	-0.329672
380.414000	-0.067640
380.590000	-0.312644
380.765000	-0.321420
380.941000	-0.127542
381.117000	-0.096812
381.293000	-0.158667
381.468000	-0.309195
381.644000	-0.223942
381.820000	-0.116206
381.995000	0.015864
382.171000	0.186278
382.347000	0.097341
382.522000	-0.301984
382.698000	0.072260
382.874000	0.096163
383.050000	-0.304421
383.225000	0.099058
383.401000	0.316066
383.577000	-0.101065
383.752000	-0.225849
383.928000	-0.137066
384.104000	-0.091588
384.279000	-0.217711
384.455000	-0.124748
384.631000	-0.176141
384.806000	-0.361526
384.982000	-0.183501
385.158000	-0.241610
385.334000	-0.068568
385.509000	-0.155663
385.685000	-0.433514
385.861000	-0.268059
386.036000	-0.375164
386.212000	-0.527500
386.388000	-0.350737
386.563000	-0.279326
386.739000	-0.308494
386.915000	-0.551253
387.090000	-0.286489
387.266000	-0.091898
387.442000	0.021610
387.618000	-0.066212
387.793000	-0.348720
387.969000	-0.491826
388.145000	-0.384451
388.320000	-0.339638
388.496000	-0.330946
388.672000	-0.553878
388.847000	-0.097720
389.023000	-0.079367
389.199000	-0.379112
389.375000	-0.189146
389.550000	-0.304374
389.726000	-0.140234
389.902000	-0.344048
390.077000	-0.213824
390.253000	-0.141051
390.429000	-0.216428
390.604000	-0.163225
390.780000	-0.129673
390.956000	-0.249337
391.131000	-0.276653
391.307000	0.009387
391.483000	-0.151635
391.659000	-0.313676
391.834000	-0.104033
392.010000	-0.280704
392.186000	-0.327272
392.361000	-0.247983
392.537000	-0.374195
392.713000	0.061661
392.888000	0.180464
393.064000	-0.065182
393.240000	-0.194137
393.416000	-0.339439
393.591000	-0.428822
393.767000	-0.470344
393.943000	-0.347736
394.118000	-0.097916
394.294000	0.114967
394.470000	-0.004380
394.645000	0.078481
394.821000	0.202802
394.997000	-0.107315
395.172000	-0.133465
395.348000	-0.229645
395.524000	-0.501052
395.700000	-0.354711
395.875000	-0.105966
396.051000	-0.129002
396.227000	-0.195557
396.402000	-0.233477
396.578000	-0.171567
396.754000	-0.320317
396.929000	-0.261489
397.105000	-0.038465
397.281000	-0.096848
397.457000	-0.193241
397.632000	-0.199901
397.808000	-0.476846
397.984000	-0.587948
398.159000	-0.468086
398.335000	-0.294883
398.511000	0.140219
398.686000	-0.069872
398.862000	-0.307249
399.038000	-0.422368
399.213000	-0.189651
399.389000	-0.485356
399.565000	-0.179669
399.741000	0.039053
399.916000	-0.054503
400.092000	0.205533
400.268000	-0.113078
400.443000	-0.259503
400.619000	0.029506
400.795000	-0.075292
400.970000	-0.240357
401.146000	-0.285682
401.322000	-0.010790
401.497000	0.408503
401.673000	0.104103
401.849000	-0.222463
402.025000	-0.058558
402.200000	-0.161328
402.376000	-0.259809
402.552000	0.141479
402.727000	-0.037775
402.903000	-0.341203
403.079000	-0.222542
403.254000	0.009844
403.430000	0.001182
403.606000	-0.065547
403.782000	-0.110613
403.957000	-0.335155
404.133000	-0.471121
404.309000	-0.282975
404.484000	-0.068796
404.660000	-0.089500
404.841000	-0.222429
405.023000	-0.020306
405.204000	-0.076398
405.385000	-0.361441
405.566000	-0.357661
405.748000	-0.223106
405.929000	-0.008645
406.110000	-0.055056
406.292000	-0.157307
406.473000	-0.079331
406.654000	-0.296366
406.835000	-0.182129
407.017000	-0.239451
407.198000	-0.149673
407.379000	-0.131252
407.560000	-0.199672
407.742000	-0.224781
407.923000	-0.133420
408.104000	-0.308550
408.286000	-0.187065
408.467000	-0.143926
408.648000	-0.371254
408.829000	-0.403007
409.011000	-0.266836
409.192000	-0.446889
409.373000	-0.196863
409.555000	-0.066275
409.736000	-0.090291
409.917000	-0.211249
410.098000	-0.211971
410.280000	-0.114640
410.461000	-0.152266
410.642000	-0.158865
410.823000	0.091664
411.005000	0.042255
411.186000	-0.198129
411.367000	-0.284839
411.549000	-0.302561
411.730000	-0.058935
411.911000	0.039048
412.092000	-0.149956
412.274000	-0.180070
412.455000	-0.113651
412.636000	-0.080328
412.818000	-0.265204
412.999000	-0.373983
413.180000	-0.268120
413.361000	-0.240944
413.543000	-0.293629
413.724000	-0.382946
413.905000	-0.367429
414.087000	-0.368197
414.268000	-0.348770
414.449000	-0.339142
414.630000	-0.438501
414.812000	-0.546783
414.993000	-0.200028
415.174000	-0.044846
415.355000	-0.220889
415.537000	-0.455275
415.718000	-0.168919
415.899000	-0.263398
416.081000	-0.399626
416.262000	-0.174483
416.443000	-0.305669
416.624000	-0.268597
416.806000	-0.137543
416.987000	-0.018203
417.168000	-0.106038
417.350000	-0.303082
417.531000	-0.358519
417.712000	-0.314294
417.893000	-0.126414
418.075000	-0.022907
418.256000	-0.268764
418.437000	-0.167105
418.618000	-0.062125
418.800000	0.021144
418.981000	-0.234216
419.162000	-0.213885
419.344000	0.008077
419.525000	-0.095143
419.706000	-0.164501
419.887000	-0.071017
420.069000	0.063138
420.250000	-0.021907
420.431000	-0.062768
420.613000	-0.127234
420.794000	-0.328381
420.975000	0.044836
421.156000	-0.158275
421.338000	-0.221842
421.519000	-0.221797
421.700000	-0.288323
421.882000	-0.292263
422.063000	-0.105411
422.244000	0.304136
422.425000	0.109454
422.607000	-0.218888
422.788000	-0.251868
422.969000	-0.332542
423.150000	-0.362751
423.332000	-0.425145
423.513000	-0.210715
423.694000	-0.184832
423.876000	-0.120489
424.057000	-0.032793
424.238000	0.005103
424.419000	-0.005920
424.601000	-0.150393
424.782000	-0.127188
424.963000	-0.000895
425.145000	-0.087607
425.326000	-0.027688
425.507000	0.026854
425.688000	-0.113441
425.870000	-0.249884
426.051000	-0.325636
426.232000	-0.277944
426.413000	-0.278580
426.595000	-0.296994
426.776000	-0.314734
426.957000	-0.241283
427.139000	-0.160804
427.320000	-0.151539
427.501000	-0.044968
427.682000	-0.045745
427.864000	-0.053687
428.045000	0.100995
428.226000	0.029174
428.408000	-0.306383
428.589000	-0.139525
428.770000	-0.121298
428.951000	-0.251224
429.133000	-0.386161
429.314000	-0.206606
429.495000	-0.213806
429.677000	-0.189833
429.858000	-0.185087
430.039000	-0.146637
430.220000	-0.073282
430.402000	0.008007
430.583000	-0.239686
430.764000	-0.246627
430.945000	-0.093839
431.127000	0.009916
431.308000	-0.162128
431.489000	-0.049036
431.671000	0.032660
431.852000	-0.042046
432.033000	-0.111646
432.214000	-0.039034
432.396000	0.006928
432.577000	-0.166139
432.758000	-0.322472
432.940000	-0.286869
433.121000	-0.176009
433.302000	-0.098391
433.483000	0.060436
433.665000	0.128629
433.846000	0.035144
434.027000	-0.099549
434.208000	-0.196035
434.390000	-0.231668
434.571000	0.185394
434.752000	0.631812
434.934000	0.434895
435.115000	0.320770
435.296000	0.374415
435.477000	0.201061
435.659000	-0.033047
435.840000	0.056133
436.026000	0.029451
436.211000	-0.110582
436.397000	-0.382508
436.582000	-0.298650
436.768000	-0.101603
436.953000	-0.179515
437.139000	-0.157542
437.325000	0.079500
437.510000	0.015038
437.696000	0.186409
437.881000	0.176814
438.067000	-0.160820
438.252000	-0.140580
438.438000	-0.167300
438.624000	-0.162684
438.809000	-0.101228
438.995000	-0.021068
439.180000	-0.079703
439.366000	-0.122682
439.551000	-0.121603
439.737000	-0.094875
439.923000	-0.037396
440.108000	-0.121355
440.294000	-0.079108
440.479000	0.023676
440.665000	0.093817
440.850000	-0.007080
441.036000	-0.026858
441.222000	-0.051327
441.407000	-0.203080
441.593000	-0.069729
441.778000	0.035811
441.964000	0.106816
442.149000	-0.183961
442.335000	-0.207038
442.521000	-0.114460
442.706000	0.031926
442.892000	-0.041388
443.077000	-0.129184
443.263000	-0.014020
443.448000	-0.063990
443.634000	-0.107955
443.820000	0.197342
444.005000	0.029743
444.191000	-0.209685
444.376000	-0.171292
444.562000	0.224887
444.747000	0.206072
444.933000	0.028686
445.119000	-0.075132
445.304000	-0.113826
445.490000	0.011309
445.675000	-0.000777
445.861000	-0.149595
446.046000	-0.129412
446.232000	-0.021467
446.418000	0.044006
446.603000	0.014724
446.789000	0.018149
446.974000	-0.032698
447.160000	-0.250070
447.345000	-0.141011
447.531000	-0.179335
447.717000	-0.016247
447.902000	0.065690
448.088000	0.127949
448.273000	-0.007598
448.459000	-0.064616
448.644000	-0.124276
448.830000	-0.201688
449.016000	-0.267298
449.201000	-0.185027
449.387000	-0.087121
449.572000	0.034182
449.758000	-0.056989
449.943000	-0.175647
450.129000	-0.194489
450.315000	-0.159352
450.500000	-0.173921
450.686000	-0.136824
450.871000	-0.250162
451.057000	-0.078939
451.243000	-0.077151
451.428000	-0.100201
451.614000	-0.110139
451.799000	-0.143120
451.985000	0.069538
452.170000	0.101627
452.356000	-0.098003
452.542000	-0.099814
452.727000	0.028778
452.913000	-0.084448
453.098000	0.102358
453.284000	0.229902
453.469000	0.068604
453.655000	0.161374
453.841000	0.092828
454.026000	-0.068750
454.212000	-0.024190
454.397000	0.000922
454.583000	-0.153790
454.768000	-0.226947
454.954000	0.010949
455.140000	0.045139
455.325000	-0.136441
455.511000	-0.242503
455.696000	-0.204043
455.882000	-0.049165
456.067000	0.113659
456.253000	-0.071741
456.439000	-0.183626
456.624000	-0.180525
456.810000	-0.185838
456.995000	-0.151182
457.181000	-0.217927
457.366000	-0.047751
457.552000	-0.035235
457.738000	0.060793
457.923000	0.051037
458.109000	0.170723
458.294000	0.126082
458.480000	0.074291
458.665000	0.009125
458.851000	-0.125476
459.037000	-0.273005
459.222000	-0.099378
459.408000	-0.085521
459.593000	-0.056712
459.779000	0.048605
459.964000	0.199379
460.150000	0.365297
460.336000	0.221420
460.521000	0.043559
460.707000	-0.057756
460.892000	-0.151446
461.078000	0.037850
461.263000	0.112081
461.449000	-0.036852
461.635000	-0.018366
461.820000	-0.008724
462.006000	0.057463
462.191000	0.032636
462.377000	-0.139265
462.562000	0.101744
462.748000	0.259142
462.934000	-0.095895
463.119000	-0.198091
463.305000	0.002437
463.490000	-0.080503
463.676000	-0.026589
463.861000	-0.047187
464.047000	-0.069026
464.233000	0.000858
464.418000	-0.046678
464.604000	-0.122777
464.789000	0.042875
464.975000	0.080747
465.160000	-0.020124
465.346000	-0.027877
465.532000	-0.131347
465.717000	-0.167624
465.903000	0.111701
466.088000	0.067433
466.274000	-0.135488
466.459000	-0.151068
466.645000	0.213209
466.831000	0.180409
467.016000	0.157896
467.202000	0.063180
467.387000	-0.018340
467.573000	-0.161187
467.758000	0.119562
467.944000	0.006162
468.130000	-0.102385
468.315000	0.048275
468.501000	0.148730
468.686000	0.032776
468.872000	0.049524
469.057000	0.138493
469.243000	0.029778
469.429000	-0.015906
469.614000	-0.099380
469.800000	-0.131271
469.985000	0.038676
470.171000	0.122984
470.356000	0.006887
470.542000	0.088966
470.728000	0.076545
470.913000	0.030210
471.099000	0.150644
471.284000	0.061490
471.470000	-0.009036
471.655000	0.008430
471.841000	-0.008251
472.027000	-0.052632
472.212000	0.125927
472.398000	0.169437
472.583000	0.068952
472.769000	0.078181
472.954000	0.066702
473.140000	-0.076820
473.326000	-0.100319
473.511000	0.211757
473.697000	0.204464
473.882000	0.070506
474.068000	-0.006753
474.253000	-0.091340
474.439000	-0.008248
474.625000	0.061256
474.810000	0.074150
474.996000	0.078685
475.181000	-0.073725
475.367000	0.101090
475.552000	0.333657
475.738000	0.019676
475.924000	-0.002191
476.109000	0.111854
476.295000	0.023501
476.480000	0.075720
476.666000	0.052191
476.851000	0.078584
477.037000	0.150327
477.223000	0.058277
477.408000	-0.056630
477.594000	-0.144953
477.779000	0.003860
477.965000	0.047777
478.151000	-0.067299
478.336000	0.064481
478.522000	0.005367
478.707000	-0.033181
478.893000	0.072028
479.078000	-0.074332
479.264000	-0.081186
479.450000	-0.003723
479.635000	0.124508
479.821000	0.059361
480.006000	0.148935
480.192000	0.143483
480.377000	0.160524
480.563000	0.135298
480.749000	-0.037172
480.934000	0.000835
481.120000	0.130205
481.305000	0.204822
481.491000	0.204139
481.676000	0.269985
481.862000	0.266798
482.048000	0.116800
482.233000	0.184039
482.419000	0.189767
482.604000	0.126919
482.790000	0.133758
482.975000	0.193183
483.161000	0.351024
483.347000	0.342137
483.532000	0.266513
483.718000	0.054755
483.903000	0.130881
484.089000	0.188982
484.274000	0.081882
484.460000	0.258131
484.646000	0.312804
484.831000	0.186177
485.017000	0.255256
485.202000	0.293316
485.388000	0.533300
485.573000	0.529235
485.759000	0.329559
485.945000	0.495915
486.130000	0.339196
486.316000	0.342350
486.501000	0.437148
486.687000	0.273989
486.872000	0.238084
487.058000	0.417622
487.244000	0.430701
487.429000	0.277553
487.615000	0.459614
487.800000	0.542256
487.986000	0.431569
488.171000	0.545947
488.357000	0.505188
488.543000	0.519752
488.728000	0.587791
488.914000	0.537423
489.099000	0.448341
489.285000	0.457710
489.470000	0.637974
489.656000	0.668955
489.842000	0.647118
490.027000	0.730874
490.213000	0.586282
490.398000	0.324330
490.584000	0.612311
490.769000	0.651498
490.955000	0.689496
491.141000	0.724800
491.326000	0.706852
491.512000	0.834902
491.697000	0.740951
491.883000	0.638719
492.068000	0.610230
492.254000	0.656079
492.440000	0.740024
492.625000	0.688836
492.811000	0.687443
492.996000	0.822765
493.182000	0.833944
493.367000	0.660037
493.553000	0.622330
493.739000	0.739257
493.924000	0.847174
494.110000	0.877165
494.295000	0.793427
494.481000	0.918338
494.666000	0.934220
494.852000	1.126789
495.038000	0.992237
495.223000	0.874308
495.409000	0.945178
495.594000	0.950358
495.780000	1.033721
495.965000	0.959672
496.151000	1.161167
496.337000	1.247265
496.522000	1.049372
496.708000	1.144663
496.893000	1.313144
497.079000	1.155361
497.264000	1.148134
497.450000	1.239686
497.636000	1.345644
497.821000	1.223263
498.007000	1.458204
498.192000	1.509632
498.378000	1.387148
498.563000	1.353855
498.749000	1.433557
498.935000	1.460808
499.120000	1.542432
499.306000	1.421361
499.491000	1.437532
499.677000	1.574289
499.862000	1.657010
500.048000	1.736808
500.234000	1.659313
500.419000	1.661622
500.605000	1.844208
500.790000	1.795500
500.976000	1.700597
501.161000	1.649821
501.347000	1.855335
501.533000	1.991746
501.718000	1.900715
501.904000	1.909468
502.089000	2.054471
502.275000	2.141978
502.460000	2.043098
502.646000	2.118733
502.832000	2.190316
503.017000	2.180334
503.203000	2.033364
503.388000	2.055598
503.574000	2.311260
503.759000	2.404358
503.945000	2.484286
504.131000	2.414227
504.316000	2.378115
504.502000	2.418007
504.687000	2.460659
504.873000	2.387430
505.058000	2.397270
505.244000	2.414793
505.430000	2.522353
505.615000	2.656295
505.801000	2.766606
505.986000	2.609879
506.172000	2.750584
506.358000	2.798975
506.543000	2.817783
506.729000	3.043168
506.914000	3.033843
507.100000	3.101183
507.285000	2.943999
507.471000	2.932682
507.657000	3.258216
507.842000	3.118008
508.028000	2.969695
508.213000	3.032011
508.399000	3.146121
508.584000	3.352630
508.770000	3.230178
508.956000	3.219510
509.141000	3.325843
509.327000	3.430376
509.512000	3.381693
509.698000	3.429317
509.883000	3.540261
510.069000	3.492348
510.255000	3.498321
510.440000	3.599300
510.626000	3.576788
510.811000	3.516950
510.997000	3.683908
511.182000	3.932588
511.368000	3.863004
511.554000	3.527530
511.739000	3.624952
511.925000	3.811248
512.110000	3.809878
512.296000	3.944505
512.481000	3.984804
512.667000	3.923246
512.853000	3.734426
513.038000	3.824910
513.224000	3.792478
513.409000	3.730554
513.595000	3.874675
513.780000	3.725015
513.966000	3.794505
514.152000	3.822374
514.337000	3.797250
514.523000	3.824263
514.708000	3.897884
514.894000	3.973334
515.079000	3.792639
515.265000	3.833178
515.451000	3.905412
515.636000	3.802974
515.822000	3.881369
516.007000	3.757717
516.193000	3.915332
516.378000	4.002458
516.564000	3.881384
516.750000	3.867109
516.935000	3.950925
517.121000	3.962074
517.306000	4.028245
517.492000	3.941075
517.677000	3.722058
517.863000	3.697417
518.049000	3.809623
518.234000	3.729296
518.420000	3.784643
518.605000	3.969706
518.791000	3.870120
518.976000	3.684996
519.162000	3.584158
519.348000	3.725317
519.533000	3.660993
519.719000	3.774431
519.904000	3.683786
520.090000	3.629333
520.275000	3.772071
520.461000	3.680085
520.647000	3.445367
520.832000	3.282265
521.018000	3.378431
521.203000	3.359922
521.389000	3.156397
521.574000	3.233443
521.760000	3.339243
521.946000	3.333664
522.131000	3.264601
522.317000	3.198955
522.502000	3.118301
522.688000	3.159338
522.873000	3.123379
523.059000	3.080616
523.245000	3.059016
523.430000	2.926442
523.616000	2.947359
523.801000	2.822915
523.987000	2.852044
524.172000	2.920906
524.358000	2.939453
524.544000	2.903858
524.729000	2.971046
524.915000	2.978163
525.100000	2.795390
525.286000	2.811549
525.471000	2.795371
525.657000	2.756763
525.843000	2.520569
526.028000	2.671248
526.214000	2.580334
526.399000	2.443819
526.585000	2.343512
526.770000	2.318986
526.956000	2.457727
527.142000	2.352464
527.327000	2.462401
527.513000	2.325353
527.698000	2.306612
527.884000	2.339493
528.069000	2.263783
528.255000	2.346261
528.441000	2.228897
528.626000	2.215781
528.812000	2.431865
528.997000	2.258449
529.183000	2.109187
529.368000	2.154489
529.554000	2.157098
529.740000	2.144550
529.925000	2.064274
530.111000	2.037025
530.296000	2.065720
530.482000	2.186269
530.667000	2.070073
530.853000	2.080611
531.039000	1.994912
531.224000	2.042712
531.410000	2.099661
531.595000	1.955571
531.781000	2.006403
531.967000	1.854840
532.152000	1.960191
532.338000	1.830815
532.523000	1.683173
532.709000	1.647663
532.894000	1.744485
533.080000	1.768963
533.266000	1.594968
533.451000	1.542509
533.637000	1.584134
533.822000	1.735018
534.008000	1.584154
534.193000	1.569551
534.379000	1.679594
534.565000	1.587320
534.750000	1.509527
534.936000	1.730647
535.121000	1.551692
535.307000	1.557720
535.492000	1.540153
535.678000	1.329716
535.864000	1.476682
536.049000	1.678283
536.235000	1.445126
536.420000	1.467138
536.606000	1.376116
536.791000	1.237579
536.977000	1.221643
537.163000	1.460011
537.348000	1.459820
537.534000	1.483670
537.719000	1.282840
537.905000	1.143573
538.090000	1.340914
538.276000	1.397365
538.462000	1.368811
538.647000	1.377948
538.833000	1.242793
539.018000	1.319378
539.204000	1.279432
539.389000	1.105356
539.575000	1.397238
539.761000	1.344443
539.946000	1.080092
540.132000	1.202084
540.317000	1.071603
540.503000	1.158736
540.688000	1.194173
540.874000	1.428320
541.060000	1.545415
541.245000	1.374069
541.431000	1.195265
541.616000	1.270825
541.802000	1.221460
541.987000	1.257411
542.173000	1.266047
542.359000	1.157202
542.544000	1.259947
542.730000	1.078361
542.915000	1.060717
543.101000	1.226307
543.286000	1.075141
543.472000	1.004028
543.658000	1.082636
543.843000	1.039436
544.029000	1.234666
544.214000	1.073522
544.400000	0.766569
544.585000	0.926606
544.771000	1.018450
544.957000	1.202609
545.142000	1.292675
545.328000	1.365538
545.513000	1.347207
545.699000	1.276137
545.884000	1.087170
546.070000	1.011698
546.261000	0.939138
546.451000	0.754869
546.642000	0.557578
546.833000	0.672651
547.023000	0.568509
547.214000	0.577905
547.405000	0.709554
547.595000	0.967216
547.786000	0.913893
547.977000	0.700848
548.167000	0.549107
548.358000	0.585417
548.549000	0.925622
548.740000	0.710217
548.930000	0.375389
549.121000	0.489170
549.312000	0.422539
549.502000	0.335123
549.693000	0.487672
549.884000	0.587650
550.074000	0.663813
550.265000	0.426892
550.456000	0.561100
550.646000	0.625495
550.837000	0.555265
551.028000	0.418087
551.218000	0.508499
551.409000	0.365888
551.600000	0.437091
551.790000	0.557787
551.981000	0.296459
552.172000	0.314039
552.362000	0.684076
552.553000	0.685414
552.744000	0.490508
552.934000	0.436395
553.125000	0.372900
553.316000	0.302390
553.506000	0.606995
553.697000	0.445377
553.888000	0.477958
554.079000	0.606506
554.269000	0.562910
554.460000	0.237903
554.651000	0.203524
554.841000	0.069434
555.032000	0.137887
555.223000	0.280398
555.413000	0.402458
555.604000	0.352029
555.795000	0.307214
555.985000	0.370047
556.176000	0.271339
556.367000	-0.006425
556.557000	0.131230
556.748000	0.216880
556.939000	0.173914
557.129000	0.083116
557.320000	0.241634
557.511000	0.205186
557.701000	0.192881
557.892000	0.202403
558.083000	0.397703
558.273000	0.330042
558.464000	0.148697
558.655000	0.159485
558.845000	0.228674
559.036000	0.305080
559.227000	0.260615
559.418000	0.337535
559.608000	0.354866
559.799000	0.075333
559.990000	0.041316
560.180000	0.088060
560.371000	-0.065140
560.562000	-0.010750
560.752000	0.187040
560.943000	-0.008590
561.134000	-0.170141
561.324000	0.066176
561.515000	0.296321
561.706000	0.110501
561.896000	-0.083046
562.087000	0.042178
562.278000	-0.007440
562.468000	-0.162876
562.659000	-0.037567
562.850000	0.306005
563.040000	0.355552
563.231000	-0.102297
563.422000	0.060274
563.612000	-0.051521
563.803000	0.044126
563.994000	-0.029811
564.185000	-0.124696
564.375000	0.084473
564.566000	0.082237
564.757000	0.039682
564.947000	-0.062924
565.138000	0.084218
565.329000	0.010732
565.519000	-0.130521
565.710000	-0.016903
565.901000	0.149041
566.091000	0.257361
566.282000	0.073287
566.473000	0.069888
566.663000	0.082480
566.854000	-0.114551
567.045000	-0.006190
567.235000	0.054652
567.426000	0.072458
567.617000	0.096227
567.807000	0.045051
567.998000	0.063736
568.189000	-0.042654
568.379000	0.047955
568.570000	0.114370
568.761000	0.033275
568.951000	-0.019561
569.142000	-0.069331
569.333000	-0.122183
569.524000	-0.210515
569.714000	-0.249725
569.905000	-0.311132
570.096000	0.057804
570.286000	0.144163
570.477000	0.291544
570.668000	0.100576
570.858000	0.025732
571.049000	-0.078560
571.240000	-0.146059
571.430000	0.076660
571.621000	-0.014138
571.812000	0.029478
572.002000	0.056930
572.193000	-0.092095
572.384000	0.002127
572.574000	0.041656
572.765000	-0.012039
572.956000	-0.063435
573.146000	0.112214
573.337000	0.015221
573.528000	-0.000906
573.718000	0.113511
573.909000	0.134396
574.100000	0.077993
574.290000	-0.072568
574.481000	-0.055521
574.672000	-0.039675
574.863000	0.094186
575.053000	-0.030545
575.244000	0.031656
575.435000	-0.127979
575.625000	-0.135262
575.816000	-0.081213
576.007000	-0.013617
576.197000	-0.026394
576.388000	0.012804
576.579000	0.141772
576.769000	0.104522
576.960000	-0.192014
577.155000	-0.344165
577.350000	-0.068865
577.545000	0.108680
577.740000	-0.084966
577.935000	0.178551
578.130000	0.137179
578.326000	-0.143305
578.521000	0.105914
578.716000	0.130322
578.911000	-0.154856
579.106000	-0.000858
579.301000	0.129294
579.496000	-0.070930
579.691000	-0.329181
579.886000	-0.130140
580.081000	0.002921
580.276000	0.025473
580.471000	-0.067572
580.666000	-0.219439
580.861000	-0.233429
581.057000	-0.194166
581.252000	-0.045901
581.447000	-0.134773
581.642000	-0.140628
581.837000	-0.114206
582.032000	-0.079315
582.227000	0.130123
582.422000	0.100215
582.617000	-0.077427
582.812000	-0.199652
583.007000	-0.136985
583.202000	-0.231317
583.397000	0.002837
583.592000	0.234854
583.788000	-0.026315
583.983000	-0.041755
584.178000	0.057311
584.373000	-0.101328
584.568000	-0.145394
584.763000	-0.174480
584.958000	-0.250441
585.153000	-0.150058
585.348000	-0.122856
585.543000	0.014570
585.738000	-0.032473
585.933000	-0.231528
586.128000	-0.001718
586.324000	0.010972
586.519000	0.012777
586.714000	0.097125
586.909000	0.188146
587.104000	0.166897
587.299000	0.023722
587.494000	0.033674
587.689000	-0.014460
587.884000	-0.011767
588.079000	-0.092046
588.274000	-0.051089
588.469000	-0.052811
588.664000	0.052150
588.859000	0.045822
589.055000	0.009248
589.250000	-0.031972
589.445000	-0.156753
589.640000	-0.148617
589.835000	0.127993
590.030000	0.200626
590.225000	0.189623
590.420000	-0.004514
590.615000	-0.103189
590.810000	-0.064386
591.005000	0.022290
591.200000	-0.078556
591.395000	-0.158105
591.591000	-0.066403
591.786000	0.037926
591.981000	-0.026747
592.176000	0.052026
592.371000	0.071529
592.566000	0.008436
592.761000	0.177137
592.956000	0.144940
593.151000	0.197035
593.346000	0.113741
593.541000	0.143403
593.736000	0.111173
593.931000	-0.042864
594.126000	0.028151
594.322000	0.074909
594.517000	-0.020477
594.712000	-0.095319
594.907000	-0.097540
595.102000	0.040515
595.297000	0.161672
595.492000	0.241094
595.687000	0.056692
595.882000	-0.007456
596.077000	0.106947
596.272000	0.273318
596.467000	0.275298
596.662000	0.153450
596.857000	0.188278
597.053000	0.212396
597.248000	0.257029
597.443000	0.285004
597.638000	0.232201
597.833000	0.040251
598.028000	0.240722
598.223000	0.375135
598.418000	0.307755
598.613000	0.232008
598.808000	0.334805
599.003000	0.319805
599.198000	0.143330
599.393000	0.224972
599.589000	0.354711
599.784000	0.186206
599.979000	0.316853
600.174000	0.549004
600.369000	0.322240
600.564000	0.388526
600.759000	0.636276
600.954000	0.740734
601.149000	0.593450
601.344000	0.282008
601.539000	0.486719
601.734000	0.429708
601.929000	0.208623
602.124000	0.293643
602.320000	0.559876
602.515000	0.835501
602.710000	0.781418
602.905000	0.436714
603.100000	0.418418
603.295000	0.518085
603.490000	0.632497
603.685000	0.684659
603.880000	0.716960
604.075000	0.564984
604.270000	0.597795
604.465000	0.684212
604.660000	0.498038
604.856000	0.677349
605.051000	0.873513
605.246000	0.864888
605.441000	0.651886
605.636000	0.647126
605.831000	0.805909
606.026000	0.722351
606.221000	0.705482
606.416000	0.912011
606.611000	1.108815
606.806000	1.120718
607.001000	1.312153
607.196000	1.087357
607.391000	0.906416
607.587000	1.194987
607.782000	1.173558
607.977000	0.974174
608.172000	1.362656
608.367000	1.447730
608.562000	1.297145
608.757000	1.303747
608.952000	1.263564
609.147000	1.664554
609.342000	1.618869
609.537000	1.452617
609.732000	1.500316
609.927000	1.522518
610.122000	1.659268
610.318000	2.018290
610.513000	2.159745
610.708000	2.055917
610.903000	2.233355
611.098000	2.324360
611.293000	2.264107
611.488000	2.315161
611.683000	2.301935
611.878000	2.237553
612.073000	2.323640
612.268000	2.373019
612.463000	2.467134
612.658000	2.433489
612.854000	2.363929
613.049000	2.344524
613.244000	2.539389
613.439000	2.597730
613.634000	2.336192
613.829000	2.582356
614.024000	2.507140
614.219000	2.524276
614.414000	2.849397
614.609000	2.674128
614.804000	2.544811
614.999000	2.630122
615.194000	2.770302
615.389000	2.879118
615.585000	2.814936
615.780000	3.047646
615.975000	3.007981
616.170000	3.102751
616.365000	3.435033
616.560000	3.620777
616.755000	3.507344
616.950000	3.485851
617.145000	3.670204
617.340000	3.544793
617.535000	3.334065
617.730000	3.655566
617.925000	3.545868
618.120000	3.591148
618.316000	4.003660
618.511000	3.987333
618.706000	3.882849
618.901000	4.079752
619.096000	4.270530
619.291000	4.246633
619.486000	4.382504
619.681000	4.175010
619.876000	4.254142
620.071000	4.469968
620.266000	4.841940
620.461000	5.027217
620.656000	5.015142
620.852000	5.069867
621.047000	5.031799
621.242000	4.991135
621.437000	5.409256
621.632000	5.602252
621.827000	5.452749
622.022000	5.273052
622.217000	5.587719
622.412000	5.867371
622.607000	5.914365
622.802000	5.817400
622.997000	5.915149
623.192000	6.112123
623.387000	6.250922
623.583000	6.071936
623.778000	6.511964
623.973000	6.654506
624.168000	6.763753
624.363000	6.849964
624.558000	6.982662
624.753000	6.852808
624.948000	7.221660
625.143000	7.354125
625.338000	7.337695
625.533000	7.349933
625.728000	7.609789
625.923000	7.915635
626.119000	7.843833
626.314000	7.725490
626.509000	7.910159
626.704000	8.080070
626.899000	8.171152
627.094000	8.307171
627.289000	8.406176
627.484000	8.594080
627.679000	8.710181
627.874000	8.765528
628.069000	9.246006
628.264000	9.226327
628.459000	9.243452
628.654000	9.352861
628.850000	9.370837
629.045000	9.565998
629.240000	9.614358
629.435000	9.633721
629.630000	9.848864
629.825000	9.896662
630.020000	10.067867
630.215000	9.933691
630.410000	10.067628
630.605000	10.150901
630.800000	10.205911
630.995000	10.445135
631.190000	10.728421
631.385000	10.480854
631.581000	10.316318
631.776000	10.339194
631.971000	10.169657
632.166000	10.273215
632.361000	9.961539
632.556000	10.031629
632.751000	10.161505
632.946000	9.836004
633.141000	9.655095
633.336000	9.634834
633.531000	9.681107
633.726000	9.458798
633.921000	9.164510
634.117000	8.864134
634.312000	8.588896
634.507000	8.463691
634.702000	8.393007
634.897000	8.327359
635.092000	8.186515
635.287000	8.066313
635.482000	7.709793
635.677000	7.613621
635.872000	7.501349
636.067000	7.369117
636.262000	6.918388
636.457000	6.319978
636.652000	6.143441
636.848000	5.982599
637.043000	5.832394
637.238000	5.645392
637.433000	5.349693
637.628000	5.298272
637.823000	5.297514
638.018000	5.121747
638.213000	4.787385
638.408000	4.516901
638.603000	4.262809
638.798000	4.090515
638.993000	4.005878
639.188000	3.907330
639.383000	3.698260
639.579000	3.911460
639.774000	3.552544
639.969000	3.247144
640.164000	3.028841
640.359000	2.927815
640.554000	3.072082
640.749000	2.982063
640.944000	2.948558
641.139000	2.834075
641.334000	2.584365
641.529000	2.075139
641.724000	2.097741
641.919000	2.197598
642.115000	2.431966
642.310000	2.327942
642.505000	2.085878
642.700000	1.995250
642.895000	1.829614
643.090000	1.909818
643.285000	2.026204
643.480000	1.904299
643.675000	1.843878
643.870000	2.116406
644.065000	1.866282
644.260000	1.424793
644.455000	1.449098
644.650000	1.345472
644.846000	1.367203
645.041000	1.103788
645.236000	0.909506
645.431000	0.933868
645.626000	0.715692
645.821000	0.911189
646.016000	0.990853
646.211000	1.347586
646.406000	1.169784
646.601000	1.104288
646.796000	0.899478
646.991000	0.622952
647.186000	0.750719
647.381000	0.895740
647.577000	0.841053
647.772000	0.941862
647.967000	0.863455
648.162000	0.807149
648.357000	0.730409
648.552000	0.852000
648.747000	0.762977
648.942000	0.756974
649.137000	0.700688
649.332000	0.507331
649.527000	0.471928
649.722000	0.681527
649.917000	0.808970
650.113000	0.509124
650.308000	0.347783
650.503000	0.378947
650.698000	0.550346
650.893000	0.458970
651.088000	0.497314
651.283000	0.553616
651.478000	0.240722
651.673000	0.461125
651.868000	0.279124
652.063000	0.505162
652.258000	0.648068
652.453000	0.787173
652.648000	0.383650
652.844000	0.287649
653.039000	0.344943
653.234000	-0.038192
653.429000	-0.185212
653.624000	0.034528
653.819000	0.319654
654.014000	0.228218
654.209000	0.055974
654.404000	0.195375
654.599000	0.097337
654.794000	0.113121
654.989000	0.357431
655.184000	0.243060
655.380000	-0.033209
655.575000	-0.017206
655.770000	-0.025251
655.965000	0.069626
656.160000	0.028213
656.355000	0.191299
656.550000	0.138249
656.745000	0.177256
656.940000	0.068624
657.135000	0.133052
657.330000	0.130420
657.525000	-0.107394
657.720000	0.121317
657.915000	0.243620
658.111000	0.126633
658.306000	0.293738
658.501000	0.118926
658.696000	-0.125356
658.891000	0.125684
659.086000	0.055462
659.281000	0.101508
659.476000	-0.118978
659.671000	-0.541239
659.866000	-0.273379
660.061000	0.107176
660.256000	0.203470
660.451000	0.110034
660.646000	-0.094963
660.842000	0.020538
661.037000	-0.182189
661.232000	-0.196076
661.427000	-0.054324
661.622000	-0.134901
661.817000	-0.227592
662.012000	-0.025838
662.207000	-0.191384
662.402000	-0.271409
662.597000	-0.064365
662.792000	-0.381036
662.987000	-0.371134
663.182000	-0.075372
663.378000	-0.042457
663.573000	-0.417206
663.768000	-0.457576
663.963000	-0.253050
664.158000	-0.195079
664.353000	0.167165
664.548000	0.325795
664.743000	0.060923
664.938000	-0.216729
665.133000	-0.222603
665.328000	0.144234
665.523000	0.090375
665.718000	-0.115100
665.913000	-0.163940
666.109000	-0.133647
666.304000	0.114378
666.499000	-0.034668
666.694000	0.012706
666.889000	0.284941
667.084000	-0.008265
667.279000	-0.123054
667.474000	-0.111918
667.669000	-0.033469
667.864000	-0.048931
668.059000	-0.071473
668.254000	-0.095465
668.449000	-0.198324
668.644000	-0.113975
668.840000	0.150689
669.035000	-0.137941
669.230000	-0.431063
669.425000	-0.079084
669.620000	-0.244590
669.815000	-0.327822
670.010000	-0.338866
670.205000	-0.167374
670.400000	-0.093387
670.595000	-0.085142
670.790000	-0.182042
670.985000	-0.143763
671.180000	0.078594
671.376000	-0.296811
671.571000	-0.377595
671.766000	-0.290987
671.961000	-0.359963
672.156000	-0.402069
672.351000	-0.280034
672.546000	-0.303661
672.741000	-0.111918
672.936000	-0.074662
673.131000	0.418462
673.326000	0.088381
673.521000	-0.295195
673.716000	-0.403766
673.911000	-0.524300
674.107000	0.040786
674.302000	0.306617
674.497000	-0.008579
674.692000	-0.369467
674.887000	-0.399929
675.082000	-0.235290
675.277000	0.007468
675.472000	-0.052641
675.667000	-0.230417
675.862000	-0.314284
676.057000	-0.229218
676.252000	-0.128038
676.447000	-0.240605
676.643000	-0.048554
676.838000	0.201237
677.033000	-0.076848
677.228000	0.239135
677.423000	0.167986
677.618000	-0.276863
677.813000	-0.434476
678.008000	-0.174558
678.203000	-0.031241
678.398000	-0.261918
678.593000	-0.167631
678.788000	-0.079503
678.983000	-0.298562
679.178000	-0.163548
679.374000	-0.245002
679.569000	-0.180719
679.764000	-0.271957
679.959000	-0.425658
680.154000	-0.428776
680.349000	-0.602122
680.544000	-0.467656
680.739000	-0.270347
680.934000	-0.387751
681.129000	-0.381209
681.324000	-0.473319
681.519000	-0.303212
681.714000	-0.300253
681.909000	-0.376429
682.105000	-0.527931
682.300000	-0.140085
682.495000	0.003235
682.690000	0.044925
682.885000	0.024875
683.080000	-0.250836
683.275000	-0.249412
683.470000	0.127418
683.665000	0.292571
683.860000	0.370979
684.055000	0.081223
684.250000	-0.285415
684.445000	-0.250685
684.641000	0.145488
684.836000	-0.162635
685.031000	-0.227631
685.226000	-0.196477
685.421000	0.056948
685.616000	-0.198607
685.811000	-0.295542
686.006000	0.050755
686.201000	-0.099587
686.396000	-0.487762
686.591000	-0.396376
686.786000	0.046416
686.981000	-0.156169
687.176000	-0.146954
687.372000	-0.180738
687.567000	0.080240
687.762000	-0.060867
687.957000	-0.155616
688.152000	-0.263775
688.347000	-0.111085
688.542000	-0.389359
688.737000	-0.783383
688.932000	-0.817080
689.127000	-0.345016
689.322000	-0.037217
689.517000	-0.306930
689.712000	-0.479226
689.908000	-0.331179
690.103000	-0.328551
690.298000	-0.241915
690.493000	-0.309786
690.688000	-0.540045
690.883000	-0.362312
691.078000	0.082574
691.273000	0.145220
691.468000	-0.135263
691.663000	-0.170593
691.858000	-0.051236
692.053000	-0.082738
692.248000	0.010125
692.443000	-0.028049
692.639000	-0.171137
692.834000	0.003501
693.029000	0.547236
693.224000	0.419120
693.419000	-0.196084
693.614000	-0.293927
693.809000	-0.395048
694.004000	-0.466561
694.199000	-0.476547
694.394000	-0.153641
694.589000	-0.443138
694.784000	-0.474075
694.979000	-0.204779
695.174000	-0.227373
695.370000	0.284964
695.565000	-0.016823
695.760000	-0.333661
695.955000	0.054806
696.150000	0.141925
696.345000	-0.344443
696.540000	-0.121771
696.740000	-0.231529
696.940000	-0.058227
697.140000	0.058872
697.340000	-0.177961
697.539000	-0.032704
697.739000	-0.133119
697.939000	-0.136676
698.139000	-0.481896
698.339000	-0.767418
698.539000	-0.547792
698.739000	-0.575428
698.939000	-0.478086
699.138000	-0.599955
699.338000	0.138329
699.538000	0.295091
699.738000	-0.211095
699.938000	-0.292328
700.138000	-0.409317
700.338000	-0.575123
700.538000	-0.297948
700.737000	-0.184316
700.937000	-0.617105
701.137000	-0.681824
701.337000	-0.113782
701.537000	-0.053358
701.737000	-0.222610
701.937000	-0.282063
702.137000	-0.217766
702.337000	-0.398863
702.536000	-0.561055
702.736000	-0.515054
702.936000	-0.650655
703.136000	-0.109815
703.336000	-0.097171
703.536000	-0.312568
703.736000	-0.690458
703.936000	-0.576873
704.135000	-0.536808
704.335000	-0.206513
704.535000	-0.487057
704.735000	-0.662267
704.935000	-0.077909
705.135000	-0.142159
705.335000	-0.382495
705.535000	-0.111581
705.735000	-0.106066
705.934000	-0.138969
706.134000	-0.389939
706.334000	-0.400044
706.534000	-0.441067
706.734000	-0.404617
706.934000	-0.537068
707.134000	-0.566654
707.334000	-0.274616
707.533000	-0.219692
707.733000	-0.291541
707.933000	-0.386092
708.133000	-0.062579
708.333000	0.002041
708.533000	-0.284243
708.733000	0.042937
708.933000	-0.143062
709.132000	-0.342787
709.332000	-0.345234
709.532000	-0.424590
709.732000	-0.242723
709.932000	-0.728412
710.132000	-0.709237
710.332000	-0.890397
710.532000	-0.291955
710.732000	-0.067414
710.931000	-0.385054
711.131000	-0.379013
711.331000	-0.215046
711.531000	-0.398861
711.731000	-0.341090
711.931000	-0.239102
712.131000	-0.290030
712.331000	-0.229404
712.530000	-0.303037
712.730000	-0.509051
712.930000	-0.303733
713.130000	-0.350545
713.330000	-0.467399
713.530000	-0.275648
713.730000	0.410308
713.930000	0.021266
714.129000	-0.493575
714.329000	-0.602677
714.529000	-0.295258
714.729000	0.011727
714.929000	-0.130539
715.129000	-0.413833
715.329000	-0.304350
715.529000	-0.309468
715.729000	0.317000
715.928000	0.046672
716.128000	-0.278850
716.328000	-0.184443
716.528000	-0.309183
716.728000	-0.169128
716.928000	-0.391038
717.128000	-0.224145
717.328000	-0.218257
717.527000	-0.407946
717.727000	-0.390751
717.927000	-0.325333
718.127000	-0.358875
718.327000	-0.774288
718.527000	-0.726746
718.727000	-0.282983
718.927000	-0.356390
719.127000	-0.616943
719.326000	-0.425321
719.526000	-0.029407
719.726000	-0.183733
719.926000	-0.716437
720.126000	-0.653019
720.326000	-0.373013
720.526000	-0.480301
720.726000	-0.396116
720.925000	-0.153247
721.125000	-0.577854
721.325000	-0.333426
721.525000	-0.330229
721.725000	-0.506514
721.925000	-0.507940
722.125000	-0.528068
722.325000	0.006226
722.524000	-0.259671
722.724000	-0.703737
722.924000	-0.780335
723.124000	-0.583404
723.324000	-0.127151
723.524000	-0.082753
723.724000	-0.664042
723.924000	-0.513994
724.124000	-0.296629
724.323000	-0.101583
724.523000	-0.144208
724.723000	0.279456
724.923000	0.038944
725.123000	-0.130426
725.323000	-0.036601
725.523000	-0.251778
725.723000	-0.482767
725.922000	-0.477165
726.122000	-0.368993
726.322000	-0.487216
726.522000	-0.436227
726.722000	0.152370
726.922000	-0.201172
727.122000	-0.255485
727.322000	0.086922
727.521000	-0.148813
727.721000	-0.383256
727.921000	-0.300359
728.121000	-0.296139
728.321000	-0.676623
728.521000	-0.445229
728.721000	-0.289610
728.921000	0.033557
729.121000	0.651578
729.320000	0.056640
729.520000	-0.327956
729.720000	-0.508553
729.920000	-0.439451
730.120000	-0.243193
730.320000	-0.218548
730.520000	-0.553223
730.720000	-0.497970
730.919000	-0.451445
731.119000	-0.141454
731.319000	-0.616085
731.519000	-0.726115
731.719000	-0.355810
731.919000	-0.483219
732.119000	-0.944890
732.319000	-0.979814
732.519000	-0.411192
732.718000	-0.687072
732.918000	-0.531715
733.118000	-0.357431
733.318000	-0.094286
733.518000	-0.371376
733.718000	-0.883809
733.918000	-0.826217
734.118000	-0.537639
734.317000	-0.269807
734.517000	-0.567125
734.717000	-0.509165
734.917000	-0.030197
735.117000	-0.099823
735.317000	-0.138934
735.517000	0.157190
735.717000	0.387249
735.916000	-0.437169
736.116000	-0.581002
736.316000	-0.417499
736.516000	-0.369016
736.716000	-0.364805
736.916000	-0.805668
737.116000	-0.581069
737.316000	0.060116
737.516000	-0.004223
737.715000	-0.057604
737.915000	-0.647287
738.115000	-0.716308
738.315000	-0.404101
738.515000	-0.705532
738.715000	-0.507489
738.915000	-0.002025
739.115000	-0.445919
739.314000	-0.465777
739.514000	-0.044960
739.714000	0.050057
739.914000	-0.081551
740.114000	-0.304741
740.314000	-0.086320
740.514000	0.301329
740.714000	-0.402599
740.913000	-0.795140
741.113000	-0.640275
741.313000	-0.311989
741.513000	-0.361212
741.713000	-0.281390
741.913000	-0.282720
742.113000	-0.488392
742.313000	-0.914121
742.513000	-0.445756
742.712000	-0.321359
742.912000	-0.680417
743.112000	-0.521335
743.312000	-0.868930
743.512000	-0.666611
743.712000	-0.459103
743.912000	-1.000144
744.112000	-1.052724
744.311000	-1.069773
744.511000	-0.644827
744.711000	-0.175695
744.911000	-0.494984
745.111000	-0.555194
745.311000	-0.128736
745.511000	-0.499630
745.711000	-0.708376
745.911000	-0.426440
746.110000	-0.783979
746.310000	-0.916462
746.510000	-0.628030
746.710000	-0.106159
746.910000	-0.057847
747.110000	-0.654308
747.310000	-0.988156
747.510000	-0.750582
747.709000	-0.387672
747.909000	-0.347085
748.109000	-0.088107
748.309000	-0.383399
748.509000	-0.654943
748.709000	-0.776038
748.909000	-0.526179
749.109000	-0.528476
749.308000	-0.121506
749.508000	-0.371343
749.708000	-0.476247
749.908000	-0.112039
750.108000	-0.087345
750.308000	-0.820994
750.508000	-0.062695
750.708000	-0.581572
750.908000	-0.986696
751.107000	-0.336495
751.307000	0.278437
751.507000	-0.319743
751.707000	-0.352311
751.907000	-0.330292
752.107000	-0.178334
752.307000	-0.749781
752.507000	-0.551553
752.706000	-0.607604
752.906000	0.421780
753.106000	-0.456257
753.306000	-1.050101
753.506000	-0.028276
753.706000	-0.467618
753.906000	-0.197319
754.106000	-0.017962
754.305000	-0.166558
754.505000	-0.057233
754.705000	-0.275641
754.905000	-0.410258
755.105000	-0.123602
755.305000	-0.844254
755.505000	-0.661415
755.705000	-0.214387
755.905000	-0.369195
756.104000	-0.936156
756.304000	-1.288105
756.504000	-1.453810
756.704000	-0.408128
756.904000	-0.179646
757.104000	-0.434135
757.304000	-0.466759
757.504000	-0.024034
757.703000	-0.426326
757.903000	-0.032207
758.103000	0.252490
758.303000	-0.195543
758.503000	-0.468743
758.703000	-0.669360
758.903000	-0.825521
759.103000	-0.320538
759.303000	-0.244932
759.502000	-0.447466
759.702000	-0.204170
759.902000	-0.519001
760.102000	-0.422820
760.302000	-0.521996
760.502000	-0.208565
760.702000	-0.102899
760.902000	-0.368593
761.101000	-0.750797
761.301000	-1.021627
761.501000	-0.713038
761.701000	-0.812960
761.901000	-0.573931
762.101000	-0.212318
762.301000	-0.413587
762.501000	-0.711818
762.700000	-0.780649
762.900000	-0.758118
763.100000	-0.427873
763.300000	-0.131552
763.500000	-0.438653
763.703000	-0.674509
763.905000	-0.984182
764.108000	-0.158133
764.311000	-0.454874
764.513000	-0.547719
764.716000	-0.315367
764.919000	-0.295490
765.121000	-0.826475
765.324000	-0.991900
765.527000	-0.880185
765.729000	-0.643226
765.932000	0.111628
766.135000	-0.096364
766.337000	-0.398257
766.540000	-0.531872
766.743000	-0.195196
766.945000	-0.786036
767.148000	-1.223350
767.351000	-1.122457
767.553000	-0.276238
767.756000	-0.547408
767.958000	-0.910467
768.161000	-0.535911
768.364000	-0.881724
768.566000	-1.135356
768.769000	-0.564913
768.972000	-0.288279
769.174000	-0.717314
769.377000	-1.248536
769.580000	-1.254228
769.782000	-0.511367
769.985000	-1.002006
770.188000	-1.884256
770.390000	-0.926748
770.593000	0.767304
770.796000	0.345865
770.998000	-0.348515
771.201000	-0.793024
771.404000	-0.395385
771.606000	-0.671034
771.809000	-0.581537
772.012000	-0.508630
772.214000	-1.339408
772.417000	-1.398210
772.620000	-0.378249
772.822000	-0.740958
773.025000	-0.905505
773.228000	-0.913412
773.430000	-0.852673
773.633000	-0.514320
773.836000	-0.365107
774.038000	-0.241085
774.241000	-0.410267
774.444000	-0.644170
774.646000	0.229629
774.849000	-0.207478
775.052000	-0.440384
775.254000	-0.270937
775.457000	-0.639383
775.659000	-0.577740
775.862000	-0.773767
776.065000	-0.544016
776.267000	0.108102
776.470000	0.325120
776.673000	-0.445796
776.875000	0.089804
777.078000	-0.060306
777.281000	-0.877279
777.483000	-0.202105
777.686000	-0.028650
777.889000	-0.157585
778.091000	0.003557
778.294000	-1.071734
778.497000	-0.953482
778.699000	-0.831283
778.902000	-0.808147
779.105000	-0.554928
779.307000	0.325499
779.510000	-0.677546
779.713000	-0.460980
779.915000	-0.643039
780.118000	0.516184
780.321000	0.602350
780.523000	-0.392058
780.726000	-0.784773
780.929000	-0.929583
781.131000	-0.904600
781.334000	-1.381995
781.537000	-1.326025
781.739000	-0.232574
781.942000	-0.838810
782.145000	-1.418858
782.347000	-1.336021
782.550000	-0.954818
782.753000	-1.025205
782.955000	-0.856041
783.158000	-0.788145
783.361000	-0.536748
783.563000	-0.543593
783.766000	-0.707589
783.968000	0.936646
784.171000	0.801216
784.374000	-0.381387
784.576000	-0.442605
784.779000	-0.132334
784.982000	0.219319
785.184000	-0.484707
785.387000	-0.168477
785.590000	0.413563
785.792000	0.283782
785.995000	0.097278
786.198000	-0.155690
786.400000	-0.515004
786.603000	-0.512821
786.806000	-0.608682
787.008000	-0.368513
787.211000	-0.251102
787.414000	-0.970350
787.616000	-0.660953
787.819000	-0.694243
788.022000	-1.281265
788.224000	-0.604885
788.427000	-1.278097
788.630000	-0.713967
788.832000	-0.471794
789.035000	-1.006238
789.238000	-1.601794
789.440000	-1.199311
789.643000	-0.035379
789.846000	-0.691327
790.048000	-0.236749
790.251000	-0.100256
790.454000	-0.533988
790.656000	0.241523
790.859000	-0.497513
791.062000	-0.877874
791.264000	-0.176586
791.467000	-1.091195
791.669000	-1.601232
791.872000	-0.693112
792.075000	-1.140728
792.277000	-0.805458
792.480000	-0.465225
792.683000	-0.975802
792.885000	-1.240238
793.088000	-0.991347
793.291000	-1.211077
793.493000	-1.342397
793.696000	-0.579018
793.899000	-0.358582
794.101000	-0.596798
794.304000	-0.735694
794.507000	-0.364483
794.709000	-0.104160
794.912000	-0.678080
795.115000	-1.111277
795.317000	-0.784325
795.520000	-0.538871
795.723000	-0.741711
795.925000	-1.159882
796.128000	-1.431046
796.331000	-0.884854
796.533000	-1.233516
796.736000	-0.657940
796.939000	-0.475357
797.141000	-0.761270
797.344000	-0.092025
797.547000	-0.134438
797.749000	-0.200210
797.952000	-0.809946
798.155000	-1.237606
798.357000	-1.357927
798.560000	-1.146409
798.763000	-0.410155
798.965000	-0.679299
799.168000	-0.665610
799.371000	-0.450664
799.573000	-0.680416
799.776000	-1.386912
799.978000	-1.395682
800.181000	-0.593974
800.384000	0.984608
800.586000	0.270896
800.789000	-1.391273
800.992000	-1.247285
801.194000	-1.413313
801.397000	-1.408981
801.600000	-1.125352
801.802000	0.036511
802.005000	-0.281347
802.208000	-1.694921
802.410000	-0.624716
802.613000	-0.384423
802.816000	-0.660649
803.018000	-1.374019
803.221000	-1.160665
803.424000	0.237188
803.626000	-0.142697
803.829000	-0.606654
804.032000	0.226606
804.234000	0.946023
804.437000	-0.528109
804.640000	-0.626681
804.842000	-0.578494
805.045000	-1.088358
805.248000	-0.878061
805.450000	-0.789858
805.653000	-0.794865
805.856000	-0.877620
806.058000	0.193342
806.261000	-0.991691
806.464000	-1.051596
806.666000	-0.505347
806.869000	-0.843683
807.072000	-1.988739
807.274000	-2.159808
807.477000	-0.957097
807.679000	-0.566048
807.882000	-1.139393
808.085000	-1.013844
808.287000	-0.322221
808.490000	-1.275410
808.693000	-1.052017
808.895000	-0.807064
809.098000	-0.759932
809.301000	-0.745135
809.503000	-0.848498
809.706000	0.061719
809.909000	0.254277
810.111000	0.171363
810.314000	-0.372939
810.517000	-1.037243
810.719000	-1.192793
810.922000	-0.799890
811.125000	0.234289
811.327000	0.284440
811.530000	-0.360412
811.735000	-0.742424
811.940000	-0.891207
812.146000	-0.908388
812.351000	-0.451767
812.556000	-0.641871
812.761000	-1.306290
812.967000	-0.348007
813.172000	-0.266268
813.377000	-0.493827
813.582000	0.168951
813.788000	-0.366371
813.993000	-1.325962
814.198000	-0.475690
814.403000	-1.276190
814.609000	-0.524463
814.814000	-0.577707
815.019000	0.471385
815.224000	0.245031
815.429000	-0.909991
815.635000	-0.446872
815.840000	-0.549983
816.045000	-0.416593
816.250000	-0.084016
816.456000	-1.287787
816.661000	-2.181662
816.866000	-1.651559
817.071000	-1.494408
817.277000	-2.261067
817.482000	-1.292023
817.687000	-0.557185
817.892000	-0.689759
818.097000	-0.134148
818.303000	0.447636
818.508000	0.921838
818.713000	7.762678
818.918000	4.072295
819.124000	0.415958
819.329000	-0.804884
819.534000	-0.875408
819.739000	-1.148004
819.945000	-1.055630
820.150000	-0.579741
820.355000	-0.556234
820.560000	-0.166569
820.766000	-0.339409
820.971000	-0.420639
821.176000	-2.070560
821.381000	-2.723234
821.586000	-1.533933
821.792000	0.070491
821.997000	-0.655024
822.202000	-0.911124
822.407000	-1.416299
822.613000	-1.469620
822.818000	-0.837432
823.023000	-0.479622
823.228000	-0.604798
823.434000	0.061499
823.639000	0.209342
823.844000	-0.734883
824.049000	0.051618
824.255000	0.174838
824.460000	-0.540355
824.665000	-0.995039
824.870000	0.238604
825.075000	-0.056487
825.281000	-0.067054
825.486000	0.847585
825.691000	-1.554772
825.896000	-2.591461
826.102000	-0.881508
826.307000	-0.752080
826.512000	-0.987330
826.717000	-0.704231
826.923000	-0.971947
827.128000	-0.670510
827.333000	-1.494949
827.538000	-0.553626
827.744000	-0.015641
827.949000	-1.092228
828.154000	-0.707501
828.359000	0.211225
828.564000	-0.564103
828.770000	-1.057093
828.975000	0.175398
829.180000	-0.224615
829.385000	-1.750669
829.591000	-1.405213
829.796000	-0.741852
830.001000	-0.837635
830.206000	-1.374851
830.412000	-1.100873
830.617000	-1.019889
830.822000	0.179889
831.027000	-0.709568
831.232000	-1.411432
831.438000	-1.376079
831.643000	-0.633883
831.848000	-0.743330
832.053000	-0.586560
832.259000	-0.998215
832.464000	-2.672242
832.669000	-2.182166
832.874000	-1.691169
833.080000	-1.704406
833.285000	0.104427
833.490000	-0.120667
833.695000	-1.400001
833.901000	-1.009543
834.106000	-1.461363
834.311000	-1.316203
834.516000	-0.552841
834.721000	-0.982254
834.927000	-0.005351
835.132000	-0.440214
835.337000	0.865631
835.542000	-0.149431
835.748000	-1.610602
835.953000	-0.239811
836.158000	-0.282575
836.363000	-0.465186
836.569000	-0.298100
836.774000	-1.208543
836.979000	-1.607440
837.184000	-2.107799
837.390000	-1.841474
837.595000	-1.058344
837.800000	-0.567104
838.005000	-0.582994
838.210000	-0.868970
838.416000	-1.296346
838.621000	-1.187294
838.826000	-1.242804
839.031000	-0.891198
839.237000	-1.650820
839.442000	-2.585075
839.647000	-2.593871
839.852000	-1.715308
840.058000	-1.523779
840.263000	-1.556902
840.468000	-2.392561
840.673000	-1.128704
840.878000	-1.014159
841.084000	-1.782609
841.289000	-1.022770
841.494000	1.676931
841.699000	1.636671
841.905000	0.354965
842.110000	0.449238
842.315000	-1.453710
842.520000	-1.003169
842.726000	-1.449102
842.931000	-1.851415
843.136000	-0.672236
843.341000	-2.100212
843.547000	-1.272016
843.752000	-1.146058
843.957000	-2.000561
844.162000	-1.874195
844.367000	-1.197497
844.573000	-0.471079
844.778000	-0.162976
844.983000	-0.347943
845.188000	-0.287889
845.394000	-1.781068
845.599000	-1.479312
845.804000	-1.324750
846.009000	-0.774910
846.215000	-1.922735
846.420000	-1.414092
846.625000	-0.451243
846.830000	0.197720
847.036000	-1.031573
847.241000	-1.696284
847.446000	-0.332968
847.651000	-0.712228
847.856000	-1.733032
848.062000	-1.817541
848.267000	-0.316846
848.472000	-1.404320
848.677000	-2.533964
848.883000	-0.535586
849.088000	1.011008
849.293000	-0.469646
849.498000	-1.261804
849.704000	-0.382031
849.909000	-1.047219
850.114000	-1.763133
850.319000	-0.554014
850.524000	-0.698372
850.730000	-0.926721
850.935000	-1.095655
851.140000	0.279342
851.345000	0.143792
851.551000	-0.278633
851.756000	-0.151074
851.961000	-1.346535
852.166000	-1.240613
852.372000	-0.862053
852.577000	-0.976030
852.782000	-1.347667
852.987000	0.479884
853.193000	-0.045757
853.398000	-0.511238
853.603000	-1.865248
853.808000	-2.434108
854.013000	-1.283119
854.219000	0.110585
854.424000	1.827398
854.629000	1.484242
854.834000	-1.079506
855.040000	-0.590777
855.245000	-0.174489
855.450000	-2.668064
855.655000	-3.574663
855.861000	-3.428705
856.066000	-2.541604
856.271000	-2.553806
856.476000	-0.340975
856.682000	-0.995819
856.887000	-3.786334
857.092000	-2.272959
857.297000	0.181485
857.502000	-0.254249
857.708000	-0.807104
857.913000	0.165995
858.118000	-0.640931
858.323000	-1.010614
858.529000	-0.808743
858.734000	-1.154067
858.939000	-0.956024
859.144000	-1.633015
859.350000	-2.660868
859.555000	-2.643839
859.760000	-0.831714
859.965000	-0.007644
860.171000	-1.611278
860.376000	-0.290367
860.581000	-1.922926
860.786000	-4.319961
860.991000	-3.550557
861.197000	-2.544211
861.402000	-1.084325
861.607000	-1.710488
861.812000	-2.808409
862.018000	-2.766634
862.223000	-1.648717
862.428000	-0.952343
862.633000	0.195147
862.839000	-0.514473
863.044000	-1.728350
863.249000	-2.465308
863.454000	-0.356881
863.659000	-1.353805
863.865000	-2.181005
864.070000	-2.123447
864.275000	-2.606910
864.480000	-2.164021
864.686000	-3.806277
864.891000	-2.987068
865.096000	-0.816058
865.301000	-0.422127
865.507000	-0.489366
865.712000	-0.267330
865.917000	-1.321035
866.122000	-0.195100
866.328000	-3.087671
866.533000	-3.029228
866.738000	0.292131
866.943000	0.038594
867.148000	0.549975
867.354000	-1.811702
867.559000	-3.320029
867.764000	-1.533392
867.969000	-0.548421
868.175000	-1.756901
868.380000	-2.351073
868.585000	-3.184211
868.790000	-1.277499
868.996000	-1.539427
869.201000	-2.951048
869.406000	-4.014204
869.611000	-3.115435
869.817000	-2.512950
870.022000	2.061146
870.227000	-0.117589
870.432000	-2.312715
870.637000	-0.973266
870.843000	-1.428885
871.048000	-1.269511
871.253000	0.151148
871.458000	-1.085541
871.664000	-3.157856
871.869000	-3.288542
872.074000	-2.348446
872.279000	-1.254828
872.485000	-2.249406
872.690000	-2.145633
872.895000	-2.195954
873.100000	-2.831450
873.306000	-2.853908
873.511000	-1.331450
873.716000	0.316505
873.921000	-1.551127
874.126000	-2.047301
874.332000	-1.473433
874.537000	-0.563932
874.742000	-0.764005
874.947000	-1.396835
875.153000	0.690428
875.358000	-0.841037
875.563000	-1.530584
875.768000	-3.898302
875.974000	-4.360242
876.179000	-1.164926
876.384000	-0.984432
876.589000	-2.650780
876.794000	-2.211314
877.000000	-3.143120
877.205000	-4.145340
877.410000	-1.265615
877.615000	-3.027236
877.821000	-4.777533
878.026000	-3.380292
878.231000	-4.095953
878.436000	-4.024339
878.642000	-3.013434
878.847000	-1.413322
879.052000	0.080226
879.257000	-2.027657
879.463000	-3.285939
879.668000	-2.544836
879.873000	-0.411499
880.078000	-2.584204
880.283000	-4.416828
880.489000	-4.866595
880.694000	-4.354827
880.899000	-2.134893
881.104000	-0.362144
881.310000	1.372361
881.515000	-0.010535
881.720000	1.221536
881.925000	2.219660
882.131000	3.152091
882.336000	0.191461
882.541000	-3.198925
882.746000	-2.997901
882.952000	-3.559854
883.157000	-3.339480
883.362000	-3.199665
883.567000	-3.892301
883.772000	-3.977408
883.978000	-2.866526
884.183000	-1.104259
884.388000	-1.947238
884.593000	-4.093425
884.799000	0.641574
885.004000	0.313454
885.209000	-1.522967
885.414000	-1.081971
885.620000	-3.924021
885.825000	-0.794486
886.030000	-1.234151
886.235000	-2.560832
886.440000	-1.738063
886.646000	-4.566826
886.851000	-4.602691
887.056000	-0.309209
887.261000	-0.788532
887.467000	-3.664893
887.672000	-0.967297
887.877000	-2.366771
888.082000	-4.929303
888.288000	-5.201070
888.493000	-7.359243
888.698000	-5.353273
888.903000	-2.175386
889.109000	-3.530180
889.314000	-0.652034
889.519000	-2.270123
889.724000	0.466916
889.929000	-1.437010
890.135000	-2.228751
890.340000	-2.245384
890.545000	-3.414279
890.750000	-4.675181
890.956000	-3.216859
891.161000	-0.876303
891.366000	-2.774453
891.571000	-1.613747
891.777000	-1.601668
891.982000	-0.162451
892.187000	-0.560732
892.392000	0.493748
892.598000	-0.314996
892.803000	-0.747965
893.008000	-2.674201
893.213000	-3.358465
893.418000	-3.604920
893.624000	-3.776938
893.829000	-5.906558
894.034000	-2.874695
894.239000	-1.027800
894.445000	-3.754244
894.650000	-3.674208
894.855000	-3.452316
895.060000	-3.771567
895.266000	-3.909437
895.471000	-5.192418
895.676000	-1.526466
895.881000	-0.833893
896.087000	-2.274562
896.292000	-3.405765
896.497000	0.642536
896.702000	-1.406172
896.907000	-3.588439
897.113000	1.168472
897.318000	1.255363
897.523000	-0.071632
897.728000	-2.375882
897.934000	-2.616897
898.139000	-2.448096
898.344000	-0.013325
898.549000	-1.279069
898.755000	-3.010590
898.960000	-3.224224
899.165000	-5.372120
899.370000	-2.365033
899.575000	1.422037
899.781000	-2.377801
899.986000	-3.166020
900.191000	-1.722005
900.396000	-2.548594
900.602000	-1.980144
900.807000	-2.473721
901.012000	-1.975984
901.217000	-0.404295
901.423000	-2.938591
901.628000	-4.478053
901.833000	0.111372
902.038000	0.396783
902.244000	-3.245950
902.449000	-2.678335
902.654000	-2.722589
902.859000	-1.725012
903.064000	0.595966
903.270000	0.146706
903.475000	-4.257737
903.680000	-6.268072
903.885000	-5.180823
904.091000	-4.586961
904.296000	-6.146271
904.501000	-4.853901
904.706000	-3.697137
904.912000	0.218648
905.117000	-2.562703
905.322000	-5.016633
905.527000	-4.455181
905.733000	-3.549320
905.938000	-3.537664
906.143000	-3.820110
906.348000	-6.190147
906.553000	-2.330399
906.759000	-0.481671
906.964000	-1.663856
907.169000	-2.842220
907.374000	-5.429759
907.580000	-3.743542
907.785000	-3.291766
907.990000	15.089355
908.195000	10.381125
908.401000	-0.753982
908.606000	-8.538412
908.811000	-9.994059
909.016000	-2.868427
909.221000	-1.845300
909.427000	-2.638924
909.632000	-4.609520
909.837000	-4.327144
910.042000	-5.508553
910.248000	-7.419116
910.453000	-2.770975
910.658000	-4.000308
910.863000	-4.976786
911.069000	-5.941288
911.274000	-1.332736
911.479000	0.730897
911.684000	-6.208083
911.890000	-3.376563
912.095000	-3.032795
912.300000	-6.130259
912.506000	-5.315428
912.711000	-5.006979
912.917000	-2.682379
913.123000	-2.013087
913.328000	-2.562221
913.534000	-1.883627
913.740000	7.698461
913.946000	3.189395
914.151000	-4.258115
914.357000	-6.023228
914.563000	-1.806407
914.768000	-5.035809
914.974000	-7.179384
915.180000	-6.350641
915.385000	-4.487809
915.591000	-7.575730
915.797000	-2.546257
916.002000	1.092367
916.208000	-2.679260
916.414000	-5.742239
916.620000	-6.422898
916.825000	-2.896005
917.031000	-3.222880
917.237000	-9.167825
917.442000	-5.730536
917.648000	-7.037312
917.854000	-7.607844
918.059000	-1.044669
918.265000	-0.464952
918.471000	-3.798820
918.676000	-6.596349
918.882000	-8.527894
919.088000	-6.925505
919.294000	-11.916209
919.499000	-6.726517
919.705000	-1.206624
919.911000	-3.391884
920.116000	-1.054284
920.322000	-7.284014
920.528000	-5.450160
920.733000	-7.761734
920.939000	-8.324750
921.145000	-6.812812
921.350000	-6.070882
921.556000	-5.161747
921.762000	-5.001611
921.968000	-5.163481
922.173000	-6.882069
922.379000	-9.167979
922.585000	-4.174608
922.790000	-5.417198
922.996000	-7.237694
923.202000	-8.122218
923.407000	-8.121315
923.613000	-5.437898
923.819000	-3.170543
924.024000	-4.003989
924.230000	-2.078355
924.436000	-3.976212
924.642000	5.329572
924.847000	1.636080
925.053000	-5.159895
925.259000	-9.800812
925.464000	-4.310956
925.670000	-5.277250
925.876000	-7.298269
926.081000	-8.432946
926.287000	-3.785038
926.493000	-2.203822
926.698000	-4.277902
926.904000	-1.331948
927.110000	-4.333111
927.316000	-4.210931
927.521000	2.301449
927.727000	-3.741720
927.933000	-5.378006
928.138000	-4.384575
928.344000	-9.932049
928.550000	-5.001331
928.755000	-0.979596
928.961000	-6.415659
929.167000	-5.856829
929.372000	1.473769
929.578000	-0.451351
929.784000	-6.893054
929.990000	-9.867566
930.195000	-5.652214
930.401000	-4.486686
930.607000	-3.938805
930.812000	-3.131067
931.018000	-6.794803
931.224000	-13.360233
931.429000	-9.672072
931.635000	-12.464336
931.841000	-11.779263
932.046000	-7.314608
932.252000	-3.089611
932.458000	3.945376
932.664000	0.036543
932.869000	-5.882858
933.075000	-9.806803
933.281000	-9.029503
933.486000	-1.028751
933.692000	-4.696903
933.898000	-9.946669
934.103000	-3.656243
934.309000	-6.152966
934.515000	-2.636931
934.720000	-1.992660
934.926000	1.394482
935.132000	0.553114
935.338000	-2.736290
935.543000	-10.587634
935.749000	-12.696193
935.955000	-13.478222
936.160000	-10.706393
936.366000	-1.934842
936.572000	-3.673128
936.777000	-1.851963
936.983000	1.095992
937.189000	-4.887082
937.394000	-10.653983
937.600000	-1.033408
937.806000	3.933813
938.012000	-5.558630
938.217000	4.881312
938.423000	2.374047
938.629000	-7.536861
938.834000	-15.272806
939.040000	-13.164664
939.246000	-6.187009
939.451000	-10.787991
939.657000	-6.326946
939.863000	-10.039673
940.068000	-1.153098
940.274000	-7.455467
940.480000	-4.956115
940.686000	-2.929845
940.891000	-6.292221
941.097000	13.633256
941.303000	2.292639
941.508000	-7.437137
941.714000	-3.490197
941.920000	-15.405504
942.125000	-4.756932
942.331000	-2.009329
942.537000	3.930070
942.742000	0.615070
942.948000	-10.315356
943.154000	-11.622998
943.360000	-23.441246
943.565000	-8.965373
943.771000	3.198356
943.977000	5.879905
944.182000	-12.917787
944.388000	-16.205600
944.594000	-1.896304
944.799000	7.795557
945.005000	-1.568682
945.211000	1.952200
945.416000	0.058775
945.622000	-13.118657
945.828000	-10.607076
946.034000	-0.324681
946.239000	-0.769196
946.445000	-7.458859
946.651000	-18.540545
946.856000	-16.956855
947.062000	-2.886201
947.268000	0.774683
947.473000	-14.337467
947.679000	-18.309846
947.885000	-3.891578
948.090000	0.789818
948.296000	14.018581
948.502000	-0.331242
948.708000	-10.811214
948.913000	-13.002625
949.119000	0.234867
949.325000	-5.783675
949.530000	-19.553487
949.736000	-25.316580
949.942000	-15.538142
950.147000	-14.446848
950.353000	-12.390802
950.559000	-8.586457
950.764000	13.330111
950.970000	6.424270
951.176000	-8.124982
951.382000	-14.160103
951.587000	-3.301596
951.793000	0.550877
951.999000	1.259147
952.204000	-11.262334
952.410000	-24.539628
952.616000	-12.260216
952.821000	-8.105252
953.027000	-14.512049
953.233000	-15.381059
953.438000	-15.246846
953.644000	-0.055108
953.850000	-4.037825
954.056000	-8.848414
954.261000	-10.336422
954.467000	-0.618266
954.673000	6.175959
954.878000	-4.246100
955.084000	-5.190525
955.290000	-20.550347
955.495000	-22.186614
955.701000	-18.669008
955.907000	0.326561
956.112000	-0.569939
956.318000	7.241777
956.524000	6.169607
956.730000	-9.122833
956.935000	-11.570487
957.141000	-14.090374
957.347000	-2.564250
957.552000	-8.817329
957.758000	-22.463721
957.964000	-31.678188
958.169000	2.213976
958.375000	2.690497
958.581000	-12.736093
958.786000	-25.016014
958.992000	-28.474068
959.198000	-9.505127
959.404000	-3.976745
959.609000	-12.299020
959.815000	-14.899320
960.021000	2.524832
960.226000	-5.214320
960.432000	-27.816544
960.638000	-16.334825
960.843000	-9.004484
961.049000	-11.454925
961.255000	-0.861089
961.460000	-13.475769
961.666000	-35.472645
961.872000	-22.040616
962.078000	-16.649641
962.283000	-25.781101
962.489000	-28.400480
962.695000	-19.246581
962.900000	-12.353000
963.106000	-9.230585
963.312000	-15.563749
963.517000	-20.460017
963.723000	-22.343698
963.929000	2.030117
964.134000	8.779954
964.340000	-16.162815
964.546000	-17.680725
964.752000	-21.329614
964.957000	-25.689278
965.163000	-2.743953
965.369000	-5.650146
965.574000	-2.477282
965.780000	-7.620475
966.000000	-18.996170
966.220000	-13.432795
966.440000	-11.741405
966.661000	-2.186859
966.881000	-21.927330
967.101000	-39.132761
967.321000	-38.252844
967.541000	-12.519342
967.761000	-19.347956
967.981000	-11.094259
968.202000	-8.337220
968.422000	0.722073
968.642000	-0.435466
968.862000	-1.714759
969.082000	-10.318374
969.302000	-2.821646
969.522000	-7.039981
969.743000	3.802547
969.963000	-16.607168
970.183000	-25.037444
970.403000	-23.500116
970.623000	-23.632159
970.843000	1.726169
971.063000	2.237011
971.284000	-23.665414
971.504000	-36.662150
971.724000	-10.184116
971.944000	-25.349222
972.164000	-35.419785
972.384000	-25.785790
972.604000	-41.409194
972.825000	-48.296697
973.045000	-31.629746
973.265000	24.368666
973.485000	13.618955
973.705000	-7.674007
973.925000	-15.911463
974.145000	-50.908680
974.365000	-17.609724
974.586000	-15.291021
974.806000	-31.970358
975.026000	1.668951
975.246000	-14.051607
975.466000	-30.156543
975.686000	-14.179576
975.906000	-23.222918
976.127000	-43.559727
976.347000	-37.068578
976.567000	-9.871411
976.787000	-9.786606
977.007000	-18.994168
977.227000	-24.596254
977.447000	-26.511836
977.668000	-49.547824
977.888000	-33.301792
978.108000	-30.788073
978.328000	-19.597521
978.548000	13.948222
978.768000	17.819426
978.988000	3.395346
979.209000	-13.972960
979.429000	-17.960696
979.649000	-6.735444
979.869000	-30.822098
980.089000	-44.148060
980.309000	-44.452441
980.529000	-55.962919
980.750000	-34.127716
980.970000	-45.417393
981.190000	-31.257556
981.410000	-30.530555
981.630000	-40.610480
981.850000	-28.710561
982.070000	-14.933028
982.291000	-44.160974
982.511000	-42.870008
982.731000	-5.499687
982.951000	-27.852740
983.171000	-32.563827
983.391000	-26.995663
983.611000	0.922404
983.832000	-26.095448
984.052000	-47.130039
984.272000	-27.497471
984.492000	-20.686802
984.712000	-31.209211
984.932000	-53.989896
985.152000	-61.273928
985.373000	-45.561626
985.593000	-18.115671
985.813000	-31.837724
986.033000	-43.392546
986.253000	2.428781
986.473000	8.861375
986.693000	-23.088672
986.914000	-37.403557
987.134000	4.959773
987.354000	-27.814693
987.574000	137.635962
987.794000	82.995480
988.014000	-40.479598
988.234000	-23.767593
988.455000	-7.417202
988.675000	-8.220846
988.895000	-20.802957
989.115000	-42.539538
989.335000	-19.306516
989.555000	-2.708571
989.775000	-45.626101
989.995000	-32.885419
990.216000	-20.577376
990.436000	-16.945621
990.656000	13.742618
990.876000	-26.412908
991.096000	-13.672428
991.316000	8.995316
991.536000	-17.985767
991.757000	-25.869921
991.977000	-71.871479
992.197000	-23.391874
992.417000	-36.276521
992.637000	-72.226938
992.857000	-69.524386
993.077000	-70.513039
993.298000	-34.391843
993.518000	-36.872075
993.738000	-89.679457
993.958000	-49.966739
994.178000	-59.771084
994.398000	-45.232543
994.618000	-77.843454
994.839000	-128.021509
995.059000	-26.614745
995.279000	40.543506
995.499000	-8.772876
995.719000	-12.049282
995.939000	-29.325009
996.159000	-26.643419
996.380000	-16.228878
996.600000	-70.746943
996.820000	-29.174755
997.040000	15.160598
997.260000	-48.781978
997.480000	-35.267907
997.700000	-96.844596
997.921000	-56.398183
998.141000	32.831656
998.361000	-2.541778
998.581000	-50.981518
998.801000	-83.012956
999.021000	-52.903243
999.241000	-27.361737
999.462000	-52.515500
999.682000	-106.647094
999.902000	-63.667893
1000.122000	-80.987044
1000.342000	-133.337096
1000.562000	-60.242593
1000.782000	-63.872562
1001.003000	-1024.706970
