Wavelength	Irradiance
(nm)	(mW/cm2/nm)

294.396000	0.000000
294.577000	0.000000
294.757000	0.000000
294.938000	0.000000
295.118000	-0.000000
295.299000	0.000000
295.479000	0.000000
295.660000	-0.000000
295.840000	-0.000000
296.021000	-0.000000
296.202000	-0.000000
296.382000	-0.000000
296.563000	-0.000000
296.743000	-0.000000
296.924000	0.000000
297.104000	0.000000
297.285000	-0.000000
297.465000	-0.000000
297.646000	-0.000000
297.826000	0.000000
298.007000	0.000000
298.187000	-0.000000
298.368000	-0.000000
298.548000	0.000000
298.729000	0.000000
298.909000	-0.000000
299.090000	-0.000000
299.270000	-0.000000
299.451000	-0.000000
299.631000	-0.000000
299.812000	-0.000000
299.992000	0.000000
300.173000	0.000000
300.353000	-0.000000
300.534000	0.000000
300.714000	0.000000
300.895000	0.000000
301.075000	-0.000000
301.256000	0.000000
301.436000	0.000000
301.617000	-0.000000
301.797000	-0.000000
301.978000	0.000000
302.159000	0.000000
302.339000	0.000000
302.520000	-0.000000
302.700000	-0.000000
302.881000	0.000000
303.061000	0.000000
303.242000	0.000000
303.422000	0.000000
303.603000	0.000000
303.783000	-0.000000
303.964000	-0.000000
304.144000	-0.000000
304.325000	0.000000
304.505000	-0.000000
304.686000	-0.000000
304.866000	0.000000
305.047000	0.000000
305.227000	-0.000000
305.408000	-0.000000
305.588000	-0.000000
305.769000	-0.000000
305.949000	-0.000000
306.130000	-0.000000
306.310000	-0.000000
306.491000	-0.000000
306.671000	0.000000
306.852000	-0.000000
307.032000	-0.000000
307.213000	0.000000
307.393000	-0.000000
307.574000	-0.000000
307.755000	0.000000
307.935000	0.000000
308.116000	-0.000000
308.296000	-0.000000
308.477000	0.000000
308.657000	0.000000
308.838000	0.000000
309.018000	0.000000
309.199000	-0.000000
309.379000	0.000000
309.560000	0.000000
309.740000	-0.000000
309.921000	0.000000
310.101000	0.000000
310.282000	-0.000000
310.462000	-0.000000
310.643000	-0.000000
310.823000	-0.000000
311.004000	-0.000000
311.184000	-0.000000
311.365000	0.000000
311.545000	0.000000
311.726000	0.000000
311.906000	0.000000
312.087000	0.000000
312.267000	-0.000000
312.448000	-0.000000
312.628000	-0.000000
312.809000	-0.000000
312.989000	-0.000000
313.170000	-0.000000
313.344000	-0.000000
313.518000	-0.000000
313.691000	-0.000000
313.865000	-0.000000
314.039000	-0.000000
314.213000	-0.000000
314.387000	-0.000000
314.560000	-0.000000
314.734000	-0.000000
314.908000	-0.000000
315.082000	-0.000000
315.255000	0.000000
315.429000	0.000000
315.603000	0.000000
315.777000	-0.000000
315.951000	0.000000
316.124000	-0.000000
316.298000	-0.000000
316.472000	-0.000000
316.646000	-0.000000
316.820000	-0.000000
316.993000	0.000000
317.167000	-0.000000
317.341000	-0.000000
317.515000	-0.000000
317.688000	-0.000000
317.862000	-0.000000
318.036000	-0.000000
318.210000	-0.000000
318.384000	-0.000000
318.557000	-0.000000
318.731000	-0.000000
318.905000	-0.000000
319.079000	0.000000
319.253000	0.000000
319.426000	0.000000
319.600000	-0.000000
319.774000	-0.000000
319.948000	-0.000000
320.122000	0.000000
320.295000	-0.000000
320.469000	-0.000000
320.643000	-0.000000
320.817000	-0.000000
320.990000	-0.000000
321.164000	-0.000000
321.338000	-0.000000
321.512000	-0.000000
321.686000	-0.000000
321.859000	-0.000000
322.033000	0.000000
322.207000	-0.000000
322.381000	-0.000000
322.555000	0.000000
322.728000	0.000000
322.902000	-0.000000
323.076000	-0.000000
323.250000	-0.000000
323.423000	-0.000000
323.597000	-0.000000
323.771000	-0.000000
323.945000	-0.000000
324.119000	-0.000000
324.292000	0.000000
324.466000	-0.000000
324.640000	0.000000
324.814000	0.000000
324.988000	-0.000000
325.161000	-0.000000
325.335000	-0.000000
325.509000	-0.000000
325.683000	0.000000
325.856000	-0.000000
326.030000	-0.000000
326.204000	-0.000000
326.378000	0.000000
326.552000	-0.000000
326.725000	-0.000000
326.899000	-0.000000
327.073000	-0.000000
327.247000	-0.000000
327.421000	0.000000
327.594000	0.000000
327.768000	-0.000000
327.942000	-0.000000
328.116000	0.000000
328.289000	0.000000
328.463000	0.000000
328.637000	0.000000
328.811000	-0.000000
328.985000	0.000000
329.158000	-0.000000
329.332000	-0.000000
329.506000	0.000000
329.680000	0.000000
329.854000	-0.000000
330.027000	-0.000000
330.201000	0.000000
330.375000	0.000000
330.549000	0.000000
330.723000	-0.000000
330.896000	-0.000000
331.070000	-0.000000
331.244000	-0.000000
331.418000	-0.000000
331.591000	0.000000
331.765000	-0.000000
331.939000	-0.000000
332.113000	-0.000000
332.287000	-0.000000
332.460000	0.000000
332.634000	0.000000
332.808000	-0.000000
332.982000	-0.000000
333.156000	-0.000000
333.329000	-0.000000
333.503000	-0.000000
333.677000	-0.000000
333.851000	-0.000000
334.024000	-0.000000
334.198000	-0.000000
334.372000	-0.000000
334.546000	-0.000000
334.720000	-0.000000
334.893000	-0.000000
335.067000	0.000000
335.241000	0.000000
335.415000	-0.000000
335.589000	-0.000000
335.762000	-0.000000
335.936000	-0.000000
336.110000	-0.000000
336.284000	-0.000000
336.458000	0.000000
336.631000	-0.000000
336.805000	-0.000000
336.979000	-0.000000
337.153000	-0.000000
337.326000	-0.000000
337.500000	-0.000000
337.674000	-0.000000
337.848000	-0.000000
338.022000	0.000000
338.195000	-0.000000
338.369000	-0.000000
338.543000	-0.000000
338.717000	-0.000000
338.891000	0.000000
339.064000	0.000000
339.238000	-0.000000
339.412000	-0.000000
339.586000	-0.000000
339.759000	-0.000000
339.933000	-0.000000
340.107000	0.000000
340.281000	0.000000
340.455000	-0.000000
340.628000	-0.000000
340.802000	-0.000000
340.976000	-0.000000
341.150000	-0.000000
341.324000	-0.000000
341.497000	-0.000000
341.671000	-0.000000
341.845000	-0.000000
342.019000	-0.000000
342.192000	0.000000
342.366000	-0.000000
342.540000	-0.000000
342.714000	-0.000000
342.888000	-0.000000
343.061000	-0.000000
343.235000	-0.000000
343.409000	-0.000000
343.583000	-0.000000
343.757000	-0.000000
343.930000	-0.000000
344.104000	-0.000000
344.278000	0.000000
344.452000	0.000000
344.626000	-0.000000
344.799000	-0.000000
344.973000	-0.000000
345.147000	-0.000000
345.321000	-0.000000
345.494000	-0.000000
345.668000	0.000000
345.842000	0.000000
346.016000	-0.000000
346.190000	0.000000
346.363000	0.000000
346.537000	-0.000000
346.711000	-0.000000
346.885000	-0.000000
347.059000	-0.000000
347.232000	-0.000000
347.406000	0.000000
347.580000	-0.000000
347.754000	-0.000000
347.927000	0.000000
348.101000	0.000000
348.275000	-0.000000
348.449000	-0.000000
348.623000	-0.000000
348.796000	-0.000000
348.970000	0.000000
349.144000	0.000000
349.318000	-0.000000
349.492000	-0.000000
349.665000	-0.000000
349.839000	-0.000000
350.013000	-0.000000
350.187000	-0.000000
350.361000	-0.000000
350.534000	0.000000
350.708000	-0.000000
350.882000	-0.000000
351.056000	0.000000
351.229000	0.000000
351.403000	-0.000000
351.577000	-0.000000
351.751000	-0.000000
351.925000	-0.000000
352.098000	-0.000000
352.272000	-0.000000
352.446000	-0.000000
352.620000	-0.000000
352.794000	-0.000000
352.967000	-0.000000
353.141000	0.000000
353.315000	0.000000
353.489000	-0.000000
353.662000	-0.000000
353.836000	-0.000000
354.010000	-0.000000
354.184000	-0.000000
354.358000	-0.000000
354.531000	-0.000000
354.705000	-0.000000
354.879000	-0.000000
355.053000	-0.000000
355.227000	0.000000
355.400000	-0.000000
355.574000	-0.000000
355.748000	0.000000
355.922000	-0.000000
356.095000	-0.000000
356.269000	-0.000000
356.443000	-0.000000
356.617000	-0.000000
356.791000	-0.000000
356.964000	-0.000000
357.138000	-0.000000
357.312000	-0.000000
357.486000	-0.000000
357.660000	0.000000
357.833000	-0.000000
358.007000	-0.000000
358.181000	-0.000000
358.355000	-0.000000
358.529000	-0.000000
358.702000	-0.000000
358.876000	-0.000000
359.050000	-0.000000
359.224000	-0.000000
359.397000	0.000000
359.571000	0.000000
359.745000	-0.000000
359.919000	-0.000000
360.093000	-0.007282
360.266000	0.099088
360.440000	0.070085
360.614000	0.090041
360.788000	0.067570
360.962000	-0.115535
361.135000	-0.085332
361.309000	-0.180118
361.483000	-0.267029
361.657000	-0.202618
361.830000	-0.188465
362.004000	-0.046099
362.178000	-0.331573
362.352000	-0.174833
362.526000	-0.050990
362.699000	-0.056784
362.873000	-0.302030
363.047000	-0.278578
363.221000	-0.264225
363.395000	-0.161672
363.568000	-0.151547
363.742000	-0.114966
363.916000	-0.137653
364.090000	-0.237826
364.263000	-0.194033
364.437000	-0.238986
364.611000	-0.055922
364.785000	-0.132304
364.959000	-0.199442
365.132000	-0.129892
365.306000	-0.213562
365.480000	-0.115291
365.656000	-0.145113
365.831000	-0.075453
366.007000	-0.146662
366.183000	-0.166888
366.358000	-0.211343
366.534000	-0.065119
366.710000	-0.265944
366.886000	-0.279656
367.061000	-0.059004
367.237000	0.144571
367.413000	-0.055020
367.588000	-0.286538
367.764000	-0.233336
367.940000	-0.237596
368.115000	-0.224894
368.291000	-0.271512
368.467000	-0.103811
368.643000	0.205895
368.818000	-0.169406
368.994000	-0.297861
369.170000	-0.145420
369.345000	-0.084415
369.521000	-0.176464
369.697000	-0.168473
369.872000	-0.210949
370.048000	-0.230970
370.224000	-0.200071
370.399000	-0.379175
370.575000	-0.235789
370.751000	-0.342550
370.927000	-0.344534
371.102000	-0.303016
371.278000	-0.253385
371.454000	-0.117688
371.629000	0.022656
371.805000	-0.048992
371.981000	0.192979
372.156000	0.348040
372.332000	0.075800
372.508000	-0.060497
372.683000	-0.006935
372.859000	-0.075875
373.035000	-0.152122
373.211000	0.013294
373.386000	-0.073866
373.562000	-0.316652
373.738000	-0.365690
373.913000	-0.491606
374.089000	-0.322633
374.265000	0.083765
374.440000	0.030898
374.616000	-0.039196
374.792000	-0.172491
374.968000	0.298198
375.143000	0.041684
375.319000	-0.250635
375.495000	-0.320647
375.670000	-0.110541
375.846000	-0.075058
376.022000	-0.268598
376.197000	-0.133817
376.373000	-0.310132
376.549000	-0.374026
376.724000	-0.406712
376.900000	-0.241777
377.076000	-0.082310
377.252000	0.010814
377.427000	0.071338
377.603000	-0.184823
377.779000	-0.104832
377.954000	-0.298954
378.130000	-0.208484
378.306000	-0.104927
378.481000	-0.064484
378.657000	-0.163213
378.833000	-0.196210
379.009000	-0.045267
379.184000	0.093949
379.360000	-0.043743
379.536000	-0.062755
379.711000	-0.090340
379.887000	-0.169338
380.063000	-0.276585
380.238000	-0.320409
380.414000	0.025631
380.590000	-0.205821
380.765000	-0.264792
380.941000	-0.143028
381.117000	-0.050606
381.293000	-0.051400
381.468000	-0.213331
381.644000	-0.156956
381.820000	-0.049797
381.995000	0.085845
382.171000	0.211858
382.347000	0.026671
382.522000	-0.288592
382.698000	0.168900
382.874000	0.166811
383.050000	-0.244252
383.225000	0.173183
383.401000	0.374626
383.577000	-0.041299
383.752000	-0.212387
383.928000	-0.123425
384.104000	-0.023658
384.279000	-0.150014
384.455000	-0.077572
384.631000	-0.084971
384.806000	-0.269570
384.982000	-0.203603
385.158000	-0.224674
385.334000	0.009690
385.509000	-0.047560
385.685000	-0.364209
385.861000	-0.219213
386.036000	-0.322785
386.212000	-0.449881
386.388000	-0.325484
386.563000	-0.252734
386.739000	-0.259963
386.915000	-0.479371
387.090000	-0.279971
387.266000	-0.095314
387.442000	0.080069
387.618000	0.006069
387.793000	-0.297181
387.969000	-0.450428
388.145000	-0.340790
388.320000	-0.273520
388.496000	-0.257027
388.672000	-0.476194
388.847000	-0.026411
389.023000	-0.001179
389.199000	-0.330400
389.375000	-0.219613
389.550000	-0.273260
389.726000	-0.096863
389.902000	-0.316800
390.077000	-0.225769
390.253000	-0.131612
390.429000	-0.169485
390.604000	-0.104510
390.780000	-0.104885
390.956000	-0.209656
391.131000	-0.203942
391.307000	-0.005583
391.483000	-0.182748
391.659000	-0.265110
391.834000	-0.014424
392.010000	-0.199986
392.186000	-0.272736
392.361000	-0.198855
392.537000	-0.318988
392.713000	0.099971
392.888000	0.111467
393.064000	-0.078227
393.240000	-0.141817
393.416000	-0.279024
393.591000	-0.358012
393.767000	-0.398635
393.943000	-0.254998
394.118000	-0.109687
394.294000	0.052267
394.470000	-0.000258
394.645000	0.139293
394.821000	0.169378
394.997000	-0.109790
395.172000	-0.059841
395.348000	-0.157189
395.524000	-0.423208
395.700000	-0.317960
395.875000	-0.051797
396.051000	-0.069450
396.227000	-0.131180
396.402000	-0.210506
396.578000	-0.108522
396.754000	-0.242744
396.929000	-0.245036
397.105000	-0.025537
397.281000	-0.081138
397.457000	-0.131307
397.632000	-0.173979
397.808000	-0.424376
397.984000	-0.506154
398.159000	-0.404509
398.335000	-0.261893
398.511000	0.135351
398.686000	-0.050421
398.862000	-0.259373
399.038000	-0.363081
399.213000	-0.185756
399.389000	-0.433775
399.565000	-0.102942
399.741000	0.069241
399.916000	-0.058717
400.092000	0.264890
400.268000	-0.067017
400.443000	-0.199612
400.619000	0.016402
400.795000	-0.059582
400.970000	-0.170114
401.146000	-0.267635
401.322000	-0.032753
401.497000	0.425313
401.673000	0.166331
401.849000	-0.182133
402.025000	-0.084159
402.200000	-0.199096
402.376000	-0.226338
402.552000	0.098710
402.727000	-0.082191
402.903000	-0.309156
403.079000	-0.181254
403.254000	-0.042437
403.430000	-0.024076
403.606000	-0.051277
403.782000	-0.062721
403.957000	-0.280531
404.133000	-0.404403
404.309000	-0.192762
404.484000	0.009633
404.660000	-0.029143
404.841000	-0.158032
405.023000	0.058086
405.204000	0.006345
405.385000	-0.302389
405.566000	-0.315038
405.748000	-0.178438
405.929000	0.082593
406.110000	0.000579
406.292000	-0.119802
406.473000	-0.028978
406.654000	-0.220344
406.835000	-0.160220
407.017000	-0.190831
407.198000	-0.102596
407.379000	-0.082061
407.560000	-0.171706
407.742000	-0.210708
407.923000	-0.096592
408.104000	-0.229721
408.286000	-0.140923
408.467000	-0.129968
408.648000	-0.301413
408.829000	-0.350100
409.011000	-0.241122
409.192000	-0.392069
409.373000	-0.130405
409.555000	-0.010071
409.736000	-0.053919
409.917000	-0.196154
410.098000	-0.173772
410.280000	-0.033247
410.461000	-0.084617
410.642000	-0.144349
410.823000	0.136570
411.005000	0.115793
411.186000	-0.128449
411.367000	-0.202807
411.549000	-0.231693
411.730000	0.018301
411.911000	0.118073
412.092000	-0.103758
412.274000	-0.144390
412.455000	-0.037748
412.636000	-0.004234
412.818000	-0.208691
412.999000	-0.288674
413.180000	-0.200581
413.361000	-0.209308
413.543000	-0.271686
413.724000	-0.320074
413.905000	-0.309001
414.087000	-0.338208
414.268000	-0.321946
414.449000	-0.298178
414.630000	-0.370364
414.812000	-0.488538
414.993000	-0.190754
415.174000	-0.022108
415.355000	-0.151151
415.537000	-0.387591
415.718000	-0.163170
415.899000	-0.240785
416.081000	-0.328464
416.262000	-0.169444
416.443000	-0.266575
416.624000	-0.187940
416.806000	-0.090010
416.987000	0.012209
417.168000	-0.102268
417.350000	-0.254490
417.531000	-0.272164
417.712000	-0.246027
417.893000	-0.077013
418.075000	0.010480
418.256000	-0.192790
418.437000	-0.124243
418.618000	-0.073142
418.800000	0.010498
418.981000	-0.169499
419.162000	-0.191135
419.344000	-0.003279
419.525000	-0.043163
419.706000	-0.104612
419.887000	-0.076827
420.069000	0.018134
420.250000	0.002830
420.431000	-0.004808
420.613000	-0.117538
420.794000	-0.331312
420.975000	0.059830
421.156000	-0.106866
421.338000	-0.164621
421.519000	-0.157739
421.700000	-0.231472
421.882000	-0.210829
422.063000	-0.096136
422.244000	0.186832
422.425000	0.073513
422.607000	-0.159242
422.788000	-0.193676
422.969000	-0.270547
423.150000	-0.276182
423.332000	-0.326172
423.513000	-0.167523
423.694000	-0.150821
423.876000	-0.082536
424.057000	-0.004802
424.238000	0.015837
424.419000	-0.002532
424.601000	-0.118382
424.782000	-0.056180
424.963000	-0.008589
425.145000	-0.100072
425.326000	0.003567
425.507000	0.058879
425.688000	-0.092385
425.870000	-0.202099
426.051000	-0.265267
426.232000	-0.215127
426.413000	-0.227086
426.595000	-0.247933
426.776000	-0.250856
426.957000	-0.174900
427.139000	-0.115677
427.320000	-0.137549
427.501000	0.005897
427.682000	0.011203
427.864000	-0.028411
428.045000	0.087621
428.226000	0.071835
428.408000	-0.210856
428.589000	-0.103188
428.770000	-0.113607
428.951000	-0.196974
429.133000	-0.312265
429.314000	-0.196111
429.495000	-0.172092
429.677000	-0.093273
429.858000	-0.117607
430.039000	-0.119261
430.220000	-0.081367
430.402000	0.040594
430.583000	-0.173742
430.764000	-0.191918
430.945000	-0.075087
431.127000	0.059836
431.308000	-0.068978
431.489000	-0.065602
431.671000	0.010337
431.852000	0.000525
432.033000	-0.054194
432.214000	-0.026408
432.396000	-0.033054
432.577000	-0.137815
432.758000	-0.252894
432.940000	-0.218172
433.121000	-0.156591
433.302000	-0.079267
433.483000	0.128525
433.665000	0.170293
433.846000	0.023599
434.027000	-0.074942
434.208000	-0.126562
434.390000	-0.173747
434.571000	0.187471
434.752000	0.647072
434.934000	0.498521
435.115000	0.376422
435.296000	0.371163
435.477000	0.236885
435.659000	0.029471
435.840000	0.065151
436.026000	0.034543
436.211000	-0.059534
436.397000	-0.321620
436.582000	-0.238037
436.768000	-0.047741
436.953000	-0.126058
437.139000	-0.089907
437.325000	0.078368
437.510000	0.059071
437.696000	0.283316
437.881000	0.288559
438.067000	-0.102047
438.252000	-0.124063
438.438000	-0.143070
438.624000	-0.107714
438.809000	-0.075578
438.995000	-0.003025
439.180000	-0.049306
439.366000	-0.085688
439.551000	-0.101667
439.737000	-0.081909
439.923000	-0.012795
440.108000	-0.077718
440.294000	-0.019701
440.479000	0.051124
440.665000	0.139694
440.850000	0.057363
441.036000	0.051999
441.222000	-0.014693
441.407000	-0.133573
441.593000	0.011431
441.778000	0.036673
441.964000	0.118444
442.149000	-0.136167
442.335000	-0.149758
442.521000	-0.062675
442.706000	0.031583
442.892000	0.000472
443.077000	-0.040151
443.263000	0.013958
443.448000	-0.036448
443.634000	-0.073419
443.820000	0.249423
444.005000	0.096516
444.191000	-0.155936
444.376000	-0.106640
444.562000	0.259645
444.747000	0.200520
444.933000	0.022334
445.119000	-0.037884
445.304000	-0.073449
445.490000	0.059218
445.675000	0.032136
445.861000	-0.112014
446.046000	-0.078760
446.232000	-0.008109
446.418000	0.047218
446.603000	0.068283
446.789000	0.083996
446.974000	0.009039
447.160000	-0.196095
447.345000	-0.109402
447.531000	-0.133480
447.717000	0.005719
447.902000	0.051289
448.088000	0.143517
448.273000	0.044851
448.459000	0.000456
448.644000	-0.070543
448.830000	-0.122457
449.016000	-0.191601
449.201000	-0.150885
449.387000	-0.038770
449.572000	0.093670
449.758000	0.012181
449.943000	-0.132622
450.129000	-0.167829
450.315000	-0.136385
450.500000	-0.149485
450.686000	-0.093835
450.871000	-0.198070
451.057000	-0.030085
451.243000	-0.024858
451.428000	-0.058037
451.614000	-0.070219
451.799000	-0.085081
451.985000	0.135823
452.170000	0.101398
452.356000	-0.106240
452.542000	-0.062992
452.727000	0.106936
452.913000	-0.027990
453.098000	0.092235
453.284000	0.258251
453.469000	0.137591
453.655000	0.129603
453.841000	0.059768
454.026000	-0.018808
454.212000	0.063176
454.397000	0.012627
454.583000	-0.135965
454.768000	-0.164160
454.954000	0.060526
455.140000	0.092964
455.325000	-0.082311
455.511000	-0.190177
455.696000	-0.149892
455.882000	-0.039767
456.067000	0.054729
456.253000	-0.057032
456.439000	-0.114494
456.624000	-0.133848
456.810000	-0.142366
456.995000	-0.100610
457.181000	-0.180849
457.366000	-0.059472
457.552000	-0.044782
457.738000	0.105838
457.923000	0.118594
458.109000	0.100043
458.294000	0.063416
458.480000	0.121504
458.665000	0.087195
458.851000	-0.077377
459.037000	-0.222732
459.222000	-0.037592
459.408000	-0.042581
459.593000	-0.028726
459.779000	0.078356
459.964000	0.241430
460.150000	0.428047
460.336000	0.239753
460.521000	0.042915
460.707000	-0.024141
460.892000	-0.092760
461.078000	0.090765
461.263000	0.129512
461.449000	-0.005710
461.635000	0.035387
461.820000	0.013282
462.006000	0.070515
462.191000	0.089080
462.377000	-0.077678
462.562000	0.060555
462.748000	0.177327
462.934000	-0.079033
463.119000	-0.148704
463.305000	0.028075
463.490000	-0.028298
463.676000	0.046603
463.861000	0.030542
464.047000	-0.016394
464.233000	0.015928
464.418000	-0.001371
464.604000	-0.062612
464.789000	0.034334
464.975000	0.098879
465.160000	0.042007
465.346000	0.058016
465.532000	-0.061431
465.717000	-0.128421
465.903000	0.150386
466.088000	0.110533
466.274000	-0.099721
466.459000	-0.119886
466.645000	0.251384
466.831000	0.232202
467.016000	0.169135
467.202000	0.066321
467.387000	0.013321
467.573000	-0.121741
467.758000	0.092943
467.944000	0.000989
468.130000	-0.053385
468.315000	0.111567
468.501000	0.201528
468.686000	0.062632
468.872000	0.102793
469.057000	0.181861
469.243000	0.056900
469.429000	0.013211
469.614000	-0.028042
469.800000	-0.064619
469.985000	0.067544
470.171000	0.137639
470.356000	0.048442
470.542000	0.142166
470.728000	0.093042
470.913000	0.025175
471.099000	0.187507
471.284000	0.100711
471.470000	0.005052
471.655000	0.038154
471.841000	0.074503
472.027000	0.026890
472.212000	0.155424
472.398000	0.195829
472.583000	0.135264
472.769000	0.157552
472.954000	0.120832
473.140000	-0.031880
473.326000	-0.052702
473.511000	0.271730
473.697000	0.262245
473.882000	0.099435
474.068000	0.050886
474.253000	-0.007106
474.439000	0.048433
474.625000	0.086466
474.810000	0.131035
474.996000	0.170339
475.181000	0.011345
475.367000	0.157779
475.552000	0.416088
475.738000	0.123772
475.924000	0.031605
476.109000	0.111295
476.295000	0.050678
476.480000	0.149068
476.666000	0.113610
476.851000	0.118167
477.037000	0.189001
477.223000	0.108493
477.408000	0.028157
477.594000	-0.046961
477.779000	0.098803
477.965000	0.112734
478.151000	-0.018119
478.336000	0.092534
478.522000	0.079597
478.707000	0.062249
478.893000	0.138250
479.078000	0.005051
479.264000	0.024218
479.450000	0.119510
479.635000	0.216823
479.821000	0.141644
480.006000	0.234462
480.192000	0.237141
480.377000	0.226609
480.563000	0.210121
480.749000	0.056793
480.934000	0.115381
481.120000	0.227775
481.305000	0.278303
481.491000	0.299740
481.676000	0.374836
481.862000	0.341902
482.048000	0.198053
482.233000	0.300287
482.419000	0.305028
482.604000	0.229833
482.790000	0.224611
482.975000	0.286445
483.161000	0.435134
483.347000	0.407816
483.532000	0.376062
483.718000	0.193211
483.903000	0.245823
484.089000	0.295123
484.274000	0.217619
484.460000	0.372443
484.646000	0.423553
484.831000	0.312332
485.017000	0.386049
485.202000	0.405544
485.388000	0.644388
485.573000	0.630437
485.759000	0.455200
485.945000	0.643147
486.130000	0.486716
486.316000	0.450503
486.501000	0.520192
486.687000	0.400340
486.872000	0.379392
487.058000	0.530649
487.244000	0.548279
487.429000	0.394878
487.615000	0.601427
487.800000	0.686433
487.986000	0.565812
488.171000	0.697461
488.357000	0.669351
488.543000	0.653230
488.728000	0.683670
488.914000	0.664139
489.099000	0.627806
489.285000	0.619378
489.470000	0.769061
489.656000	0.809462
489.842000	0.816559
490.027000	0.870592
490.213000	0.716959
490.398000	0.509368
490.584000	0.811797
490.769000	0.823668
490.955000	0.818861
491.141000	0.871123
491.326000	0.895015
491.512000	0.986601
491.697000	0.896689
491.883000	0.814725
492.068000	0.790180
492.254000	0.827500
492.440000	0.919540
492.625000	0.903387
492.811000	0.906583
492.996000	1.008984
493.182000	1.012989
493.367000	0.868259
493.553000	0.833952
493.739000	0.946753
493.924000	1.068704
494.110000	1.101965
494.295000	1.020013
494.481000	1.127127
494.666000	1.158430
494.852000	1.347063
495.038000	1.248700
495.223000	1.142096
495.409000	1.186344
495.594000	1.173929
495.780000	1.272919
495.965000	1.234449
496.151000	1.430947
496.337000	1.529338
496.522000	1.334068
496.708000	1.398403
496.893000	1.561912
497.079000	1.458527
497.264000	1.446967
497.450000	1.530364
497.636000	1.641570
497.821000	1.514081
498.007000	1.774812
498.192000	1.813294
498.378000	1.685001
498.563000	1.694872
498.749000	1.796605
498.935000	1.801573
499.120000	1.864519
499.306000	1.771820
499.491000	1.795453
499.677000	1.907468
499.862000	1.994237
500.048000	2.124124
500.234000	2.057371
500.419000	2.041906
500.605000	2.187712
500.790000	2.164973
500.976000	2.100273
501.161000	2.066176
501.347000	2.230996
501.533000	2.398534
501.718000	2.365787
501.904000	2.322813
502.089000	2.443261
502.275000	2.567353
502.460000	2.510952
502.646000	2.522088
502.832000	2.586107
503.017000	2.672296
503.203000	2.524912
503.388000	2.532080
503.574000	2.760916
503.759000	2.875393
503.945000	2.970313
504.131000	2.898510
504.316000	2.886260
504.502000	2.995571
504.687000	3.011873
504.873000	2.912195
505.058000	2.940075
505.244000	2.982000
505.430000	3.100231
505.615000	3.181925
505.801000	3.271699
505.986000	3.186697
506.172000	3.333804
506.358000	3.390274
506.543000	3.392878
506.729000	3.650950
506.914000	3.661201
507.100000	3.645233
507.285000	3.547321
507.471000	3.610989
507.657000	3.893288
507.842000	3.774654
508.028000	3.652126
508.213000	3.722260
508.399000	3.840475
508.584000	4.003187
508.770000	3.904766
508.956000	3.923538
509.141000	4.022045
509.327000	4.093239
509.512000	4.072569
509.698000	4.143737
509.883000	4.267087
510.069000	4.192407
510.255000	4.201031
510.440000	4.321888
510.626000	4.295402
510.811000	4.267139
510.997000	4.422265
511.182000	4.710949
511.368000	4.613840
511.554000	4.279155
511.739000	4.370703
511.925000	4.620981
512.110000	4.621715
512.296000	4.646302
512.481000	4.637825
512.667000	4.669440
512.853000	4.530995
513.038000	4.615577
513.224000	4.613299
513.409000	4.539123
513.595000	4.690662
513.780000	4.535043
513.966000	4.599966
514.152000	4.609030
514.337000	4.570106
514.523000	4.606210
514.708000	4.690881
514.894000	4.754435
515.079000	4.656005
515.265000	4.678832
515.451000	4.715462
515.636000	4.596082
515.822000	4.708201
516.007000	4.605381
516.193000	4.706586
516.378000	4.812588
516.564000	4.728257
516.750000	4.693492
516.935000	4.742531
517.121000	4.768934
517.306000	4.838207
517.492000	4.768488
517.677000	4.530656
517.863000	4.517254
518.049000	4.621253
518.234000	4.503864
518.420000	4.515737
518.605000	4.723394
518.791000	4.730157
518.976000	4.516104
519.162000	4.378779
519.348000	4.471649
519.533000	4.416111
519.719000	4.438843
519.904000	4.376425
520.090000	4.425732
520.275000	4.577652
520.461000	4.423741
520.647000	4.194776
520.832000	4.039877
521.018000	4.137464
521.203000	4.131903
521.389000	3.916471
521.574000	3.967809
521.760000	4.112915
521.946000	4.032078
522.131000	3.935272
522.317000	3.920047
522.502000	3.848587
522.688000	3.855438
522.873000	3.793218
523.059000	3.787302
523.245000	3.752268
523.430000	3.604519
523.616000	3.593192
523.801000	3.488323
523.987000	3.543459
524.172000	3.574700
524.358000	3.596358
524.544000	3.547409
524.729000	3.605004
524.915000	3.568862
525.100000	3.433751
525.286000	3.479632
525.471000	3.435284
525.657000	3.344792
525.843000	3.142523
526.028000	3.333168
526.214000	3.221561
526.399000	3.064567
526.585000	2.988684
526.770000	2.945448
526.956000	3.057958
527.142000	2.919747
527.327000	2.989989
527.513000	2.896456
527.698000	2.897948
527.884000	2.897387
528.069000	2.808070
528.255000	2.890093
528.441000	2.749562
528.626000	2.740979
528.812000	2.911246
528.997000	2.758423
529.183000	2.654415
529.368000	2.636635
529.554000	2.616983
529.740000	2.651661
529.925000	2.602957
530.111000	2.543434
530.296000	2.563264
530.482000	2.657865
530.667000	2.534789
530.853000	2.457870
531.039000	2.368425
531.224000	2.465616
531.410000	2.552917
531.595000	2.379018
531.781000	2.394477
531.967000	2.268201
532.152000	2.409278
532.338000	2.284082
532.523000	2.116605
532.709000	2.084538
532.894000	2.186689
533.080000	2.164959
533.266000	2.017686
533.451000	1.960072
533.637000	2.000661
533.822000	2.094200
534.008000	1.946334
534.193000	2.005545
534.379000	2.080015
534.565000	1.958380
534.750000	1.895314
534.936000	2.121275
535.121000	1.943133
535.307000	1.906900
535.492000	1.888861
535.678000	1.694865
535.864000	1.830006
536.049000	1.955692
536.235000	1.759259
536.420000	1.816372
536.606000	1.746133
536.791000	1.625833
536.977000	1.624609
537.163000	1.844107
537.348000	1.828846
537.534000	1.738878
537.719000	1.570630
537.905000	1.494855
538.090000	1.715486
538.276000	1.711313
538.462000	1.632052
538.647000	1.688117
538.833000	1.628290
539.018000	1.642149
539.204000	1.553022
539.389000	1.411258
539.575000	1.740586
539.761000	1.652939
539.946000	1.365425
540.132000	1.506204
540.317000	1.342675
540.503000	1.421126
540.688000	1.486742
540.874000	1.726539
541.060000	1.861904
541.245000	1.651688
541.431000	1.483869
541.616000	1.542484
541.802000	1.482656
541.987000	1.510986
542.173000	1.503566
542.359000	1.449577
542.544000	1.548572
542.730000	1.364231
542.915000	1.360152
543.101000	1.527675
543.286000	1.343811
543.472000	1.218296
543.658000	1.269057
543.843000	1.288602
544.029000	1.513600
544.214000	1.331882
544.400000	1.018927
544.585000	1.214463
544.771000	1.289372
544.957000	1.390466
545.142000	1.446862
545.328000	1.548557
545.513000	1.603903
545.699000	1.490184
545.884000	1.281850
546.070000	1.233515
546.261000	1.196583
546.451000	1.013290
546.642000	0.810753
546.833000	0.928758
547.023000	0.801158
547.214000	0.754013
547.405000	0.905780
547.595000	1.185543
547.786000	1.127009
547.977000	0.882458
548.167000	0.715895
548.358000	0.756747
548.549000	1.144931
548.740000	0.917946
548.930000	0.603689
549.121000	0.727190
549.312000	0.664094
549.502000	0.531238
549.693000	0.646876
549.884000	0.767150
550.074000	0.872797
550.265000	0.642094
550.456000	0.710210
550.646000	0.801914
550.837000	0.770031
551.028000	0.618091
551.218000	0.639662
551.409000	0.541404
551.600000	0.642196
551.790000	0.682095
551.981000	0.437569
552.172000	0.495350
552.362000	0.844097
552.553000	0.810778
552.744000	0.644384
552.934000	0.629404
553.125000	0.559258
553.316000	0.489938
553.506000	0.693014
553.697000	0.579344
553.888000	0.668035
554.079000	0.757513
554.269000	0.637075
554.460000	0.363439
554.651000	0.386153
554.841000	0.221747
555.032000	0.276840
555.223000	0.426767
555.413000	0.593606
555.604000	0.481501
555.795000	0.386162
555.985000	0.522978
556.176000	0.445392
556.367000	0.152152
556.557000	0.274652
556.748000	0.340490
556.939000	0.312380
557.129000	0.230266
557.320000	0.350754
557.511000	0.353436
557.701000	0.383693
557.892000	0.360983
558.083000	0.497576
558.273000	0.464252
558.464000	0.312221
558.655000	0.305274
558.845000	0.340166
559.036000	0.427030
559.227000	0.419009
559.418000	0.401410
559.608000	0.382052
559.799000	0.168987
559.990000	0.177211
560.180000	0.225603
560.371000	0.026362
560.562000	0.076972
560.752000	0.305592
560.943000	0.130292
561.134000	-0.052491
561.324000	0.208468
561.515000	0.485852
561.706000	0.249695
561.896000	0.034437
562.087000	0.181230
562.278000	0.144053
562.468000	-0.020882
562.659000	0.090298
562.850000	0.460183
563.040000	0.504661
563.231000	0.026131
563.422000	0.139426
563.612000	0.059796
563.803000	0.172166
563.994000	0.105974
564.185000	-0.008402
564.375000	0.227600
564.566000	0.202854
564.757000	0.126533
564.947000	0.043870
565.138000	0.211444
565.329000	0.145202
565.519000	-0.022983
565.710000	0.048533
565.901000	0.270655
566.091000	0.398895
566.282000	0.157910
566.473000	0.146910
566.663000	0.186312
566.854000	-0.004263
567.045000	0.071164
567.235000	0.124896
567.426000	0.161736
567.617000	0.201901
567.807000	0.114063
567.998000	0.109044
568.189000	0.065953
568.379000	0.158856
568.570000	0.177700
568.761000	0.085373
568.951000	0.064660
569.142000	0.035425
569.333000	-0.012917
569.524000	-0.109979
569.714000	-0.143126
569.905000	-0.193318
570.096000	0.123470
570.286000	0.158714
570.477000	0.338774
570.668000	0.178519
570.858000	0.096977
571.049000	-0.019765
571.240000	-0.083085
571.430000	0.161347
571.621000	0.075215
571.812000	0.104345
572.002000	0.160404
572.193000	0.026884
572.384000	0.079533
572.574000	0.088898
572.765000	0.029940
572.956000	-0.006401
573.146000	0.110218
573.337000	0.015186
573.528000	0.065176
573.718000	0.231550
573.909000	0.208228
574.100000	0.099046
574.290000	0.009667
574.481000	0.043065
574.672000	0.008897
574.863000	0.052788
575.053000	-0.022148
575.244000	0.111384
575.435000	-0.029609
575.625000	-0.021227
575.816000	-0.009964
576.007000	0.088175
576.197000	0.065054
576.388000	0.046863
576.579000	0.191051
576.769000	0.190829
576.960000	-0.078526
577.155000	-0.236711
577.350000	0.034687
577.545000	0.176967
577.740000	0.000517
577.935000	0.126655
578.130000	0.123062
578.326000	-0.042171
578.521000	0.106446
578.716000	0.122065
578.911000	-0.065317
579.106000	0.087224
579.301000	0.190115
579.496000	0.030922
579.691000	-0.233927
579.886000	-0.047847
580.081000	0.035812
580.276000	0.058726
580.471000	-0.000934
580.666000	-0.104242
580.861000	-0.137195
581.057000	-0.145179
581.252000	-0.000215
581.447000	-0.066822
581.642000	-0.087021
581.837000	-0.061112
582.032000	-0.000214
582.227000	0.241982
582.422000	0.169221
582.617000	-0.029146
582.812000	-0.126209
583.007000	-0.067045
583.202000	-0.168041
583.397000	0.036178
583.592000	0.279904
583.788000	0.035303
583.983000	-0.038469
584.178000	0.069246
584.373000	-0.053527
584.568000	-0.073455
584.763000	-0.137852
584.958000	-0.206314
585.153000	-0.087360
585.348000	-0.060351
585.543000	0.051694
585.738000	0.011551
585.933000	-0.171793
586.128000	0.081405
586.324000	0.078151
586.519000	0.047605
586.714000	0.159987
586.909000	0.244333
587.104000	0.148259
587.299000	0.038714
587.494000	0.102518
587.689000	0.058210
587.884000	0.067454
588.079000	-0.005093
588.274000	0.020757
588.469000	0.014438
588.664000	0.073822
588.859000	0.051547
589.055000	0.076814
589.250000	0.067744
589.445000	-0.066142
589.640000	-0.053560
589.835000	0.189070
590.030000	0.270613
590.225000	0.231967
590.420000	0.034311
590.615000	-0.043227
590.810000	-0.001620
591.005000	0.045760
591.200000	-0.058232
591.395000	-0.116235
591.591000	0.050637
591.786000	0.088700
591.981000	-0.024275
592.176000	0.093398
592.371000	0.120394
592.566000	0.038779
592.761000	0.207476
592.956000	0.197886
593.151000	0.252685
593.346000	0.147244
593.541000	0.136418
593.736000	0.141120
593.931000	0.011212
594.126000	0.049848
594.322000	0.044125
594.517000	-0.015230
594.712000	-0.081046
594.907000	-0.077030
595.102000	0.062323
595.297000	0.190871
595.492000	0.273346
595.687000	0.069754
595.882000	-0.008155
596.077000	0.143681
596.272000	0.343189
596.467000	0.312926
596.662000	0.167728
596.857000	0.227994
597.053000	0.256771
597.248000	0.234829
597.443000	0.258458
597.638000	0.235707
597.833000	0.052421
598.028000	0.232712
598.223000	0.351689
598.418000	0.306143
598.613000	0.231354
598.808000	0.306338
599.003000	0.277301
599.198000	0.134305
599.393000	0.209223
599.589000	0.296746
599.784000	0.139885
599.979000	0.264897
600.174000	0.512646
600.369000	0.300127
600.564000	0.356811
600.759000	0.598249
600.954000	0.739390
601.149000	0.561940
601.344000	0.250294
601.539000	0.451533
601.734000	0.391481
601.929000	0.177866
602.124000	0.252591
602.320000	0.506283
602.515000	0.782819
602.710000	0.661645
602.905000	0.323926
603.100000	0.324900
603.295000	0.449047
603.490000	0.531434
603.685000	0.563068
603.880000	0.612633
604.075000	0.499594
604.270000	0.490076
604.465000	0.583311
604.660000	0.403216
604.856000	0.552398
605.051000	0.724408
605.246000	0.712476
605.441000	0.542822
605.636000	0.534656
605.831000	0.644782
606.026000	0.598298
606.221000	0.583185
606.416000	0.780676
606.611000	0.941142
606.806000	0.953198
607.001000	1.158285
607.196000	0.961401
607.391000	0.772131
607.587000	0.951707
607.782000	0.986626
607.977000	0.835472
608.172000	1.170343
608.367000	1.207071
608.562000	1.049927
608.757000	1.086398
608.952000	1.053572
609.147000	1.383901
609.342000	1.322996
609.537000	1.194477
609.732000	1.242658
609.927000	1.217868
610.122000	1.362641
610.318000	1.783968
610.513000	1.910030
610.708000	1.768278
610.903000	1.912701
611.098000	2.050225
611.293000	1.992584
611.488000	2.004496
611.683000	1.985463
611.878000	1.949520
612.073000	1.989747
612.268000	1.986463
612.463000	2.086137
612.658000	2.068217
612.854000	1.990429
613.049000	1.944370
613.244000	2.156894
613.439000	2.203941
613.634000	1.942449
613.829000	2.107172
614.024000	2.050755
614.219000	2.081946
614.414000	2.289706
614.609000	2.144008
614.804000	2.102750
614.999000	2.152865
615.194000	2.223279
615.389000	2.311363
615.585000	2.231563
615.780000	2.452433
615.975000	2.481179
616.170000	2.533094
616.365000	2.787355
616.560000	2.994921
616.755000	2.896071
616.950000	2.846129
617.145000	3.004086
617.340000	2.879518
617.535000	2.634215
617.730000	2.900248
617.925000	2.846275
618.120000	2.894614
618.316000	3.226505
618.511000	3.202073
618.706000	3.157522
618.901000	3.323369
619.096000	3.446482
619.291000	3.445901
619.486000	3.609040
619.681000	3.362588
619.876000	3.397785
620.071000	3.626526
620.266000	3.971122
620.461000	4.107556
620.656000	4.029935
620.852000	4.046969
621.047000	4.037977
621.242000	3.993157
621.437000	4.370172
621.632000	4.524864
621.827000	4.426458
622.022000	4.228859
622.217000	4.474994
622.412000	4.706500
622.607000	4.821601
622.802000	4.693560
622.997000	4.709921
623.192000	4.854691
623.387000	4.981733
623.583000	4.853622
623.778000	5.152126
623.973000	5.319974
624.168000	5.450318
624.363000	5.542688
624.558000	5.661505
624.753000	5.481386
624.948000	5.889870
625.143000	5.989742
625.338000	5.920166
625.533000	5.869431
625.728000	6.057380
625.923000	6.397565
626.119000	6.368992
626.314000	6.162130
626.509000	6.303274
626.704000	6.495571
626.899000	6.546628
627.094000	6.590083
627.289000	6.715402
627.484000	6.902046
627.679000	6.981626
627.874000	7.043387
628.069000	7.492706
628.264000	7.497175
628.459000	7.458409
628.654000	7.474727
628.850000	7.457376
629.045000	7.680188
629.240000	7.697458
629.435000	7.705722
629.630000	7.955820
629.825000	7.959086
630.020000	8.043200
630.215000	7.904385
630.410000	7.998324
630.605000	8.059601
630.800000	8.169586
630.995000	8.345380
631.190000	8.669163
631.385000	8.499643
631.581000	8.242250
631.776000	8.311541
631.971000	8.162688
632.166000	8.250211
632.361000	8.014028
632.556000	8.084287
632.751000	8.197508
632.946000	8.003511
633.141000	7.799982
633.336000	7.724698
633.531000	7.750324
633.726000	7.668469
633.921000	7.392950
634.117000	7.103250
634.312000	6.879463
634.507000	6.831383
634.702000	6.804416
634.897000	6.662543
635.092000	6.614208
635.287000	6.566121
635.482000	6.236585
635.677000	6.125430
635.872000	6.075494
636.067000	6.046174
636.262000	5.664215
636.457000	5.107348
636.652000	4.957982
636.848000	4.826300
637.043000	4.700397
637.238000	4.565479
637.433000	4.319962
637.628000	4.244265
637.823000	4.245837
638.018000	4.124901
638.213000	3.882805
638.408000	3.705267
638.603000	3.426728
638.798000	3.250034
638.993000	3.282686
639.188000	3.149852
639.383000	2.952343
639.579000	3.113361
639.774000	2.853425
639.969000	2.703213
640.164000	2.519706
640.359000	2.361018
640.554000	2.518081
640.749000	2.479260
640.944000	2.375730
641.139000	2.284124
641.334000	2.068545
641.529000	1.616156
641.724000	1.708217
641.919000	1.797281
642.115000	2.068227
642.310000	1.994149
642.505000	1.756119
642.700000	1.666893
642.895000	1.516522
643.090000	1.640556
643.285000	1.738269
643.480000	1.564205
643.675000	1.541333
643.870000	1.854774
644.065000	1.600776
644.260000	1.137752
644.455000	1.289821
644.650000	1.172960
644.846000	1.062688
645.041000	0.854416
645.236000	0.761622
645.431000	0.806792
645.626000	0.558649
645.821000	0.688572
646.016000	0.807368
646.211000	1.227739
646.406000	0.997578
646.601000	0.898187
646.796000	0.773041
646.991000	0.532072
647.186000	0.583547
647.381000	0.743794
647.577000	0.768214
647.772000	0.889764
647.967000	0.753924
648.162000	0.643581
648.357000	0.609731
648.552000	0.787963
648.747000	0.651511
648.942000	0.600306
649.137000	0.588197
649.332000	0.444393
649.527000	0.393377
649.722000	0.512799
649.917000	0.701161
650.113000	0.467775
650.308000	0.272548
650.503000	0.280393
650.698000	0.453512
650.893000	0.359598
651.088000	0.442094
651.283000	0.437026
651.478000	0.155529
651.673000	0.423532
651.868000	0.240217
652.063000	0.388922
652.258000	0.576917
652.453000	0.774662
652.648000	0.404846
652.844000	0.223598
653.039000	0.299745
653.234000	-0.059928
653.429000	-0.210880
653.624000	-0.022560
653.819000	0.265327
654.014000	0.233943
654.209000	0.062732
654.404000	0.162202
654.599000	0.087264
654.794000	0.109477
654.989000	0.284136
655.184000	0.190565
655.380000	-0.051300
655.575000	-0.013566
655.770000	-0.007458
655.965000	0.040571
656.160000	0.028323
656.355000	0.231750
656.550000	0.139149
656.745000	0.088964
656.940000	0.028446
657.135000	0.162937
657.330000	0.129108
657.525000	-0.096926
657.720000	0.163406
657.915000	0.279497
658.111000	0.078931
658.306000	0.193314
658.501000	0.094660
658.696000	-0.073572
658.891000	0.110151
659.086000	0.012074
659.281000	0.119589
659.476000	-0.095538
659.671000	-0.483646
659.866000	-0.261240
660.061000	0.085688
660.256000	0.227743
660.451000	0.109667
660.646000	-0.100045
660.842000	0.043372
661.037000	-0.102280
661.232000	-0.168071
661.427000	-0.067987
661.622000	-0.130696
661.817000	-0.191143
662.012000	-0.040039
662.207000	-0.169785
662.402000	-0.195383
662.597000	0.024873
662.792000	-0.309624
662.987000	-0.349181
663.182000	-0.023412
663.378000	0.000735
663.573000	-0.387924
663.768000	-0.415500
663.963000	-0.211818
664.158000	-0.160111
664.353000	0.065130
664.548000	0.247660
664.743000	0.096873
664.938000	-0.166157
665.133000	-0.207678
665.328000	0.126826
665.523000	0.104781
665.718000	-0.021553
665.913000	-0.077942
666.109000	-0.121810
666.304000	0.112608
666.499000	0.013521
666.694000	-0.073992
666.889000	0.199320
667.084000	0.022173
667.279000	-0.038861
667.474000	-0.082799
667.669000	-0.053865
667.864000	-0.050713
668.059000	0.022227
668.254000	-0.059456
668.449000	-0.208061
668.644000	-0.082201
668.840000	0.195497
669.035000	-0.138239
669.230000	-0.437101
669.425000	-0.025207
669.620000	-0.142038
669.815000	-0.283693
670.010000	-0.282346
670.205000	-0.085002
670.400000	-0.021998
670.595000	-0.065544
670.790000	-0.175562
670.985000	-0.074417
671.180000	0.134928
671.376000	-0.238327
671.571000	-0.352648
671.766000	-0.273406
671.961000	-0.297647
672.156000	-0.296919
672.351000	-0.221175
672.546000	-0.188610
672.741000	-0.016809
672.936000	-0.037733
673.131000	0.358166
673.326000	0.080416
673.521000	-0.230608
673.716000	-0.343525
673.911000	-0.476713
674.107000	0.111771
674.302000	0.393970
674.497000	-0.004782
674.692000	-0.315249
674.887000	-0.271661
675.082000	-0.093151
675.277000	-0.037290
675.472000	-0.090040
675.667000	-0.172158
675.862000	-0.236290
676.057000	-0.164491
676.252000	-0.128784
676.447000	-0.181055
676.643000	0.032389
676.838000	0.239367
677.033000	-0.093187
677.228000	0.184684
677.423000	0.199562
677.618000	-0.215591
677.813000	-0.389612
678.008000	-0.098544
678.203000	0.031664
678.398000	-0.219071
678.593000	-0.197380
678.788000	-0.030226
678.983000	-0.209257
679.178000	-0.132416
679.374000	-0.238420
679.569000	-0.075265
679.764000	-0.149473
679.959000	-0.381588
680.154000	-0.433822
680.349000	-0.533020
680.544000	-0.401059
680.739000	-0.303655
680.934000	-0.401675
681.129000	-0.353805
681.324000	-0.396288
681.519000	-0.248740
681.714000	-0.303913
681.909000	-0.290667
682.105000	-0.408877
682.300000	-0.154735
682.495000	-0.062781
682.690000	0.043326
682.885000	0.025639
683.080000	-0.249159
683.275000	-0.257582
683.470000	0.138501
683.665000	0.350523
683.860000	0.220065
684.055000	-0.042083
684.250000	-0.227089
684.445000	-0.201708
684.641000	0.055807
684.836000	-0.195469
685.031000	-0.134908
685.226000	-0.099002
685.421000	0.009289
685.616000	-0.198199
685.811000	-0.220441
686.006000	0.112085
686.201000	-0.022156
686.396000	-0.431818
686.591000	-0.329172
686.786000	0.137464
686.981000	-0.073557
687.176000	-0.116534
687.372000	-0.124011
687.567000	0.245806
687.762000	0.042616
687.957000	-0.214053
688.152000	-0.228047
688.347000	-0.079276
688.542000	-0.374870
688.737000	-0.708269
688.932000	-0.734223
689.127000	-0.291595
689.322000	-0.119680
689.517000	-0.312244
689.712000	-0.391904
689.908000	-0.228790
690.103000	-0.289263
690.298000	-0.228021
690.493000	-0.173439
690.688000	-0.389621
690.883000	-0.266227
691.078000	0.018527
691.273000	0.124412
691.468000	-0.042057
691.663000	-0.108141
691.858000	-0.027008
692.053000	0.005959
692.248000	0.104965
692.443000	-0.009265
692.639000	-0.179707
692.834000	0.082491
693.029000	0.650096
693.224000	0.390474
693.419000	-0.215877
693.614000	-0.211145
693.809000	-0.301324
694.004000	-0.412702
694.199000	-0.398425
694.394000	-0.077939
694.589000	-0.380792
694.784000	-0.416150
694.979000	-0.183019
695.174000	-0.171795
695.370000	0.362585
695.565000	0.041194
695.760000	-0.258278
695.955000	0.157588
696.150000	0.273873
696.345000	-0.219345
696.540000	-0.060810
696.740000	-0.138203
696.940000	0.083668
697.140000	0.126346
697.340000	-0.137939
697.539000	0.047239
697.739000	-0.067909
697.939000	-0.134189
698.139000	-0.460537
698.339000	-0.724477
698.539000	-0.435395
698.739000	-0.445902
698.939000	-0.391584
699.138000	-0.440540
699.338000	0.269734
699.538000	0.269420
699.738000	-0.206393
699.938000	-0.185007
700.138000	-0.260907
700.338000	-0.378074
700.538000	-0.212101
700.737000	-0.122498
700.937000	-0.510316
701.137000	-0.631662
701.337000	-0.249592
701.537000	-0.018150
701.737000	-0.123073
701.937000	-0.280445
702.137000	-0.205324
702.337000	-0.315139
702.536000	-0.439188
702.736000	-0.449327
702.936000	-0.594350
703.136000	0.023028
703.336000	0.031294
703.536000	-0.292108
703.736000	-0.629743
703.936000	-0.463825
704.135000	-0.417966
704.335000	-0.119654
704.535000	-0.386914
704.735000	-0.525089
704.935000	0.042635
705.135000	-0.096709
705.335000	-0.321060
705.535000	-0.046656
705.735000	0.019192
705.934000	-0.104030
706.134000	-0.357575
706.334000	-0.309285
706.534000	-0.339255
706.734000	-0.332489
706.934000	-0.407041
707.134000	-0.391666
707.334000	-0.111840
707.533000	-0.160087
707.733000	-0.248923
707.933000	-0.311359
708.133000	0.006635
708.333000	0.081875
708.533000	-0.196607
708.733000	0.109020
708.933000	-0.095743
709.132000	-0.286933
709.332000	-0.307408
709.532000	-0.348154
709.732000	-0.124741
709.932000	-0.589105
710.132000	-0.601618
710.332000	-0.780186
710.532000	-0.241017
710.732000	-0.063615
710.931000	-0.303651
711.131000	-0.255787
711.331000	-0.074066
711.531000	-0.299805
711.731000	-0.299110
711.931000	-0.186328
712.131000	-0.206412
712.331000	-0.165850
712.530000	-0.268545
712.730000	-0.433448
712.930000	-0.241563
713.130000	-0.261359
713.330000	-0.368223
713.530000	-0.152782
713.730000	0.462661
713.930000	0.030326
714.129000	-0.385343
714.329000	-0.511377
714.529000	-0.219037
714.729000	0.012790
714.929000	-0.104822
715.129000	-0.327358
715.329000	-0.165526
715.529000	-0.213564
715.729000	0.197504
715.928000	0.036579
716.128000	-0.150111
716.328000	-0.123804
716.528000	-0.231077
716.728000	-0.094209
716.928000	-0.292182
717.128000	-0.206312
717.328000	-0.204787
717.527000	-0.314049
717.727000	-0.254564
717.927000	-0.223891
718.127000	-0.351558
718.327000	-0.735506
718.527000	-0.605928
718.727000	-0.215497
718.927000	-0.357502
719.127000	-0.582804
719.326000	-0.322835
719.526000	-0.038183
719.726000	-0.206140
719.926000	-0.621337
720.126000	-0.525785
720.326000	-0.351129
720.526000	-0.422557
720.726000	-0.253264
720.925000	0.037641
721.125000	-0.460854
721.325000	-0.302943
721.525000	-0.224044
721.725000	-0.374162
721.925000	-0.407470
722.125000	-0.401359
722.325000	0.153124
722.524000	-0.152973
722.724000	-0.639026
722.924000	-0.723815
723.124000	-0.432852
723.324000	-0.017468
723.524000	-0.003559
723.724000	-0.531646
723.924000	-0.342388
724.124000	-0.145056
724.323000	-0.153028
724.523000	-0.263327
724.723000	0.315955
724.923000	0.130504
725.123000	-0.066023
725.323000	-0.061450
725.523000	-0.191596
725.723000	-0.341631
725.922000	-0.334183
726.122000	-0.295346
726.322000	-0.360624
726.522000	-0.346809
726.722000	0.018398
726.922000	-0.223606
727.122000	-0.199155
727.322000	0.196883
727.521000	-0.032129
727.721000	-0.349189
727.921000	-0.227150
728.121000	-0.185890
728.321000	-0.521228
728.521000	-0.372940
728.721000	-0.167893
728.921000	0.171659
729.121000	0.641311
729.320000	0.066647
729.520000	-0.254626
729.720000	-0.427959
729.920000	-0.404258
730.120000	-0.209077
730.320000	-0.100211
730.520000	-0.396340
730.720000	-0.470230
730.919000	-0.483054
731.119000	-0.071629
731.319000	-0.481489
731.519000	-0.619066
731.719000	-0.275979
731.919000	-0.394490
732.119000	-0.828779
732.319000	-0.854190
732.519000	-0.393336
732.718000	-0.623993
732.918000	-0.449733
733.118000	-0.306739
733.318000	-0.023486
733.518000	-0.263298
733.718000	-0.753819
733.918000	-0.714760
734.118000	-0.515442
734.317000	-0.178901
734.517000	-0.381556
734.717000	-0.360188
734.917000	-0.053660
735.117000	-0.057044
735.317000	-0.038740
735.517000	-0.000500
735.717000	0.133267
735.916000	-0.371767
736.116000	-0.421571
736.316000	-0.360286
736.516000	-0.340005
736.716000	-0.259463
736.916000	-0.660673
737.116000	-0.512891
737.316000	0.053774
737.516000	0.111671
737.715000	0.115143
737.915000	-0.509277
738.115000	-0.616726
738.315000	-0.277245
738.515000	-0.576073
738.715000	-0.512457
738.915000	-0.034921
739.115000	-0.315840
739.314000	-0.284567
739.514000	0.030580
739.714000	0.044514
739.914000	-0.003995
740.114000	-0.131051
740.314000	-0.002264
740.514000	0.255896
740.714000	-0.375079
740.913000	-0.682367
741.113000	-0.588635
741.313000	-0.267371
741.513000	-0.255800
741.713000	-0.125860
741.913000	-0.069701
742.113000	-0.227202
742.313000	-0.752983
742.513000	-0.385990
742.712000	-0.331997
742.912000	-0.604811
743.112000	-0.397595
743.312000	-0.679525
743.512000	-0.618214
743.712000	-0.423852
743.912000	-0.846728
744.112000	-0.915875
744.311000	-0.959987
744.511000	-0.609895
744.711000	-0.135082
744.911000	-0.390169
745.111000	-0.472686
745.311000	-0.117440
745.511000	-0.388288
745.711000	-0.480188
745.911000	-0.264511
746.110000	-0.651597
746.310000	-0.740302
746.510000	-0.508606
746.710000	-0.211366
746.910000	-0.044976
747.110000	-0.501094
747.310000	-0.793533
747.510000	-0.615732
747.709000	-0.379291
747.909000	-0.284870
748.109000	0.072631
748.309000	-0.207431
748.509000	-0.575051
748.709000	-0.603650
748.909000	-0.331309
749.109000	-0.366924
749.308000	-0.266588
749.508000	-0.378179
749.708000	-0.244764
749.908000	0.001336
750.108000	-0.065645
750.308000	-0.741898
750.508000	0.113023
750.708000	-0.408907
750.908000	-0.863398
751.107000	-0.219371
751.307000	0.401671
751.507000	-0.142355
751.707000	-0.260492
751.907000	-0.247521
752.107000	-0.045458
752.307000	-0.589806
752.507000	-0.399009
752.706000	-0.463462
752.906000	0.539921
753.106000	-0.320106
753.306000	-0.924490
753.506000	0.084706
753.706000	-0.245086
753.906000	-0.147710
754.106000	-0.086196
754.305000	-0.056409
754.505000	0.011391
754.705000	-0.293972
754.905000	-0.348741
755.105000	-0.010681
755.305000	-0.785665
755.505000	-0.569340
755.705000	-0.286343
755.905000	-0.352247
756.104000	-0.767556
756.304000	-1.112305
756.504000	-1.327176
756.704000	-0.230735
756.904000	0.015812
757.104000	-0.437384
757.304000	-0.454223
757.504000	0.152196
757.703000	-0.213282
757.903000	0.013867
758.103000	0.208842
758.303000	-0.123328
758.503000	-0.280046
758.703000	-0.504339
758.903000	-0.686484
759.103000	-0.174664
759.303000	-0.124938
759.502000	-0.311322
759.702000	-0.192891
759.902000	-0.440203
760.102000	-0.270970
760.302000	-0.333819
760.502000	-0.058132
760.702000	0.024950
760.902000	-0.218611
761.101000	-0.570710
761.301000	-0.859390
761.501000	-0.535385
761.701000	-0.581651
761.901000	-0.424612
762.101000	-0.236930
762.301000	-0.297630
762.501000	-0.516995
762.700000	-0.669762
762.900000	-0.746311
763.100000	-0.325887
763.300000	0.016876
763.500000	-0.294635
763.703000	-0.453267
763.905000	-0.764462
764.108000	0.034582
764.311000	-0.309073
764.513000	-0.560885
764.716000	-0.239834
764.919000	-0.164760
765.121000	-0.710540
765.324000	-0.941854
765.527000	-0.758980
765.729000	-0.510668
765.932000	0.077745
766.135000	-0.070107
766.337000	-0.238216
766.540000	-0.369403
766.743000	-0.159234
766.945000	-0.665286
767.148000	-1.002115
767.351000	-0.852460
767.553000	-0.339486
767.756000	-0.628933
767.958000	-0.849644
768.161000	-0.387945
768.364000	-0.684320
768.566000	-0.942455
768.769000	-0.308763
768.972000	-0.048963
769.174000	-0.528705
769.377000	-1.064368
769.580000	-1.048098
769.782000	-0.287785
769.985000	-0.755556
770.188000	-1.688618
770.390000	-0.812572
770.593000	0.768095
770.796000	0.317335
770.998000	-0.274467
771.201000	-0.619079
771.404000	-0.181318
771.606000	-0.495246
771.809000	-0.591606
772.012000	-0.408766
772.214000	-1.079491
772.417000	-1.204731
772.620000	-0.320786
772.822000	-0.574679
773.025000	-0.724232
773.228000	-0.825403
773.430000	-0.802973
773.633000	-0.379947
773.836000	-0.203727
774.038000	-0.209292
774.241000	-0.398578
774.444000	-0.481542
774.646000	0.448484
774.849000	0.018538
775.052000	-0.340134
775.254000	-0.109262
775.457000	-0.465806
775.659000	-0.459676
775.862000	-0.631328
776.065000	-0.308077
776.267000	0.333818
776.470000	0.556901
776.673000	-0.251717
776.875000	0.316974
777.078000	0.194470
777.281000	-0.720826
777.483000	-0.071993
777.686000	0.142039
777.889000	0.080584
778.091000	0.006677
778.294000	-0.939076
778.497000	-0.678200
778.699000	-0.530275
778.902000	-0.546984
779.105000	-0.432800
779.307000	0.496578
779.510000	-0.416941
779.713000	-0.446084
779.915000	-0.670959
780.118000	0.627395
780.321000	0.718729
780.523000	-0.293253
780.726000	-0.684375
780.929000	-0.790038
781.131000	-0.672559
781.334000	-1.197255
781.537000	-1.195521
781.739000	-0.049106
781.942000	-0.578801
782.145000	-1.155141
782.347000	-1.094402
782.550000	-0.751683
782.753000	-0.792722
782.955000	-0.748468
783.158000	-0.662995
783.361000	-0.385657
783.563000	-0.411555
783.766000	-0.568035
783.968000	1.156235
784.171000	1.020810
784.374000	-0.217108
784.576000	-0.305633
784.779000	-0.143861
784.982000	0.276559
785.184000	-0.253331
785.387000	-0.245814
785.590000	0.091374
785.792000	0.382477
785.995000	0.446597
786.198000	0.012463
786.400000	-0.432171
786.603000	-0.353182
786.806000	-0.413301
787.008000	-0.336090
787.211000	-0.302584
787.414000	-0.844936
787.616000	-0.476922
787.819000	-0.472653
788.022000	-1.153664
788.224000	-0.504241
788.427000	-1.119275
788.630000	-0.579673
788.832000	-0.215276
789.035000	-0.792243
789.238000	-1.313114
789.440000	-0.978463
789.643000	0.031974
789.846000	-0.496871
790.048000	-0.036538
790.251000	0.034898
790.454000	-0.382017
790.656000	0.357002
790.859000	-0.367761
791.062000	-0.752570
791.264000	-0.166517
791.467000	-0.952025
791.669000	-1.447759
791.872000	-0.709772
792.075000	-1.035133
792.277000	-0.622630
792.480000	-0.306419
792.683000	-0.817215
792.885000	-1.095059
793.088000	-0.849094
793.291000	-1.014534
793.493000	-1.106653
793.696000	-0.517280
793.899000	-0.063105
794.101000	-0.256126
794.304000	-0.498342
794.507000	-0.348190
794.709000	-0.072229
794.912000	-0.459484
795.115000	-0.839461
795.317000	-0.684189
795.520000	-0.367093
795.723000	-0.467013
795.925000	-0.937421
796.128000	-1.301090
796.331000	-0.846324
796.533000	-1.104616
796.736000	-0.381372
796.939000	-0.253194
797.141000	-0.453893
797.344000	0.234671
797.547000	-0.042124
797.749000	-0.077583
797.952000	-0.448591
798.155000	-0.894336
798.357000	-1.176513
798.560000	-0.946703
798.763000	-0.165346
798.965000	-0.380263
799.168000	-0.492219
799.371000	-0.312833
799.573000	-0.572681
799.776000	-1.167271
799.978000	-1.210640
800.181000	-0.543301
800.384000	1.043063
800.586000	0.510133
800.789000	-1.095537
800.992000	-1.106950
801.194000	-1.164209
801.397000	-1.127528
801.600000	-0.990460
801.802000	-0.218760
802.005000	-0.253314
802.208000	-1.318958
802.410000	-0.519050
802.613000	-0.292112
802.816000	-0.342074
803.018000	-1.008431
803.221000	-0.941775
803.424000	0.130181
803.626000	-0.063472
803.829000	-0.352247
804.032000	0.146869
804.234000	0.637284
804.437000	-0.430371
804.640000	-0.347984
804.842000	-0.456291
805.045000	-0.963836
805.248000	-0.653629
805.450000	-0.532126
805.653000	-0.551503
805.856000	-0.806689
806.058000	0.229953
806.261000	-0.672841
806.464000	-0.914859
806.666000	-0.581113
806.869000	-0.649710
807.072000	-1.710211
807.274000	-2.003426
807.477000	-0.921951
807.679000	-0.427649
807.882000	-0.954219
808.085000	-0.806186
808.287000	-0.168766
808.490000	-0.989816
808.693000	-0.706851
808.895000	-0.625092
809.098000	-0.651824
809.301000	-0.521414
809.503000	-0.533663
809.706000	0.236655
809.909000	0.407301
810.111000	0.391116
810.314000	-0.105140
810.517000	-0.831355
810.719000	-1.044798
810.922000	-0.613033
811.125000	0.380255
811.327000	0.345103
811.530000	-0.219057
811.735000	-0.569096
811.940000	-0.751060
812.146000	-0.634394
812.351000	-0.309176
812.556000	-0.478477
812.761000	-1.096788
812.967000	-0.409393
813.172000	-0.246484
813.377000	-0.285392
813.582000	0.441222
813.788000	-0.078194
813.993000	-1.102812
814.198000	-0.200612
814.403000	-0.973811
814.609000	-0.522188
814.814000	-0.591746
815.019000	0.690932
815.224000	0.577656
815.429000	-0.718610
815.635000	-0.293264
815.840000	-0.304284
816.045000	-0.165915
816.250000	-0.008255
816.456000	-1.223513
816.661000	-1.937054
816.866000	-1.365760
817.071000	-1.299784
817.277000	-1.938038
817.482000	-0.949357
817.687000	-0.256233
817.892000	-0.352986
818.097000	-0.122439
818.303000	0.362900
818.508000	1.103457
818.713000	7.915746
818.918000	3.956476
819.124000	0.697129
819.329000	-0.438901
819.534000	-0.704408
819.739000	-0.987295
819.945000	-0.902217
820.150000	-0.369631
820.355000	-0.479608
820.560000	-0.211542
820.766000	-0.249754
820.971000	-0.236040
821.176000	-1.641858
821.381000	-2.246829
821.586000	-1.197389
821.792000	0.262642
821.997000	-0.437380
822.202000	-0.862979
822.407000	-1.284372
822.613000	-1.229318
822.818000	-0.746156
823.023000	-0.476530
823.228000	-0.553513
823.434000	0.232034
823.639000	0.197477
823.844000	-0.829090
824.049000	0.209868
824.255000	0.418351
824.460000	-0.501449
824.665000	-1.046501
824.870000	0.184837
825.075000	0.185070
825.281000	0.261151
825.486000	0.698534
825.691000	-1.490885
825.896000	-2.300287
826.102000	-0.944696
826.307000	-0.641124
826.512000	-0.736434
826.717000	-0.523942
826.923000	-0.773325
827.128000	-0.530663
827.333000	-1.202221
827.538000	-0.239864
827.744000	0.101870
827.949000	-0.948025
828.154000	-0.398023
828.359000	0.477966
828.564000	-0.233747
828.770000	-0.730822
828.975000	0.575370
829.180000	0.271715
829.385000	-1.382406
829.591000	-1.080476
829.796000	-0.450365
830.001000	-0.451225
830.206000	-1.185065
830.412000	-0.864815
830.617000	-0.743243
830.822000	0.362976
831.027000	-0.535769
831.232000	-1.085353
831.438000	-0.880740
831.643000	-0.300197
831.848000	-0.661358
832.053000	-0.485162
832.259000	-0.616696
832.464000	-2.277194
832.669000	-1.837388
832.874000	-1.369552
833.080000	-1.340369
833.285000	0.422220
833.490000	-0.027815
833.695000	-1.263464
833.901000	-0.876485
834.106000	-1.231098
834.311000	-1.021793
834.516000	-0.406552
834.721000	-0.612590
834.927000	0.375983
835.132000	-0.333901
835.337000	0.778742
835.542000	-0.088571
835.748000	-1.430421
835.953000	-0.396645
836.158000	-0.236359
836.363000	-0.061524
836.569000	0.143115
836.774000	-0.996097
836.979000	-1.450843
837.184000	-1.805887
837.390000	-1.334936
837.595000	-0.839454
837.800000	-0.539371
838.005000	-0.181841
838.210000	-0.471662
838.416000	-0.907402
838.621000	-0.780754
838.826000	-0.851949
839.031000	-0.625793
839.237000	-1.259488
839.442000	-1.978761
839.647000	-2.087105
839.852000	-1.367110
840.058000	-1.245234
840.263000	-1.069996
840.468000	-1.831568
840.673000	-0.639371
840.878000	-0.679267
841.084000	-1.622071
841.289000	-0.680081
841.494000	2.073421
841.699000	1.770016
841.905000	0.063722
842.110000	0.588700
842.315000	-1.108627
842.520000	-1.036811
842.726000	-1.211407
842.931000	-1.432985
843.136000	-0.327594
843.341000	-1.946861
843.547000	-1.097701
843.752000	-0.729733
843.957000	-1.330274
844.162000	-1.367755
844.367000	-1.084407
844.573000	-0.278674
844.778000	0.019294
844.983000	-0.294302
845.188000	-0.206490
845.394000	-1.539068
845.599000	-1.143932
845.804000	-0.930260
846.009000	-0.418385
846.215000	-1.477842
846.420000	-1.018926
846.625000	-0.374229
846.830000	-0.119990
847.036000	-0.893741
847.241000	-1.185307
847.446000	-0.647686
847.651000	-0.786710
847.856000	-1.475995
848.062000	-1.574173
848.267000	-0.200348
848.472000	-1.125952
848.677000	-2.206543
848.883000	-0.450578
849.088000	0.989218
849.293000	-0.586204
849.498000	-1.023286
849.704000	0.262871
849.909000	-0.492679
850.114000	-1.689157
850.319000	-0.278856
850.524000	-0.388451
850.730000	-0.916866
850.935000	-0.886093
851.140000	0.487686
851.345000	0.383991
851.551000	-0.382837
851.756000	-0.129460
851.961000	-0.857407
852.166000	-0.840380
852.372000	-0.784170
852.577000	-0.854598
852.782000	-0.872932
852.987000	0.624618
853.193000	-0.126323
853.398000	-0.233144
853.603000	-1.363342
853.808000	-1.929193
854.013000	-1.241029
854.219000	-0.259692
854.424000	1.822489
854.629000	1.959262
854.834000	-0.767190
855.040000	-0.405309
855.245000	0.321092
855.450000	-2.152047
855.655000	-3.212047
855.861000	-2.876223
856.066000	-1.741730
856.271000	-1.825156
856.476000	-0.257012
856.682000	-1.013888
856.887000	-3.366041
857.092000	-1.759411
857.297000	0.368621
857.502000	-0.234695
857.708000	-0.670154
857.913000	0.484384
858.118000	-0.231359
858.323000	-0.532474
858.529000	-0.531651
858.734000	-0.936280
858.939000	-0.945458
859.144000	-1.702174
859.350000	-2.462478
859.555000	-2.244030
859.760000	-0.671098
859.965000	0.075988
860.171000	-1.280422
860.376000	0.214185
860.581000	-1.696396
860.786000	-4.110743
860.991000	-3.194701
861.197000	-1.815824
861.402000	-0.705708
861.607000	-1.536542
861.812000	-2.337082
862.018000	-2.178616
862.223000	-1.323856
862.428000	-0.879449
862.633000	0.531420
862.839000	0.004756
863.044000	-1.166833
863.249000	-2.133958
863.454000	0.018468
863.659000	-0.633232
863.865000	-1.463744
864.070000	-1.640403
864.275000	-2.030911
864.480000	-1.775874
864.686000	-3.381251
864.891000	-2.657363
865.096000	-0.233753
865.301000	0.370626
865.507000	-0.129456
865.712000	0.075688
865.917000	-0.728286
866.122000	0.226290
866.328000	-2.687085
866.533000	-2.678036
866.738000	0.680239
866.943000	0.544907
867.148000	0.490060
867.354000	-1.650976
867.559000	-2.979623
867.764000	-1.197527
867.969000	-0.599221
868.175000	-1.845952
868.380000	-1.948255
868.585000	-2.607700
868.790000	-1.120597
868.996000	-1.120548
869.201000	-2.386748
869.406000	-3.455554
869.611000	-2.505684
869.817000	-2.014784
870.022000	2.620921
870.227000	0.481342
870.432000	-1.946237
870.637000	-0.663678
870.843000	-0.996332
871.048000	-0.874411
871.253000	0.058940
871.458000	-0.779343
871.664000	-2.619228
871.869000	-2.619128
872.074000	-1.916168
872.279000	-0.993929
872.485000	-1.542541
872.690000	-1.565014
872.895000	-1.872623
873.100000	-2.763460
873.306000	-2.344945
873.511000	-0.884980
873.716000	0.375514
873.921000	-1.373824
874.126000	-1.641091
874.332000	-0.821735
874.537000	0.250267
874.742000	-0.343718
874.947000	-1.095912
875.153000	1.068304
875.358000	-0.266670
875.563000	-1.041772
875.768000	-3.423367
875.974000	-3.437434
876.179000	-0.319164
876.384000	-0.429574
876.589000	-1.827656
876.794000	-1.296803
877.000000	-2.466212
877.205000	-3.469291
877.410000	-0.486886
877.615000	-2.208063
877.821000	-4.230216
878.026000	-3.170583
878.231000	-3.443793
878.436000	-3.218059
878.642000	-2.610031
878.847000	-1.568812
879.052000	-0.011233
879.257000	-1.562764
879.463000	-2.647187
879.668000	-2.019388
879.873000	0.225269
880.078000	-2.102686
880.283000	-3.936828
880.489000	-4.033772
880.694000	-3.378002
880.899000	-1.234466
881.104000	-0.361178
881.310000	0.678425
881.515000	0.015218
881.720000	1.666333
881.925000	1.937422
882.131000	1.892421
882.336000	0.133680
882.541000	-2.504895
882.746000	-2.821200
882.952000	-3.001917
883.157000	-2.096282
883.362000	-2.044082
883.567000	-3.008002
883.772000	-3.269968
883.978000	-2.514437
884.183000	-0.557007
884.388000	-1.324133
884.593000	-3.509010
884.799000	0.985939
885.004000	0.770670
885.209000	-1.063350
885.414000	-0.450351
885.620000	-3.340209
885.825000	-0.447209
886.030000	-0.995819
886.235000	-2.408329
886.440000	-1.313459
886.646000	-3.790580
886.851000	-3.918125
887.056000	-0.111796
887.261000	-0.369322
887.467000	-2.965609
887.672000	-0.533503
887.877000	-2.015118
888.082000	-4.319371
888.288000	-4.525186
888.493000	-6.512451
888.698000	-4.719089
888.903000	-1.361256
889.109000	-2.367329
889.314000	-0.115222
889.519000	-1.658777
889.724000	0.841262
889.929000	-0.328954
890.135000	-1.841176
890.340000	-1.659445
890.545000	-2.481350
890.750000	-3.836910
890.956000	-2.877698
891.161000	-0.694895
891.366000	-2.353582
891.571000	-0.968344
891.777000	-1.353622
891.982000	-0.170160
892.187000	-0.024113
892.392000	1.115981
892.598000	-0.371312
892.803000	-0.671724
893.008000	-2.017414
893.213000	-1.969793
893.418000	-2.196631
893.624000	-2.785516
893.829000	-5.056352
894.034000	-2.127487
894.239000	-0.801058
894.445000	-3.391504
894.650000	-2.695096
894.855000	-2.178898
895.060000	-2.715565
895.266000	-2.722042
895.471000	-4.062077
895.676000	-0.942355
895.881000	-0.487899
896.087000	-1.942059
896.292000	-3.052336
896.497000	1.133116
896.702000	-0.769029
896.907000	-2.870802
897.113000	1.748031
897.318000	2.048188
897.523000	0.566777
897.728000	-1.720342
897.934000	-1.457522
898.139000	-1.562492
898.344000	-0.082652
898.549000	-1.426745
898.755000	-2.238360
898.960000	-2.401334
899.165000	-4.732512
899.370000	-1.859273
899.575000	2.007315
899.781000	-2.031557
899.986000	-2.970422
900.191000	-1.531439
900.396000	-2.000305
900.602000	-1.049034
900.807000	-1.730777
901.012000	-2.194530
901.217000	-0.158761
901.423000	-1.930724
901.628000	-3.572398
901.833000	0.128350
902.038000	0.588712
902.244000	-2.619628
902.449000	-2.089368
902.654000	-2.331964
902.859000	-1.189537
903.064000	1.089596
903.270000	0.772981
903.475000	-3.754359
903.680000	-5.537668
903.885000	-4.289783
904.091000	-3.500183
904.296000	-4.792863
904.501000	-3.628735
904.706000	-2.794391
904.912000	0.659872
905.117000	-1.772586
905.322000	-3.918943
905.527000	-3.347742
905.733000	-2.719334
905.938000	-2.917654
906.143000	-3.345885
906.348000	-5.014329
906.553000	-1.708092
906.759000	-0.188789
906.964000	-0.335670
907.169000	-1.391603
907.374000	-4.503619
907.580000	-3.497081
907.785000	-2.822187
907.990000	10.658565
908.195000	7.523208
908.401000	-0.334386
908.606000	-7.102199
908.811000	-8.657095
909.016000	-2.516524
909.221000	-1.693611
909.427000	-1.856449
909.632000	-3.685087
909.837000	-4.064444
910.042000	-4.629551
910.248000	-6.007090
910.453000	-1.709225
910.658000	-3.252506
910.863000	-4.229763
911.069000	-4.997816
911.274000	-0.208496
911.479000	1.433245
911.684000	-5.456750
911.890000	-2.277956
912.095000	-2.162514
912.300000	-5.289270
912.506000	-4.517535
912.711000	-4.347626
912.917000	-1.513896
913.123000	-0.986498
913.328000	-1.828621
913.534000	-1.078398
913.740000	8.970388
913.946000	4.482015
914.151000	-3.262501
914.357000	-4.486075
914.563000	-0.377585
914.768000	-4.405294
914.974000	-5.955408
915.180000	-4.830805
915.385000	-3.053211
915.591000	-6.220533
915.797000	-1.239088
916.002000	1.629811
916.208000	-1.778704
916.414000	-4.562228
916.620000	-5.726110
916.825000	-1.906964
917.031000	-2.007727
917.237000	-7.914652
917.442000	-4.220929
917.648000	-4.880399
917.854000	-5.520024
918.059000	-0.175444
918.265000	0.505257
918.471000	-2.296285
918.676000	-5.465919
918.882000	-7.311057
919.088000	-5.808319
919.294000	-10.050151
919.499000	-5.610622
919.705000	-1.125389
919.911000	-3.543133
920.116000	-0.418371
920.322000	-5.956016
920.528000	-4.374436
920.733000	-6.659682
920.939000	-6.890178
921.145000	-5.585477
921.350000	-5.526536
921.556000	-4.011156
921.762000	-3.832264
921.968000	-3.843200
922.173000	-5.876337
922.379000	-8.031187
922.585000	-2.757465
922.790000	-3.899677
922.996000	-5.697892
923.202000	-6.553220
923.407000	-6.158977
923.613000	-3.690846
923.819000	-2.372820
924.024000	-3.267448
924.230000	-0.602712
924.436000	-2.808432
924.642000	3.702655
924.847000	1.017687
925.053000	-4.035805
925.259000	-7.933076
925.464000	-3.861512
925.670000	-4.744185
925.876000	-5.672692
926.081000	-5.535556
926.287000	-2.420080
926.493000	-2.355969
926.698000	-2.937570
926.904000	0.078677
927.110000	-3.129588
927.316000	-2.970935
927.521000	4.398744
927.727000	-1.856882
927.933000	-4.187810
928.138000	-3.561773
928.344000	-9.492184
928.550000	-3.968615
928.755000	0.084246
928.961000	-5.233316
929.167000	-4.373584
929.372000	3.688572
929.578000	1.197604
929.784000	-5.560501
929.990000	-7.930224
930.195000	-4.120152
930.401000	-3.795642
930.607000	-3.140199
930.812000	-1.613008
931.018000	-4.868717
931.224000	-11.372699
931.429000	-7.847075
931.635000	-10.836975
931.841000	-10.029643
932.046000	-5.628189
932.252000	-2.795837
932.458000	5.142303
932.664000	2.202521
932.869000	-4.839425
933.075000	-8.124050
933.281000	-6.188195
933.486000	1.386577
933.692000	-3.205881
933.898000	-7.905385
934.103000	-0.621026
934.309000	-3.790837
934.515000	-2.082863
934.720000	-0.924271
934.926000	3.742086
935.132000	3.521010
935.338000	-1.395915
935.543000	-8.912100
935.749000	-9.575498
935.955000	-10.871875
936.160000	-9.289087
936.366000	-2.380975
936.572000	-1.913897
936.777000	-0.410361
936.983000	1.011301
937.189000	-2.970419
937.394000	-7.685944
937.600000	1.989914
937.806000	4.593834
938.012000	-3.516827
938.217000	7.023885
938.423000	4.932351
938.629000	-5.183509
938.834000	-11.991181
939.040000	-10.657084
939.246000	-5.082957
939.451000	-8.708524
939.657000	-4.713752
939.863000	-7.761571
940.068000	0.555982
940.274000	-4.788471
940.480000	-3.804422
940.686000	-1.114716
940.891000	-3.476534
941.097000	7.703173
941.303000	0.323839
941.508000	-4.242017
941.714000	-0.914754
941.920000	-11.719659
942.125000	-2.694700
942.331000	-0.396652
942.537000	5.452725
942.742000	1.348849
942.948000	-9.031208
943.154000	-10.107435
943.360000	-20.007047
943.565000	-7.149300
943.771000	1.108817
943.977000	6.030978
944.182000	-10.727628
944.388000	-13.125944
944.594000	0.876532
944.799000	9.698856
945.005000	1.833472
945.211000	2.522972
945.416000	-0.257415
945.622000	-10.089263
945.828000	-7.465371
946.034000	0.408198
946.239000	-1.705382
946.445000	-6.303799
946.651000	-15.397236
946.856000	-13.025210
947.062000	-2.182061
947.268000	1.499919
947.473000	-10.685523
947.679000	-15.207002
947.885000	-2.737499
948.090000	2.257423
948.296000	14.797298
948.502000	2.734809
948.708000	-7.981570
948.913000	-9.610137
949.119000	3.491323
949.325000	-3.213003
949.530000	-17.645813
949.736000	-20.076603
949.942000	-8.764633
950.147000	-10.363420
950.353000	-8.492564
950.559000	-4.538407
950.764000	16.017282
950.970000	8.078722
951.176000	-6.991552
951.382000	-11.523420
951.587000	1.457825
951.793000	3.133979
951.999000	-0.150592
952.204000	-9.644568
952.410000	-20.976002
952.616000	-9.982666
952.821000	-6.581242
953.027000	-12.897529
953.233000	-13.640927
953.438000	-13.458144
953.644000	-0.622756
953.850000	-3.996736
954.056000	-6.169814
954.261000	-6.779898
954.467000	-1.112732
954.673000	6.895943
954.878000	-1.592426
955.084000	-2.073190
955.290000	-16.984091
955.495000	-17.226586
955.701000	-14.007027
955.907000	-0.063655
956.112000	-1.287920
956.318000	9.595346
956.524000	8.576725
956.730000	-4.851983
956.935000	-7.267480
957.141000	-11.390990
957.347000	-0.065531
957.552000	-6.108179
957.758000	-18.710012
957.964000	-26.942690
958.169000	4.434641
958.375000	5.269300
958.581000	-8.058564
958.786000	-20.990839
958.992000	-25.162217
959.198000	-9.819762
959.404000	-4.007451
959.609000	-10.309773
959.815000	-11.732914
960.021000	4.155667
960.226000	-4.116918
960.432000	-23.704644
960.638000	-12.620058
960.843000	-6.852967
961.049000	-8.279515
961.255000	2.086108
961.460000	-11.887812
961.666000	-30.406667
961.872000	-19.204807
962.078000	-13.328805
962.283000	-20.304312
962.489000	-20.631821
962.695000	-15.895873
962.900000	-11.588897
963.106000	-7.139751
963.312000	-12.629049
963.517000	-16.555472
963.723000	-20.038670
963.929000	4.383716
964.134000	9.777271
964.340000	-13.764459
964.546000	-12.130993
964.752000	-16.517888
964.957000	-23.353846
965.163000	-4.041890
965.369000	-2.840750
965.574000	2.008436
965.780000	-6.233249
966.000000	-16.899967
966.220000	-8.190896
966.440000	-5.795415
966.661000	0.755442
966.881000	-17.765357
967.101000	-30.733662
967.321000	-30.510751
967.541000	-9.468626
967.761000	-16.282347
967.981000	-6.719418
968.202000	-2.532555
968.422000	3.183519
968.642000	1.270849
968.862000	3.725717
969.082000	-5.891682
969.302000	-0.238144
969.522000	-7.326970
969.743000	7.991353
969.963000	-9.974727
970.183000	-22.343328
970.403000	-19.304523
970.623000	-13.562600
970.843000	8.000290
971.063000	0.274001
971.284000	-20.734531
971.504000	-28.142739
971.724000	-4.866462
971.944000	-20.842873
972.164000	-30.986547
972.384000	-19.825173
972.604000	-31.851260
972.825000	-36.886496
973.045000	-26.375805
973.265000	17.896070
973.485000	12.623873
973.705000	-5.900558
973.925000	-15.223787
974.145000	-45.562897
974.365000	-10.988936
974.586000	-10.800785
974.806000	-29.289422
975.026000	7.919553
975.246000	-6.392148
975.466000	-26.341872
975.686000	-12.222791
975.906000	-17.708179
976.127000	-37.294916
976.347000	-31.980959
976.567000	-10.308097
976.787000	-5.756149
977.007000	-10.787538
977.227000	-20.279987
977.447000	-26.386729
977.668000	-42.525666
977.888000	-22.992919
978.108000	-23.103391
978.328000	-15.973407
978.548000	17.359593
978.768000	25.396363
978.988000	8.028076
979.209000	-12.309277
979.429000	-15.666864
979.649000	2.989120
979.869000	-19.482698
980.089000	-35.681517
980.309000	-38.233212
980.529000	-42.939926
980.750000	-28.219596
980.970000	-40.004945
981.190000	-23.426643
981.410000	-20.649226
981.630000	-33.326581
981.850000	-27.069363
982.070000	-12.921039
982.291000	-37.300822
982.511000	-38.256195
982.731000	-1.515855
982.951000	-15.845471
983.171000	-17.427699
983.391000	-16.124714
983.611000	4.937574
983.832000	-21.065942
984.052000	-41.238899
984.272000	-21.076124
984.492000	-9.510781
984.712000	-21.261002
984.932000	-40.838572
985.152000	-48.188339
985.373000	-34.639922
985.593000	-6.283264
985.813000	-14.680457
986.033000	-31.391021
986.253000	4.307363
986.473000	14.993134
986.693000	-17.320721
986.914000	-33.381088
987.134000	2.524012
987.354000	-22.148874
987.574000	88.942010
987.794000	52.294964
988.014000	-36.172276
988.234000	-17.511152
988.455000	-3.251545
988.675000	-5.465910
988.895000	-19.608417
989.115000	-29.674820
989.335000	-3.776788
989.555000	6.809827
989.775000	-37.301111
989.995000	-26.654290
990.216000	-7.245295
990.436000	-8.440523
990.656000	15.448804
990.876000	-17.998793
991.096000	-1.820429
991.316000	14.954544
991.536000	-18.523157
991.757000	-21.204405
991.977000	-60.305111
992.197000	-23.412862
992.417000	-41.352121
992.637000	-72.553658
992.857000	-65.831706
993.077000	-60.025414
993.298000	-20.564181
993.518000	-21.363155
993.738000	-74.576101
993.958000	-44.120972
994.178000	-44.869302
994.398000	-25.274885
994.618000	-61.544566
994.839000	-108.792312
995.059000	-24.227207
995.279000	45.503375
995.499000	3.813134
995.719000	-11.650309
995.939000	-29.985325
996.159000	-15.832722
996.380000	-7.193501
996.600000	-58.266901
996.820000	-13.967517
997.040000	35.723097
997.260000	-34.470660
997.480000	-31.743347
997.700000	-92.833434
997.921000	-49.502904
998.141000	40.157522
998.361000	-6.835752
998.581000	-46.874058
998.801000	-70.604184
999.021000	-40.546897
999.241000	-11.629618
999.462000	-44.050965
999.682000	-90.580315
999.902000	-44.943777
1000.122000	-65.545295
1000.342000	-117.199896
1000.562000	-39.093059
1000.782000	-32.060418
1001.003000	-928.309512
