Wavelength	Irradiance
(nm)	(mW/cm2/nm)

294.396000	0.000000
294.577000	0.000000
294.757000	0.000000
294.938000	0.000000
295.118000	-0.000000
295.299000	0.000000
295.479000	0.000000
295.660000	-0.000000
295.840000	-0.000000
296.021000	-0.000000
296.202000	-0.000000
296.382000	-0.000000
296.563000	-0.000000
296.743000	-0.000000
296.924000	0.000000
297.104000	0.000000
297.285000	-0.000000
297.465000	-0.000000
297.646000	-0.000000
297.826000	0.000000
298.007000	0.000000
298.187000	-0.000000
298.368000	-0.000000
298.548000	0.000000
298.729000	0.000000
298.909000	-0.000000
299.090000	-0.000000
299.270000	-0.000000
299.451000	-0.000000
299.631000	-0.000000
299.812000	0.000000
299.992000	0.000000
300.173000	0.000000
300.353000	-0.000000
300.534000	0.000000
300.714000	0.000000
300.895000	0.000000
301.075000	-0.000000
301.256000	0.000000
301.436000	0.000000
301.617000	-0.000000
301.797000	-0.000000
301.978000	0.000000
302.159000	0.000000
302.339000	0.000000
302.520000	-0.000000
302.700000	-0.000000
302.881000	0.000000
303.061000	0.000000
303.242000	0.000000
303.422000	0.000000
303.603000	0.000000
303.783000	-0.000000
303.964000	-0.000000
304.144000	0.000000
304.325000	0.000000
304.505000	-0.000000
304.686000	-0.000000
304.866000	0.000000
305.047000	0.000000
305.227000	-0.000000
305.408000	-0.000000
305.588000	-0.000000
305.769000	-0.000000
305.949000	-0.000000
306.130000	-0.000000
306.310000	-0.000000
306.491000	-0.000000
306.671000	0.000000
306.852000	-0.000000
307.032000	-0.000000
307.213000	0.000000
307.393000	-0.000000
307.574000	-0.000000
307.755000	0.000000
307.935000	0.000000
308.116000	-0.000000
308.296000	-0.000000
308.477000	0.000000
308.657000	0.000000
308.838000	0.000000
309.018000	0.000000
309.199000	-0.000000
309.379000	0.000000
309.560000	0.000000
309.740000	-0.000000
309.921000	0.000000
310.101000	0.000000
310.282000	-0.000000
310.462000	-0.000000
310.643000	-0.000000
310.823000	0.000000
311.004000	-0.000000
311.184000	-0.000000
311.365000	0.000000
311.545000	0.000000
311.726000	0.000000
311.906000	0.000000
312.087000	0.000000
312.267000	-0.000000
312.448000	-0.000000
312.628000	-0.000000
312.809000	-0.000000
312.989000	-0.000000
313.170000	-0.000000
313.344000	-0.000000
313.518000	-0.000000
313.691000	-0.000000
313.865000	-0.000000
314.039000	-0.000000
314.213000	-0.000000
314.387000	-0.000000
314.560000	-0.000000
314.734000	-0.000000
314.908000	-0.000000
315.082000	-0.000000
315.255000	0.000000
315.429000	0.000000
315.603000	0.000000
315.777000	-0.000000
315.951000	0.000000
316.124000	-0.000000
316.298000	-0.000000
316.472000	-0.000000
316.646000	-0.000000
316.820000	-0.000000
316.993000	0.000000
317.167000	-0.000000
317.341000	-0.000000
317.515000	-0.000000
317.688000	-0.000000
317.862000	-0.000000
318.036000	-0.000000
318.210000	-0.000000
318.384000	-0.000000
318.557000	-0.000000
318.731000	-0.000000
318.905000	-0.000000
319.079000	0.000000
319.253000	0.000000
319.426000	0.000000
319.600000	-0.000000
319.774000	-0.000000
319.948000	-0.000000
320.122000	0.000000
320.295000	-0.000000
320.469000	-0.000000
320.643000	-0.000000
320.817000	-0.000000
320.990000	-0.000000
321.164000	-0.000000
321.338000	-0.000000
321.512000	-0.000000
321.686000	-0.000000
321.859000	-0.000000
322.033000	0.000000
322.207000	-0.000000
322.381000	-0.000000
322.555000	0.000000
322.728000	0.000000
322.902000	-0.000000
323.076000	-0.000000
323.250000	-0.000000
323.423000	-0.000000
323.597000	-0.000000
323.771000	-0.000000
323.945000	-0.000000
324.119000	-0.000000
324.292000	0.000000
324.466000	-0.000000
324.640000	0.000000
324.814000	0.000000
324.988000	-0.000000
325.161000	-0.000000
325.335000	-0.000000
325.509000	-0.000000
325.683000	0.000000
325.856000	-0.000000
326.030000	-0.000000
326.204000	-0.000000
326.378000	0.000000
326.552000	-0.000000
326.725000	-0.000000
326.899000	-0.000000
327.073000	-0.000000
327.247000	-0.000000
327.421000	0.000000
327.594000	0.000000
327.768000	-0.000000
327.942000	-0.000000
328.116000	0.000000
328.289000	0.000000
328.463000	0.000000
328.637000	0.000000
328.811000	-0.000000
328.985000	0.000000
329.158000	0.000000
329.332000	-0.000000
329.506000	0.000000
329.680000	0.000000
329.854000	-0.000000
330.027000	-0.000000
330.201000	0.000000
330.375000	0.000000
330.549000	0.000000
330.723000	-0.000000
330.896000	-0.000000
331.070000	-0.000000
331.244000	-0.000000
331.418000	-0.000000
331.591000	0.000000
331.765000	-0.000000
331.939000	-0.000000
332.113000	-0.000000
332.287000	-0.000000
332.460000	0.000000
332.634000	0.000000
332.808000	-0.000000
332.982000	-0.000000
333.156000	-0.000000
333.329000	-0.000000
333.503000	-0.000000
333.677000	-0.000000
333.851000	-0.000000
334.024000	0.000000
334.198000	-0.000000
334.372000	-0.000000
334.546000	-0.000000
334.720000	-0.000000
334.893000	-0.000000
335.067000	0.000000
335.241000	0.000000
335.415000	-0.000000
335.589000	-0.000000
335.762000	0.000000
335.936000	-0.000000
336.110000	-0.000000
336.284000	-0.000000
336.458000	0.000000
336.631000	-0.000000
336.805000	-0.000000
336.979000	-0.000000
337.153000	-0.000000
337.326000	-0.000000
337.500000	-0.000000
337.674000	-0.000000
337.848000	-0.000000
338.022000	0.000000
338.195000	-0.000000
338.369000	-0.000000
338.543000	-0.000000
338.717000	-0.000000
338.891000	0.000000
339.064000	0.000000
339.238000	-0.000000
339.412000	-0.000000
339.586000	-0.000000
339.759000	-0.000000
339.933000	-0.000000
340.107000	0.000000
340.281000	0.000000
340.455000	-0.000000
340.628000	-0.000000
340.802000	-0.000000
340.976000	0.000000
341.150000	-0.000000
341.324000	-0.000000
341.497000	-0.000000
341.671000	-0.000000
341.845000	-0.000000
342.019000	-0.000000
342.192000	0.000000
342.366000	-0.000000
342.540000	-0.000000
342.714000	-0.000000
342.888000	-0.000000
343.061000	-0.000000
343.235000	-0.000000
343.409000	-0.000000
343.583000	-0.000000
343.757000	-0.000000
343.930000	-0.000000
344.104000	-0.000000
344.278000	0.000000
344.452000	0.000000
344.626000	-0.000000
344.799000	-0.000000
344.973000	-0.000000
345.147000	-0.000000
345.321000	-0.000000
345.494000	-0.000000
345.668000	0.000000
345.842000	0.000000
346.016000	-0.000000
346.190000	0.000000
346.363000	0.000000
346.537000	-0.000000
346.711000	-0.000000
346.885000	-0.000000
347.059000	-0.000000
347.232000	-0.000000
347.406000	0.000000
347.580000	-0.000000
347.754000	-0.000000
347.927000	0.000000
348.101000	0.000000
348.275000	-0.000000
348.449000	-0.000000
348.623000	-0.000000
348.796000	-0.000000
348.970000	0.000000
349.144000	0.000000
349.318000	-0.000000
349.492000	-0.000000
349.665000	-0.000000
349.839000	-0.000000
350.013000	-0.000000
350.187000	-0.000000
350.361000	-0.000000
350.534000	0.000000
350.708000	-0.000000
350.882000	-0.000000
351.056000	0.000000
351.229000	0.000000
351.403000	-0.000000
351.577000	-0.000000
351.751000	-0.000000
351.925000	-0.000000
352.098000	-0.000000
352.272000	-0.000000
352.446000	-0.000000
352.620000	-0.000000
352.794000	-0.000000
352.967000	-0.000000
353.141000	0.000000
353.315000	0.000000
353.489000	-0.000000
353.662000	-0.000000
353.836000	-0.000000
354.010000	-0.000000
354.184000	0.000000
354.358000	-0.000000
354.531000	-0.000000
354.705000	-0.000000
354.879000	-0.000000
355.053000	-0.000000
355.227000	0.000000
355.400000	-0.000000
355.574000	-0.000000
355.748000	0.000000
355.922000	-0.000000
356.095000	-0.000000
356.269000	-0.000000
356.443000	-0.000000
356.617000	-0.000000
356.791000	-0.000000
356.964000	-0.000000
357.138000	-0.000000
357.312000	-0.000000
357.486000	-0.000000
357.660000	0.000000
357.833000	-0.000000
358.007000	-0.000000
358.181000	-0.000000
358.355000	-0.000000
358.529000	-0.000000
358.702000	-0.000000
358.876000	-0.000000
359.050000	-0.000000
359.224000	-0.000000
359.397000	0.000000
359.571000	0.000000
359.745000	-0.000000
359.919000	-0.000000
360.093000	0.025134
360.266000	0.116201
360.440000	0.077863
360.614000	0.097232
360.788000	0.074193
360.962000	-0.101887
361.135000	-0.093684
361.309000	-0.160079
361.483000	-0.180725
361.657000	-0.107484
361.830000	-0.144092
362.004000	-0.019570
362.178000	-0.293174
362.352000	-0.123925
362.526000	0.013392
362.699000	-0.029016
362.873000	-0.318235
363.047000	-0.253782
363.221000	-0.227270
363.395000	-0.147044
363.568000	-0.122472
363.742000	-0.104430
363.916000	-0.141653
364.090000	-0.255008
364.263000	-0.192827
364.437000	-0.234229
364.611000	-0.065286
364.785000	-0.097813
364.959000	-0.185930
365.132000	-0.102574
365.306000	-0.170368
365.480000	-0.084853
365.656000	-0.122679
365.831000	-0.064085
366.007000	-0.173328
366.183000	-0.193986
366.358000	-0.228637
366.534000	-0.075714
366.710000	-0.244654
366.886000	-0.233185
367.061000	-0.033861
367.237000	0.149491
367.413000	-0.025457
367.588000	-0.248867
367.764000	-0.189499
367.940000	-0.190316
368.115000	-0.217130
368.291000	-0.272067
368.467000	-0.094282
368.643000	0.253417
368.818000	-0.144738
368.994000	-0.255649
369.170000	-0.120539
369.345000	-0.082196
369.521000	-0.186614
369.697000	-0.141179
369.872000	-0.154582
370.048000	-0.208664
370.224000	-0.187383
370.399000	-0.382646
370.575000	-0.246062
370.751000	-0.327702
370.927000	-0.312758
371.102000	-0.278450
371.278000	-0.212582
371.454000	-0.094586
371.629000	0.052672
371.805000	-0.031420
371.981000	0.188533
372.156000	0.376251
372.332000	0.119383
372.508000	-0.051513
372.683000	0.001995
372.859000	-0.041047
373.035000	-0.120788
373.211000	0.032120
373.386000	-0.057989
373.562000	-0.277685
373.738000	-0.375751
373.913000	-0.527687
374.089000	-0.361699
374.265000	0.086083
374.440000	0.071252
374.616000	-0.006711
374.792000	-0.150350
374.968000	0.312790
375.143000	0.053512
375.319000	-0.236717
375.495000	-0.265919
375.670000	-0.080696
375.846000	-0.042082
376.022000	-0.209124
376.197000	-0.120945
376.373000	-0.291806
376.549000	-0.337875
376.724000	-0.410045
376.900000	-0.246100
377.076000	-0.080047
377.252000	0.014881
377.427000	0.081942
377.603000	-0.144902
377.779000	-0.084675
377.954000	-0.268901
378.130000	-0.172025
378.306000	-0.085866
378.481000	-0.059459
378.657000	-0.160065
378.833000	-0.197689
379.009000	-0.038332
379.184000	0.109250
379.360000	-0.004531
379.536000	-0.048395
379.711000	-0.093753
379.887000	-0.144680
380.063000	-0.241100
380.238000	-0.300494
380.414000	0.049134
380.590000	-0.162470
380.765000	-0.223439
380.941000	-0.088322
381.117000	-0.016380
381.293000	-0.038253
381.468000	-0.223804
381.644000	-0.185910
381.820000	-0.049430
381.995000	0.112145
382.171000	0.194552
382.347000	0.029831
382.522000	-0.256803
382.698000	0.173865
382.874000	0.159834
383.050000	-0.259593
383.225000	0.185547
383.401000	0.378699
383.577000	-0.037197
383.752000	-0.199222
383.928000	-0.092956
384.104000	0.032822
384.279000	-0.120629
384.455000	-0.061748
384.631000	-0.087339
384.806000	-0.261047
384.982000	-0.179532
385.158000	-0.227985
385.334000	0.011863
385.509000	-0.037193
385.685000	-0.339824
385.861000	-0.202215
386.036000	-0.314221
386.212000	-0.457661
386.388000	-0.292602
386.563000	-0.190159
386.739000	-0.221328
386.915000	-0.428960
387.090000	-0.234669
387.266000	-0.083069
387.442000	0.120606
387.618000	0.072552
387.793000	-0.249310
387.969000	-0.431801
388.145000	-0.328590
388.320000	-0.254348
388.496000	-0.239610
388.672000	-0.451496
388.847000	-0.005318
389.023000	0.020957
389.199000	-0.283525
389.375000	-0.171609
389.550000	-0.255952
389.726000	-0.068779
389.902000	-0.292437
390.077000	-0.218340
390.253000	-0.119558
390.429000	-0.134738
390.604000	-0.074496
390.780000	-0.081279
390.956000	-0.195993
391.131000	-0.202702
391.307000	-0.018521
391.483000	-0.179736
391.659000	-0.237204
391.834000	0.023981
392.010000	-0.173121
392.186000	-0.266190
392.361000	-0.163924
392.537000	-0.267711
392.713000	0.117751
392.888000	0.116180
393.064000	-0.089265
393.240000	-0.135351
393.416000	-0.262176
393.591000	-0.338419
393.767000	-0.369327
393.943000	-0.236456
394.118000	-0.095556
394.294000	0.050029
394.470000	0.006098
394.645000	0.126794
394.821000	0.157667
394.997000	-0.106025
395.172000	-0.045881
395.348000	-0.137231
395.524000	-0.408189
395.700000	-0.287564
395.875000	-0.052304
396.051000	-0.057299
396.227000	-0.152094
396.402000	-0.205891
396.578000	-0.092836
396.754000	-0.222056
396.929000	-0.220220
397.105000	-0.002444
397.281000	-0.042886
397.457000	-0.126770
397.632000	-0.184453
397.808000	-0.434080
397.984000	-0.508335
398.159000	-0.394087
398.335000	-0.267428
398.511000	0.149916
398.686000	-0.033363
398.862000	-0.215023
399.038000	-0.332099
399.213000	-0.169761
399.389000	-0.409358
399.565000	-0.075281
399.741000	0.086944
399.916000	-0.055042
400.092000	0.247769
400.268000	-0.041958
400.443000	-0.188434
400.619000	0.025894
400.795000	-0.032507
400.970000	-0.148345
401.146000	-0.267304
401.322000	-0.012418
401.497000	0.451463
401.673000	0.176711
401.849000	-0.145089
402.025000	-0.038964
402.200000	-0.139939
402.376000	-0.183770
402.552000	0.112348
402.727000	-0.061995
402.903000	-0.289828
403.079000	-0.150343
403.254000	-0.019771
403.430000	0.010764
403.606000	-0.009794
403.782000	-0.042663
403.957000	-0.252173
404.133000	-0.419776
404.309000	-0.227134
404.484000	0.020665
404.660000	-0.014778
404.841000	-0.166789
405.023000	0.084705
405.204000	0.045403
405.385000	-0.278052
405.566000	-0.303996
405.748000	-0.136472
405.929000	0.101337
406.110000	-0.007362
406.292000	-0.146498
406.473000	-0.025366
406.654000	-0.205119
406.835000	-0.146696
407.017000	-0.188860
407.198000	-0.101459
407.379000	-0.052574
407.560000	-0.119373
407.742000	-0.162883
407.923000	-0.070736
408.104000	-0.209724
408.286000	-0.120967
408.467000	-0.124747
408.648000	-0.294539
408.829000	-0.305736
409.011000	-0.198335
409.192000	-0.376167
409.373000	-0.132533
409.555000	-0.008106
409.736000	-0.055221
409.917000	-0.173787
410.098000	-0.149121
410.280000	-0.012800
410.461000	-0.057778
410.642000	-0.116654
410.823000	0.149768
411.005000	0.132231
411.186000	-0.105550
411.367000	-0.203291
411.549000	-0.197499
411.730000	0.059741
411.911000	0.140127
412.092000	-0.082573
412.274000	-0.109826
412.455000	-0.027054
412.636000	-0.019091
412.818000	-0.198030
412.999000	-0.280456
413.180000	-0.174823
413.361000	-0.158716
413.543000	-0.219778
413.724000	-0.286507
413.905000	-0.279391
414.087000	-0.303776
414.268000	-0.302016
414.449000	-0.308870
414.630000	-0.373205
414.812000	-0.460658
414.993000	-0.146716
415.174000	0.029763
415.355000	-0.125684
415.537000	-0.374758
415.718000	-0.153457
415.899000	-0.224852
416.081000	-0.309485
416.262000	-0.140414
416.443000	-0.253877
416.624000	-0.181451
416.806000	-0.044812
416.987000	0.035072
417.168000	-0.090364
417.350000	-0.255726
417.531000	-0.284916
417.712000	-0.247256
417.893000	-0.075938
418.075000	0.030675
418.256000	-0.164098
418.437000	-0.100057
418.618000	-0.038298
418.800000	0.083601
418.981000	-0.124208
419.162000	-0.167347
419.344000	0.003889
419.525000	-0.049756
419.706000	-0.090489
419.887000	-0.051243
420.069000	0.040630
420.250000	0.015376
420.431000	0.003892
420.613000	-0.077362
420.794000	-0.289524
420.975000	0.074579
421.156000	-0.104276
421.338000	-0.178777
421.519000	-0.148304
421.700000	-0.205219
421.882000	-0.205945
422.063000	-0.076802
422.244000	0.220458
422.425000	0.080659
422.607000	-0.163544
422.788000	-0.212485
422.969000	-0.280114
423.150000	-0.281199
423.332000	-0.315257
423.513000	-0.139083
423.694000	-0.112294
423.876000	-0.042602
424.057000	0.032090
424.238000	0.031445
424.419000	-0.006062
424.601000	-0.116541
424.782000	-0.053574
424.963000	0.025919
425.145000	-0.057848
425.326000	0.028914
425.507000	0.097070
425.688000	-0.062377
425.870000	-0.183441
426.051000	-0.274836
426.232000	-0.217102
426.413000	-0.196228
426.595000	-0.214956
426.776000	-0.232325
426.957000	-0.152475
427.139000	-0.094865
427.320000	-0.108254
427.501000	0.023052
427.682000	0.032847
427.864000	-0.013634
428.045000	0.077231
428.226000	0.084407
428.408000	-0.180679
428.589000	-0.077715
428.770000	-0.095040
428.951000	-0.179198
429.133000	-0.288483
429.314000	-0.172363
429.495000	-0.171791
429.677000	-0.105830
429.858000	-0.121090
430.039000	-0.103794
430.220000	-0.068172
430.402000	0.050723
430.583000	-0.155254
430.764000	-0.201427
430.945000	-0.071760
431.127000	0.069145
431.308000	-0.067931
431.489000	-0.051775
431.671000	0.012148
431.852000	0.001574
432.033000	-0.045649
432.214000	-0.007406
432.396000	-0.006641
432.577000	-0.143498
432.758000	-0.272838
432.940000	-0.206638
433.121000	-0.126365
433.302000	-0.064800
433.483000	0.130311
433.665000	0.175058
433.846000	0.038787
434.027000	-0.056151
434.208000	-0.127744
434.390000	-0.182349
434.571000	0.141030
434.752000	0.617911
434.934000	0.500279
435.115000	0.384057
435.296000	0.380998
435.477000	0.251814
435.659000	0.053656
435.840000	0.082873
436.026000	0.058730
436.211000	-0.067925
436.397000	-0.324935
436.582000	-0.224776
436.768000	-0.049613
436.953000	-0.124332
437.139000	-0.060918
437.325000	0.102942
437.510000	0.054357
437.696000	0.270065
437.881000	0.261815
438.067000	-0.092571
438.252000	-0.111041
438.438000	-0.131472
438.624000	-0.080556
438.809000	-0.030922
438.995000	0.031026
439.180000	-0.032894
439.366000	-0.068593
439.551000	-0.082495
439.737000	-0.083026
439.923000	-0.009719
440.108000	-0.071154
440.294000	-0.026384
440.479000	0.052788
440.665000	0.162023
440.850000	0.093960
441.036000	0.053647
441.222000	-0.015797
441.407000	-0.131923
441.593000	0.002122
441.778000	0.064263
441.964000	0.135178
442.149000	-0.120862
442.335000	-0.145407
442.521000	-0.078022
442.706000	0.044026
442.892000	0.010190
443.077000	-0.031756
443.263000	0.014902
443.448000	-0.033495
443.634000	-0.062402
443.820000	0.262371
444.005000	0.112124
444.191000	-0.140964
444.376000	-0.109700
444.562000	0.246025
444.747000	0.211420
444.933000	0.045795
445.119000	-0.026380
445.304000	-0.060646
445.490000	0.070705
445.675000	0.038339
445.861000	-0.122336
446.046000	-0.064632
446.232000	0.017866
446.418000	0.060652
446.603000	0.067230
446.789000	0.059922
446.974000	0.000066
447.160000	-0.185971
447.345000	-0.100639
447.531000	-0.120805
447.717000	-0.000592
447.902000	0.048913
448.088000	0.155591
448.273000	0.054905
448.459000	0.006575
448.644000	-0.039017
448.830000	-0.105851
449.016000	-0.163902
449.201000	-0.111484
449.387000	-0.013011
449.572000	0.114789
449.758000	0.021562
449.943000	-0.117357
450.129000	-0.164321
450.315000	-0.125749
450.500000	-0.121964
450.686000	-0.079269
450.871000	-0.180235
451.057000	-0.001884
451.243000	-0.008373
451.428000	-0.041529
451.614000	-0.051805
451.799000	-0.082230
451.985000	0.139969
452.170000	0.113305
452.356000	-0.083996
452.542000	-0.045900
452.727000	0.118165
452.913000	-0.023853
453.098000	0.078920
453.284000	0.247526
453.469000	0.143025
453.655000	0.133736
453.841000	0.065183
454.026000	-0.017268
454.212000	0.050630
454.397000	0.023779
454.583000	-0.145405
454.768000	-0.201840
454.954000	0.048638
455.140000	0.094495
455.325000	-0.079510
455.511000	-0.175209
455.696000	-0.136201
455.882000	-0.018447
456.067000	0.072866
456.253000	-0.049113
456.439000	-0.119347
456.624000	-0.134866
456.810000	-0.147189
456.995000	-0.091458
457.181000	-0.141294
457.366000	-0.018226
457.552000	-0.011871
457.738000	0.116127
457.923000	0.125759
458.109000	0.109750
458.294000	0.066817
458.480000	0.109776
458.665000	0.103791
458.851000	-0.037590
459.037000	-0.194431
459.222000	-0.021134
459.408000	-0.024875
459.593000	-0.017310
459.779000	0.082933
459.964000	0.246634
460.150000	0.418365
460.336000	0.248681
460.521000	0.075178
460.707000	0.003133
460.892000	-0.081479
461.078000	0.094083
461.263000	0.137098
461.449000	0.000061
461.635000	0.039312
461.820000	0.026380
462.006000	0.092090
462.191000	0.134257
462.377000	-0.046558
462.562000	0.082663
462.748000	0.197562
462.934000	-0.052102
463.119000	-0.118275
463.305000	0.030720
463.490000	-0.043613
463.676000	0.061838
463.861000	0.051867
464.047000	-0.011350
464.233000	0.028694
464.418000	0.022108
464.604000	-0.031455
464.789000	0.039927
464.975000	0.091405
465.160000	0.048186
465.346000	0.080225
465.532000	-0.052272
465.717000	-0.122840
465.903000	0.157736
466.088000	0.131492
466.274000	-0.078870
466.459000	-0.120830
466.645000	0.252210
466.831000	0.248280
467.016000	0.174056
467.202000	0.076561
467.387000	0.059327
467.573000	-0.078258
467.758000	0.121111
467.944000	0.035543
468.130000	-0.040288
468.315000	0.117067
468.501000	0.223913
468.686000	0.107643
468.872000	0.157127
469.057000	0.210591
469.243000	0.081594
469.429000	0.052435
469.614000	-0.006909
469.800000	-0.056259
469.985000	0.074142
470.171000	0.132103
470.356000	0.053883
470.542000	0.144722
470.728000	0.117590
470.913000	0.039232
471.099000	0.179677
471.284000	0.133992
471.470000	0.047090
471.655000	0.058131
471.841000	0.084576
472.027000	0.035181
472.212000	0.175825
472.398000	0.208202
472.583000	0.138390
472.769000	0.167062
472.954000	0.140169
473.140000	0.011011
473.326000	-0.005715
473.511000	0.310557
473.697000	0.272280
473.882000	0.110670
474.068000	0.084771
474.253000	0.036455
474.439000	0.083384
474.625000	0.110379
474.810000	0.146294
474.996000	0.198893
475.181000	0.022517
475.367000	0.164351
475.552000	0.418639
475.738000	0.130344
475.924000	0.061881
476.109000	0.155420
476.295000	0.109851
476.480000	0.201939
476.666000	0.156581
476.851000	0.150725
477.037000	0.204901
477.223000	0.152075
477.408000	0.075798
477.594000	0.000635
477.779000	0.136078
477.965000	0.149443
478.151000	0.023792
478.336000	0.137961
478.522000	0.118557
478.707000	0.111031
478.893000	0.187133
479.078000	0.043023
479.264000	0.070330
479.450000	0.149373
479.635000	0.243745
479.821000	0.183144
480.006000	0.272445
480.192000	0.275669
480.377000	0.263476
480.563000	0.273674
480.749000	0.125038
480.934000	0.159745
481.120000	0.271977
481.305000	0.321288
481.491000	0.346381
481.676000	0.426233
481.862000	0.399245
482.048000	0.257984
482.233000	0.348569
482.419000	0.360382
482.604000	0.285244
482.790000	0.279442
482.975000	0.357605
483.161000	0.529847
483.347000	0.494854
483.532000	0.437071
483.718000	0.235838
483.903000	0.304211
484.089000	0.351049
484.274000	0.271720
484.460000	0.421428
484.646000	0.499824
484.831000	0.386334
485.017000	0.426814
485.202000	0.456635
485.388000	0.721435
485.573000	0.698686
485.759000	0.511486
485.945000	0.719674
486.130000	0.581090
486.316000	0.541447
486.501000	0.612624
486.687000	0.500123
486.872000	0.479265
487.058000	0.618485
487.244000	0.636170
487.429000	0.502641
487.615000	0.690229
487.800000	0.753369
487.986000	0.652543
488.171000	0.794153
488.357000	0.774873
488.543000	0.750385
488.728000	0.785990
488.914000	0.764813
489.099000	0.726137
489.285000	0.707380
489.470000	0.874468
489.656000	0.937137
489.842000	0.959047
490.027000	1.005868
490.213000	0.862649
490.398000	0.637263
490.584000	0.922283
490.769000	0.930762
490.955000	0.945526
491.141000	1.003703
491.326000	1.041724
491.512000	1.123144
491.697000	1.035192
491.883000	0.960566
492.068000	0.958444
492.254000	0.992697
492.440000	1.058842
492.625000	1.038361
492.811000	1.056908
492.996000	1.180835
493.182000	1.204289
493.367000	1.054533
493.553000	1.004676
493.739000	1.095523
493.924000	1.234910
494.110000	1.292631
494.295000	1.209546
494.481000	1.304146
494.666000	1.332248
494.852000	1.540537
495.038000	1.419121
495.223000	1.317752
495.409000	1.390298
495.594000	1.396470
495.780000	1.487710
495.965000	1.436206
496.151000	1.627497
496.337000	1.743336
496.522000	1.576876
496.708000	1.629973
496.893000	1.789063
497.079000	1.701037
497.264000	1.735077
497.450000	1.795546
497.636000	1.869656
497.821000	1.766218
498.007000	2.056530
498.192000	2.109253
498.378000	1.979892
498.563000	1.936064
498.749000	2.040241
498.935000	2.072821
499.120000	2.153170
499.306000	2.052663
499.491000	2.097948
499.677000	2.201673
499.862000	2.284072
500.048000	2.434250
500.234000	2.374387
500.419000	2.368835
500.605000	2.541862
500.790000	2.528611
500.976000	2.446900
501.161000	2.416008
501.347000	2.594006
501.533000	2.734275
501.718000	2.710675
501.904000	2.703217
502.089000	2.829751
502.275000	2.959994
502.460000	2.907374
502.646000	2.923362
502.832000	2.981551
503.017000	3.070742
503.203000	2.950392
503.388000	2.971298
503.574000	3.187954
503.759000	3.290739
503.945000	3.413427
504.131000	3.371996
504.316000	3.326895
504.502000	3.424228
504.687000	3.469353
504.873000	3.373255
505.058000	3.392216
505.244000	3.448427
505.430000	3.601930
505.615000	3.717587
505.801000	3.799983
505.986000	3.691943
506.172000	3.848777
506.358000	3.908642
506.543000	3.945934
506.729000	4.214334
506.914000	4.224154
507.100000	4.224632
507.285000	4.114830
507.471000	4.170601
507.657000	4.476860
507.842000	4.327290
508.028000	4.218536
508.213000	4.336544
508.399000	4.479591
508.584000	4.622725
508.770000	4.536663
508.956000	4.540785
509.141000	4.649391
509.327000	4.730304
509.512000	4.694248
509.698000	4.787647
509.883000	4.904367
510.069000	4.850556
510.255000	4.848202
510.440000	5.003713
510.626000	4.997175
510.811000	4.969359
510.997000	5.081139
511.182000	5.378066
511.368000	5.299192
511.554000	4.973951
511.739000	5.077475
511.925000	5.312938
512.110000	5.341816
512.296000	5.383488
512.481000	5.384856
512.667000	5.397471
512.853000	5.257453
513.038000	5.315846
513.224000	5.314873
513.409000	5.270105
513.595000	5.436448
513.780000	5.266262
513.966000	5.354897
514.152000	5.354430
514.337000	5.323170
514.523000	5.387102
514.708000	5.448187
514.894000	5.496201
515.079000	5.384679
515.265000	5.448093
515.451000	5.458886
515.636000	5.356574
515.822000	5.478745
516.007000	5.348733
516.193000	5.415669
516.378000	5.566162
516.564000	5.504047
516.750000	5.427459
516.935000	5.505324
517.121000	5.529875
517.306000	5.631733
517.492000	5.522713
517.677000	5.276052
517.863000	5.261079
518.049000	5.363029
518.234000	5.249638
518.420000	5.282398
518.605000	5.485800
518.791000	5.471671
518.976000	5.245687
519.162000	5.092749
519.348000	5.229174
519.533000	5.181661
519.719000	5.184045
519.904000	5.124756
520.090000	5.163991
520.275000	5.323253
520.461000	5.145658
520.647000	4.919415
520.832000	4.760172
521.018000	4.849027
521.203000	4.829739
521.389000	4.601271
521.574000	4.685238
521.760000	4.813024
521.946000	4.698813
522.131000	4.595707
522.317000	4.615512
522.502000	4.520875
522.688000	4.518868
522.873000	4.465295
523.059000	4.440939
523.245000	4.398423
523.430000	4.219960
523.616000	4.211326
523.801000	4.121624
523.987000	4.163522
524.172000	4.209071
524.358000	4.222372
524.544000	4.152300
524.729000	4.199127
524.915000	4.134557
525.100000	3.973400
525.286000	4.038470
525.471000	4.029702
525.657000	3.923671
525.843000	3.698979
526.028000	3.841464
526.214000	3.760866
526.399000	3.620497
526.585000	3.507054
526.770000	3.466655
526.956000	3.557810
527.142000	3.446227
527.327000	3.533360
527.513000	3.410223
527.698000	3.364492
527.884000	3.374406
528.069000	3.302227
528.255000	3.392499
528.441000	3.261348
528.626000	3.238485
528.812000	3.410112
528.997000	3.242428
529.183000	3.101195
529.368000	3.115594
529.554000	3.063475
529.740000	3.067954
529.925000	3.020527
530.111000	2.979890
530.296000	2.992031
530.482000	3.075753
530.667000	2.942699
530.853000	2.897025
531.039000	2.834345
531.224000	2.909906
531.410000	2.952438
531.595000	2.780723
531.781000	2.793828
531.967000	2.658854
532.152000	2.807851
532.338000	2.644389
532.523000	2.465979
532.709000	2.441954
532.894000	2.560048
533.080000	2.528224
533.266000	2.378134
533.451000	2.344186
533.637000	2.397222
533.822000	2.452363
534.008000	2.304185
534.193000	2.376625
534.379000	2.451171
534.565000	2.308941
534.750000	2.233869
534.936000	2.467476
535.121000	2.278114
535.307000	2.239268
535.492000	2.218566
535.678000	2.040054
535.864000	2.189838
536.049000	2.298737
536.235000	2.060359
536.420000	2.114271
536.606000	2.056693
536.791000	1.919759
536.977000	1.865683
537.163000	2.114676
537.348000	2.123711
537.534000	2.041099
537.719000	1.852706
537.905000	1.735391
538.090000	1.977358
538.276000	1.982973
538.462000	1.915542
538.647000	1.969321
538.833000	1.855092
539.018000	1.872093
539.204000	1.806038
539.389000	1.699563
539.575000	2.000446
539.761000	1.869797
539.946000	1.598142
540.132000	1.724932
540.317000	1.571279
540.503000	1.632402
540.688000	1.712977
540.874000	2.036923
541.060000	2.110330
541.245000	1.898389
541.431000	1.715549
541.616000	1.765343
541.802000	1.737008
541.987000	1.725183
542.173000	1.703924
542.359000	1.655307
542.544000	1.770121
542.730000	1.585192
542.915000	1.545517
543.101000	1.703556
543.286000	1.531887
543.472000	1.434327
543.658000	1.484500
543.843000	1.469500
544.029000	1.672619
544.214000	1.517343
544.400000	1.218855
544.585000	1.397532
544.771000	1.467003
544.957000	1.557138
545.142000	1.592479
545.328000	1.705181
545.513000	1.753976
545.699000	1.646250
545.884000	1.455596
546.070000	1.431801
546.261000	1.407866
546.451000	1.185211
546.642000	0.953677
546.833000	1.065751
547.023000	0.941980
547.214000	0.905482
547.405000	1.057996
547.595000	1.360461
547.786000	1.306495
547.977000	1.047592
548.167000	0.878041
548.358000	0.925890
548.549000	1.293417
548.740000	1.064855
548.930000	0.741977
549.121000	0.849271
549.312000	0.811247
549.502000	0.690681
549.693000	0.791881
549.884000	0.910608
550.074000	1.000799
550.265000	0.746404
550.456000	0.805150
550.646000	0.885024
550.837000	0.865230
551.028000	0.723884
551.218000	0.758306
551.409000	0.671075
551.600000	0.773596
551.790000	0.817263
551.981000	0.557298
552.172000	0.594143
552.362000	0.953422
552.553000	0.951726
552.744000	0.781153
552.934000	0.718863
553.125000	0.642323
553.316000	0.559122
553.506000	0.768911
553.697000	0.676135
553.888000	0.772063
554.079000	0.852563
554.269000	0.728098
554.460000	0.473702
554.651000	0.499012
554.841000	0.365381
555.032000	0.432309
555.223000	0.538423
555.413000	0.686571
555.604000	0.562402
555.795000	0.448121
555.985000	0.602589
556.176000	0.534854
556.367000	0.234099
556.557000	0.330134
556.748000	0.422033
556.939000	0.392961
557.129000	0.293241
557.320000	0.435496
557.511000	0.426342
557.701000	0.424835
557.892000	0.429885
558.083000	0.563898
558.273000	0.512206
558.464000	0.364355
558.655000	0.378233
558.845000	0.417904
559.036000	0.493162
559.227000	0.502695
559.418000	0.476898
559.608000	0.434974
559.799000	0.215173
559.990000	0.233103
560.180000	0.279907
560.371000	0.117339
560.562000	0.210157
560.752000	0.395682
560.943000	0.168041
561.134000	-0.028111
561.324000	0.266776
561.515000	0.521731
561.706000	0.324512
561.896000	0.127260
562.087000	0.259100
562.278000	0.223542
562.468000	0.051257
562.659000	0.129315
562.850000	0.507461
563.040000	0.543703
563.231000	0.059433
563.422000	0.170154
563.612000	0.097961
563.803000	0.214366
563.994000	0.151240
564.185000	0.049840
564.375000	0.263042
564.566000	0.243963
564.757000	0.166939
564.947000	0.077692
565.138000	0.253294
565.329000	0.194280
565.519000	0.017948
565.710000	0.071621
565.901000	0.285623
566.091000	0.426046
566.282000	0.214196
566.473000	0.164213
566.663000	0.177751
566.854000	0.021799
567.045000	0.107589
567.235000	0.190993
567.426000	0.222196
567.617000	0.256551
567.807000	0.178328
567.998000	0.146057
568.189000	0.051120
568.379000	0.173493
568.570000	0.226474
568.761000	0.142764
568.951000	0.142537
569.142000	0.107066
569.333000	0.042081
569.524000	-0.055977
569.714000	-0.117548
569.905000	-0.193791
570.096000	0.137180
570.286000	0.208602
570.477000	0.386172
570.668000	0.232145
570.858000	0.173335
571.049000	0.036795
571.240000	-0.046818
571.430000	0.192883
571.621000	0.101194
571.812000	0.108528
572.002000	0.165371
572.193000	0.061283
572.384000	0.118565
572.574000	0.120210
572.765000	0.118444
572.956000	0.067944
573.146000	0.132154
573.337000	0.023202
573.528000	0.090878
573.718000	0.243369
573.909000	0.216199
574.100000	0.131425
574.290000	0.037376
574.481000	0.066913
574.672000	0.044939
574.863000	0.115951
575.053000	0.002343
575.244000	0.135064
575.435000	0.004596
575.625000	0.011326
575.816000	0.038281
576.007000	0.131176
576.197000	0.113375
576.388000	0.094996
576.579000	0.222731
576.769000	0.215009
576.960000	-0.058092
577.155000	-0.195511
577.350000	0.081778
577.545000	0.226194
577.740000	0.055512
577.935000	0.158669
578.130000	0.150671
578.326000	-0.036725
578.521000	0.117774
578.716000	0.150183
578.911000	-0.041619
579.106000	0.100632
579.301000	0.193312
579.496000	0.034833
579.691000	-0.204695
579.886000	-0.014361
580.081000	0.090143
580.276000	0.089203
580.471000	-0.009990
580.666000	-0.116869
580.861000	-0.140494
581.057000	-0.114751
581.252000	0.020170
581.447000	-0.034306
581.642000	-0.041538
581.837000	-0.034317
582.032000	0.016503
582.227000	0.226641
582.422000	0.157453
582.617000	-0.021806
582.812000	-0.094252
583.007000	-0.049879
583.202000	-0.132649
583.397000	0.071446
583.592000	0.299044
583.788000	0.048115
583.983000	-0.013843
584.178000	0.077859
584.373000	-0.031784
584.568000	-0.049684
584.763000	-0.103683
584.958000	-0.148632
585.153000	-0.037282
585.348000	-0.033805
585.543000	0.063735
585.738000	0.014595
585.933000	-0.156295
586.128000	0.085140
586.324000	0.092297
586.519000	0.070056
586.714000	0.185230
586.909000	0.282125
587.104000	0.198027
587.299000	0.069573
587.494000	0.088219
587.689000	0.055706
587.884000	0.068430
588.079000	-0.004116
588.274000	0.041304
588.469000	0.044012
588.664000	0.099942
588.859000	0.068613
589.055000	0.082696
589.250000	0.063821
589.445000	-0.078487
589.640000	-0.072934
589.835000	0.168945
590.030000	0.268784
590.225000	0.237173
590.420000	0.046570
590.615000	-0.025316
590.810000	0.002184
591.005000	0.063018
591.200000	-0.036015
591.395000	-0.081994
591.591000	0.045270
591.786000	0.092510
591.981000	0.005733
592.176000	0.119922
592.371000	0.127772
592.566000	0.041189
592.761000	0.180115
592.956000	0.176869
593.151000	0.259363
593.346000	0.153940
593.541000	0.127451
593.736000	0.144261
593.931000	0.017210
594.126000	0.050849
594.322000	0.049417
594.517000	-0.017089
594.712000	-0.099358
594.907000	-0.119816
595.102000	0.023793
595.297000	0.178227
595.492000	0.266435
595.687000	0.055615
595.882000	-0.029518
596.077000	0.111431
596.272000	0.275520
596.467000	0.266208
596.662000	0.142681
596.857000	0.170142
597.053000	0.194453
597.248000	0.182725
597.443000	0.196813
597.638000	0.184140
597.833000	0.017620
598.028000	0.177510
598.223000	0.294916
598.418000	0.238274
598.613000	0.151769
598.808000	0.225225
599.003000	0.217392
599.198000	0.094903
599.393000	0.167628
599.589000	0.232194
599.784000	0.085612
599.979000	0.207590
600.174000	0.433129
600.369000	0.216088
600.564000	0.260071
600.759000	0.508070
600.954000	0.611605
601.149000	0.422625
601.344000	0.135369
601.539000	0.351358
601.734000	0.292923
601.929000	0.082040
602.124000	0.123126
602.320000	0.360905
602.515000	0.648626
602.710000	0.539903
602.905000	0.197710
603.100000	0.217572
603.295000	0.336280
603.490000	0.386804
603.685000	0.428178
603.880000	0.495626
604.075000	0.328012
604.270000	0.329462
604.465000	0.419045
604.660000	0.245616
604.856000	0.410769
605.051000	0.587801
605.246000	0.535925
605.441000	0.323788
605.636000	0.318584
605.831000	0.426039
606.026000	0.369040
606.221000	0.382443
606.416000	0.552330
606.611000	0.749066
606.806000	0.755979
607.001000	0.922018
607.196000	0.728722
607.391000	0.552088
607.587000	0.742679
607.782000	0.732186
607.977000	0.599949
608.172000	0.927960
608.367000	0.941725
608.562000	0.813967
608.757000	0.792234
608.952000	0.738738
609.147000	1.090953
609.342000	1.064963
609.537000	0.914403
609.732000	0.972170
609.927000	0.928666
610.122000	1.065231
610.318000	1.466965
610.513000	1.570462
610.708000	1.456952
610.903000	1.586318
611.098000	1.657201
611.293000	1.594797
611.488000	1.617521
611.683000	1.586924
611.878000	1.561747
612.073000	1.594085
612.268000	1.572457
612.463000	1.668082
612.658000	1.634544
612.854000	1.582441
613.049000	1.488464
613.244000	1.660011
613.439000	1.767962
613.634000	1.496746
613.829000	1.622853
614.024000	1.529859
614.219000	1.563487
614.414000	1.771692
614.609000	1.575523
614.804000	1.532537
614.999000	1.606824
615.194000	1.706645
615.389000	1.785416
615.585000	1.630127
615.780000	1.862395
615.975000	1.847825
616.170000	1.885757
616.365000	2.154492
616.560000	2.322385
616.755000	2.172713
616.950000	2.135257
617.145000	2.297365
617.340000	2.213800
617.535000	1.956486
617.730000	2.171033
617.925000	2.106229
618.120000	2.153531
618.316000	2.445123
618.511000	2.393348
618.706000	2.304658
618.901000	2.456382
619.096000	2.620860
619.291000	2.565012
619.486000	2.739197
619.681000	2.500211
619.876000	2.469007
620.071000	2.636621
620.266000	2.967373
620.461000	3.129835
620.656000	3.070891
620.852000	3.052281
621.047000	3.024439
621.242000	2.975818
621.437000	3.295200
621.632000	3.424469
621.827000	3.367223
622.022000	3.183700
622.217000	3.366468
622.412000	3.582659
622.607000	3.669244
622.802000	3.464106
622.997000	3.470341
623.192000	3.633572
623.387000	3.777879
623.583000	3.601398
623.778000	3.880507
623.973000	4.035770
624.168000	4.174005
624.363000	4.214599
624.558000	4.278156
624.753000	4.062371
624.948000	4.420848
625.143000	4.512886
625.338000	4.432349
625.533000	4.395567
625.728000	4.632843
625.923000	4.892286
626.119000	4.764040
626.314000	4.591416
626.509000	4.679876
626.704000	4.831042
626.899000	4.879805
627.094000	4.899473
627.289000	4.986477
627.484000	5.151794
627.679000	5.232398
627.874000	5.284983
628.069000	5.694498
628.264000	5.675504
628.459000	5.622923
628.654000	5.582024
628.850000	5.519715
629.045000	5.758681
629.240000	5.713805
629.435000	5.754448
629.630000	5.965836
629.825000	5.974415
630.020000	6.029609
630.215000	5.883986
630.410000	6.000794
630.605000	6.029539
630.800000	6.156604
630.995000	6.271265
631.190000	6.562223
631.385000	6.424253
631.581000	6.195305
631.776000	6.279291
631.971000	6.097106
632.166000	6.203571
632.361000	6.001206
632.556000	6.045386
632.751000	6.170865
632.946000	5.976210
633.141000	5.772817
633.336000	5.729540
633.531000	5.828647
633.726000	5.749160
633.921000	5.508304
634.117000	5.188995
634.312000	4.976921
634.507000	5.000506
634.702000	5.002172
634.897000	4.896993
635.092000	4.938295
635.287000	4.907000
635.482000	4.635659
635.677000	4.594831
635.872000	4.546568
636.067000	4.568132
636.262000	4.216519
636.457000	3.772486
636.652000	3.646985
636.848000	3.528168
637.043000	3.458222
637.238000	3.355460
637.433000	3.130474
637.628000	3.121960
637.823000	3.149896
638.018000	3.046496
638.213000	2.866695
638.408000	2.712616
638.603000	2.509725
638.798000	2.410769
638.993000	2.405970
639.188000	2.323779
639.383000	2.168060
639.579000	2.326131
639.774000	2.108453
639.969000	1.917240
640.164000	1.772719
640.359000	1.703423
640.554000	1.882453
640.749000	1.853320
640.944000	1.777092
641.139000	1.696241
641.334000	1.470055
641.529000	1.053799
641.724000	1.158583
641.919000	1.302182
642.115000	1.592151
642.310000	1.522596
642.505000	1.272242
642.700000	1.208129
642.895000	1.073741
643.090000	1.223974
643.285000	1.362176
643.480000	1.198866
643.675000	1.140821
643.870000	1.483567
644.065000	1.239539
644.260000	0.813541
644.455000	0.949426
644.650000	0.822937
644.846000	0.734130
645.041000	0.529900
645.236000	0.423601
645.431000	0.483958
645.626000	0.294742
645.821000	0.453145
646.016000	0.561438
646.211000	0.956766
646.406000	0.728064
646.601000	0.634842
646.796000	0.522543
646.991000	0.311056
647.186000	0.380780
647.381000	0.535962
647.577000	0.562158
647.772000	0.669867
647.967000	0.552402
648.162000	0.416143
648.357000	0.419680
648.552000	0.635665
648.747000	0.492180
648.942000	0.457749
649.137000	0.497981
649.332000	0.338106
649.527000	0.237302
649.722000	0.368733
649.917000	0.558670
650.113000	0.285535
650.308000	0.130027
650.503000	0.185897
650.698000	0.356738
650.893000	0.281804
651.088000	0.337163
651.283000	0.327845
651.478000	0.055395
651.673000	0.316469
651.868000	0.154073
652.063000	0.279415
652.258000	0.469344
652.453000	0.689517
652.648000	0.328654
652.844000	0.129197
653.039000	0.214277
653.234000	-0.134307
653.429000	-0.292479
653.624000	-0.075772
653.819000	0.210984
654.014000	0.161337
654.209000	0.002135
654.404000	0.081355
654.599000	0.000102
654.794000	0.065158
654.989000	0.232549
655.184000	0.117483
655.380000	-0.104945
655.575000	-0.072318
655.770000	-0.102066
655.965000	-0.032600
656.160000	-0.025460
656.355000	0.185134
656.550000	0.079059
656.745000	0.039095
656.940000	0.010372
657.135000	0.143840
657.330000	0.059675
657.525000	-0.172576
657.720000	0.112335
657.915000	0.245962
658.111000	0.072139
658.306000	0.179307
658.501000	0.052749
658.696000	-0.081414
658.891000	0.111596
659.086000	-0.012280
659.281000	0.039381
659.476000	-0.121000
659.671000	-0.485302
659.866000	-0.257720
660.061000	0.075741
660.256000	0.187730
660.451000	0.074806
660.646000	-0.137030
660.842000	0.000104
661.037000	-0.136200
661.232000	-0.194746
661.427000	-0.087352
661.622000	-0.138624
661.817000	-0.209496
662.012000	-0.067847
662.207000	-0.198658
662.402000	-0.211743
662.597000	0.018995
662.792000	-0.332272
662.987000	-0.345619
663.182000	-0.015643
663.378000	0.006409
663.573000	-0.386450
663.768000	-0.423488
663.963000	-0.200874
664.158000	-0.162844
664.353000	0.044440
664.548000	0.179493
664.743000	0.044475
664.938000	-0.174185
665.133000	-0.225240
665.328000	0.138904
665.523000	0.125376
665.718000	-0.017943
665.913000	-0.059440
666.109000	-0.123515
666.304000	0.118361
666.499000	0.006495
666.694000	-0.075701
666.889000	0.164516
667.084000	0.022602
667.279000	0.001178
667.474000	-0.045952
667.669000	-0.039515
667.864000	-0.048139
668.059000	0.016214
668.254000	-0.055800
668.449000	-0.205477
668.644000	-0.052682
668.840000	0.210991
669.035000	-0.137808
669.230000	-0.396666
669.425000	0.004436
669.620000	-0.129705
669.815000	-0.288687
670.010000	-0.277573
670.205000	-0.063942
670.400000	-0.018314
670.595000	-0.052065
670.790000	-0.154447
670.985000	-0.040205
671.180000	0.205173
671.376000	-0.195313
671.571000	-0.346740
671.766000	-0.270774
671.961000	-0.299402
672.156000	-0.296480
672.351000	-0.175688
672.546000	-0.148532
672.741000	-0.003186
672.936000	-0.043893
673.131000	0.334340
673.326000	0.079753
673.521000	-0.252307
673.716000	-0.369651
673.911000	-0.462976
674.107000	0.119985
674.302000	0.371090
674.497000	0.001223
674.692000	-0.317030
674.887000	-0.320344
675.082000	-0.150853
675.277000	-0.008847
675.472000	-0.094077
675.667000	-0.179570
675.862000	-0.186403
676.057000	-0.141554
676.252000	-0.091151
676.447000	-0.134295
676.643000	0.049769
676.838000	0.226251
677.033000	-0.074618
677.228000	0.257786
677.423000	0.220461
677.618000	-0.212858
677.813000	-0.362978
678.008000	-0.103797
678.203000	0.040122
678.398000	-0.188838
678.593000	-0.183175
678.788000	-0.042408
678.983000	-0.197319
679.178000	-0.143441
679.374000	-0.220708
679.569000	-0.052904
679.764000	-0.108550
679.959000	-0.326662
680.154000	-0.373089
680.349000	-0.510457
680.544000	-0.388979
680.739000	-0.288083
680.934000	-0.379107
681.129000	-0.344006
681.324000	-0.402829
681.519000	-0.270532
681.714000	-0.304617
681.909000	-0.272639
682.105000	-0.394321
682.300000	-0.138943
682.495000	-0.028151
682.690000	0.060326
682.885000	0.049741
683.080000	-0.204849
683.275000	-0.232215
683.470000	0.175767
683.665000	0.390250
683.860000	0.278924
684.055000	0.003696
684.250000	-0.246898
684.445000	-0.220294
684.641000	0.035970
684.836000	-0.192596
685.031000	-0.114005
685.226000	-0.079274
685.421000	0.015803
685.616000	-0.186860
685.811000	-0.178843
686.006000	0.163351
686.201000	-0.022883
686.396000	-0.454424
686.591000	-0.346952
686.786000	0.148930
686.981000	-0.027935
687.176000	-0.101372
687.372000	-0.132090
687.567000	0.241397
687.762000	0.040651
687.957000	-0.229527
688.152000	-0.228785
688.347000	-0.034398
688.542000	-0.344712
688.737000	-0.707775
688.932000	-0.690415
689.127000	-0.227898
689.322000	-0.084385
689.517000	-0.309262
689.712000	-0.406368
689.908000	-0.247014
690.103000	-0.303770
690.298000	-0.233775
690.493000	-0.185478
690.688000	-0.379074
690.883000	-0.226664
691.078000	0.078269
691.273000	0.179118
691.468000	-0.035237
691.663000	-0.092420
691.858000	0.007735
692.053000	0.029289
692.248000	0.139742
692.443000	0.016626
692.639000	-0.185558
692.834000	0.063876
693.029000	0.632750
693.224000	0.406364
693.419000	-0.187145
693.614000	-0.213201
693.809000	-0.321387
694.004000	-0.401879
694.199000	-0.370859
694.394000	-0.061912
694.589000	-0.358279
694.784000	-0.401384
694.979000	-0.191567
695.174000	-0.192053
695.370000	0.356622
695.565000	0.062506
695.760000	-0.236918
695.955000	0.194667
696.150000	0.304434
696.345000	-0.195221
696.540000	-0.057658
696.740000	-0.140303
696.940000	0.072372
697.140000	0.125554
697.340000	-0.113605
697.539000	0.070263
697.739000	-0.010458
697.939000	-0.085971
698.139000	-0.367183
698.339000	-0.632104
698.539000	-0.394955
698.739000	-0.452037
698.939000	-0.383010
699.138000	-0.414507
699.338000	0.297015
699.538000	0.315598
699.738000	-0.154694
699.938000	-0.196596
700.138000	-0.253618
700.338000	-0.365350
700.538000	-0.215630
700.737000	-0.146374
700.937000	-0.505717
701.137000	-0.586417
701.337000	-0.178241
701.537000	0.023336
701.737000	-0.080277
701.937000	-0.217061
702.137000	-0.177456
702.337000	-0.296803
702.536000	-0.426299
702.736000	-0.435049
702.936000	-0.558054
703.136000	0.019443
703.336000	0.040117
703.536000	-0.244553
703.736000	-0.593148
703.936000	-0.449438
704.135000	-0.399439
704.335000	-0.106621
704.535000	-0.336308
704.735000	-0.513398
704.935000	0.039024
705.135000	-0.040330
705.335000	-0.267293
705.535000	0.030964
705.735000	0.060377
705.934000	-0.109071
706.134000	-0.331804
706.334000	-0.296088
706.534000	-0.319009
706.734000	-0.279865
706.934000	-0.395222
707.134000	-0.393918
707.334000	-0.109866
707.533000	-0.122785
707.733000	-0.246946
707.933000	-0.322100
708.133000	0.042490
708.333000	0.089537
708.533000	-0.143439
708.733000	0.169286
708.933000	-0.052495
709.132000	-0.235049
709.332000	-0.261147
709.532000	-0.324686
709.732000	-0.109881
709.932000	-0.552724
710.132000	-0.606771
710.332000	-0.769598
710.532000	-0.160249
710.732000	0.001580
710.931000	-0.262838
711.131000	-0.263866
711.331000	-0.077820
711.531000	-0.265963
711.731000	-0.275332
711.931000	-0.140726
712.131000	-0.121701
712.331000	-0.114484
712.530000	-0.236082
712.730000	-0.371838
712.930000	-0.172711
713.130000	-0.268064
713.330000	-0.382234
713.530000	-0.162450
713.730000	0.467643
713.930000	0.027982
714.129000	-0.416954
714.329000	-0.485830
714.529000	-0.145096
714.729000	0.048661
714.929000	-0.088063
715.129000	-0.282591
715.329000	-0.173780
715.529000	-0.199652
715.729000	0.232071
715.928000	0.066790
716.128000	-0.140627
716.328000	-0.086054
716.528000	-0.188820
716.728000	-0.022176
716.928000	-0.212699
717.128000	-0.187814
717.328000	-0.204190
717.527000	-0.301505
717.727000	-0.279377
717.927000	-0.244285
718.127000	-0.295441
718.327000	-0.679287
718.527000	-0.539221
718.727000	-0.181811
718.927000	-0.361419
719.127000	-0.561023
719.326000	-0.254441
719.526000	0.001660
719.726000	-0.161676
719.926000	-0.555454
720.126000	-0.462928
720.326000	-0.294353
720.526000	-0.409803
720.726000	-0.255701
720.925000	-0.010515
721.125000	-0.467890
721.325000	-0.259556
721.525000	-0.186678
721.725000	-0.326071
721.925000	-0.354636
722.125000	-0.342376
722.325000	0.155274
722.524000	-0.110763
722.724000	-0.587509
722.924000	-0.659963
723.124000	-0.412159
723.324000	0.024888
723.524000	0.028005
723.724000	-0.531027
723.924000	-0.313791
724.124000	-0.100902
724.323000	-0.133724
724.523000	-0.228486
724.723000	0.319695
724.923000	0.138924
725.123000	-0.017013
725.323000	-0.012353
725.523000	-0.103239
725.723000	-0.240848
725.922000	-0.324156
726.122000	-0.316678
726.322000	-0.393022
726.522000	-0.346180
726.722000	0.019027
726.922000	-0.232406
727.122000	-0.140181
727.322000	0.262248
727.521000	0.000158
727.721000	-0.312099
727.921000	-0.191643
728.121000	-0.178917
728.321000	-0.555521
728.521000	-0.408913
728.721000	-0.186389
728.921000	0.191423
729.121000	0.665897
729.320000	0.110440
729.520000	-0.225215
729.720000	-0.380888
729.920000	-0.355355
730.120000	-0.203622
730.320000	-0.089916
730.520000	-0.344203
730.720000	-0.405014
730.919000	-0.456585
731.119000	-0.041878
731.319000	-0.412821
731.519000	-0.592509
731.719000	-0.257505
731.919000	-0.367899
732.119000	-0.764790
732.319000	-0.789999
732.519000	-0.294880
732.718000	-0.522143
732.918000	-0.383735
733.118000	-0.273330
733.318000	-0.011333
733.518000	-0.259356
733.718000	-0.759740
733.918000	-0.699290
734.118000	-0.468718
734.317000	-0.173285
734.517000	-0.379246
734.717000	-0.344607
734.917000	-0.016447
735.117000	-0.008149
735.317000	-0.001496
735.517000	0.028509
735.717000	0.143969
735.916000	-0.399528
736.116000	-0.414219
736.316000	-0.319264
736.516000	-0.256978
736.716000	-0.208344
736.916000	-0.624541
737.116000	-0.500335
737.316000	0.056149
737.516000	0.097053
737.715000	0.069902
737.915000	-0.491581
738.115000	-0.530695
738.315000	-0.218482
738.515000	-0.488288
738.715000	-0.432746
738.915000	-0.051435
739.115000	-0.378904
739.314000	-0.287322
739.514000	0.031271
739.714000	0.069456
739.914000	0.048813
740.114000	-0.102509
740.314000	0.041974
740.514000	0.268804
740.714000	-0.360377
740.913000	-0.669396
741.113000	-0.552822
741.313000	-0.245602
741.513000	-0.230448
741.713000	-0.075728
741.913000	-0.083180
742.113000	-0.219410
742.313000	-0.674188
742.513000	-0.291136
742.712000	-0.202976
742.912000	-0.575577
743.112000	-0.418342
743.312000	-0.675225
743.512000	-0.619291
743.712000	-0.381701
743.912000	-0.808118
744.112000	-0.902515
744.311000	-0.937540
744.511000	-0.536628
744.711000	-0.077995
744.911000	-0.429496
745.111000	-0.461019
745.311000	-0.080181
745.511000	-0.363780
745.711000	-0.472133
745.911000	-0.241781
746.110000	-0.667369
746.310000	-0.785683
746.510000	-0.517074
746.710000	-0.182888
746.910000	-0.007218
747.110000	-0.457714
747.310000	-0.707364
747.510000	-0.540420
747.709000	-0.302052
747.909000	-0.220527
748.109000	0.099657
748.309000	-0.214202
748.509000	-0.557346
748.709000	-0.580207
748.909000	-0.311654
749.109000	-0.356673
749.308000	-0.290530
749.508000	-0.430816
749.708000	-0.295510
749.908000	-0.018891
750.108000	-0.024689
750.308000	-0.710401
750.508000	0.032925
750.708000	-0.487106
750.908000	-0.837532
751.107000	-0.148893
751.307000	0.524281
751.507000	-0.060011
751.707000	-0.240320
751.907000	-0.297297
752.107000	-0.099304
752.307000	-0.563575
752.507000	-0.406075
752.706000	-0.386186
752.906000	0.674361
753.106000	-0.222674
753.306000	-0.886110
753.506000	0.075581
753.706000	-0.284045
753.906000	-0.190652
754.106000	-0.065493
754.305000	0.000199
754.505000	0.112114
754.705000	-0.202746
754.905000	-0.289578
755.105000	0.054616
755.305000	-0.694041
755.505000	-0.530075
755.705000	-0.170022
755.905000	-0.192892
756.104000	-0.640614
756.304000	-1.040096
756.504000	-1.256862
756.704000	-0.180602
756.904000	0.039221
757.104000	-0.401705
757.304000	-0.482137
757.504000	0.142697
757.703000	-0.228974
757.903000	0.027113
758.103000	0.253224
758.303000	-0.045546
758.503000	-0.256274
758.703000	-0.478422
758.903000	-0.652191
759.103000	-0.136083
759.303000	-0.109347
759.502000	-0.327385
759.702000	-0.196271
759.902000	-0.403254
760.102000	-0.244575
760.302000	-0.273164
760.502000	-0.010434
760.702000	0.070584
760.902000	-0.168606
761.101000	-0.520561
761.301000	-0.886440
761.501000	-0.577477
761.701000	-0.645346
761.901000	-0.428073
762.101000	-0.192709
762.301000	-0.290259
762.501000	-0.544331
762.700000	-0.583890
762.900000	-0.621163
763.100000	-0.325014
763.300000	0.035286
763.500000	-0.263043
763.703000	-0.378050
763.905000	-0.669206
764.108000	0.097137
764.311000	-0.248712
764.513000	-0.471778
764.716000	-0.183585
764.919000	-0.121741
765.121000	-0.658631
765.324000	-0.865313
765.527000	-0.711110
765.729000	-0.440432
765.932000	0.105527
766.135000	-0.013215
766.337000	-0.183536
766.540000	-0.325785
766.743000	-0.133412
766.945000	-0.619171
767.148000	-0.971754
767.351000	-0.822104
767.553000	-0.256718
767.756000	-0.532420
767.958000	-0.737208
768.161000	-0.359698
768.364000	-0.710842
768.566000	-0.955287
768.769000	-0.282554
768.972000	0.014022
769.174000	-0.534700
769.377000	-1.012572
769.580000	-0.993874
769.782000	-0.191934
769.985000	-0.694238
770.188000	-1.627155
770.390000	-0.659557
770.593000	0.832123
770.796000	0.320609
770.998000	-0.271191
771.201000	-0.543187
771.404000	-0.023222
771.606000	-0.440140
771.809000	-0.536518
772.012000	-0.377159
772.214000	-1.064383
772.417000	-1.163652
772.620000	-0.359855
772.822000	-0.550013
773.025000	-0.585696
773.228000	-0.696115
773.430000	-0.732984
773.633000	-0.319366
773.836000	-0.152616
774.038000	-0.186757
774.241000	-0.378445
774.444000	-0.434902
774.646000	0.528717
774.849000	0.062838
775.052000	-0.317506
775.254000	-0.093825
775.457000	-0.423877
775.659000	-0.468372
775.862000	-0.618281
776.065000	-0.324049
776.267000	0.334787
776.470000	0.567616
776.673000	-0.282420
776.875000	0.315508
777.078000	0.278407
777.281000	-0.609628
777.483000	-0.031696
777.686000	0.123331
777.889000	0.103749
778.091000	0.022503
778.294000	-0.967720
778.497000	-0.642597
778.699000	-0.494643
778.902000	-0.454123
779.105000	-0.344899
779.307000	0.529899
779.510000	-0.405976
779.713000	-0.402551
779.915000	-0.637323
780.118000	0.645988
780.321000	0.752440
780.523000	-0.259465
780.726000	-0.693456
780.929000	-0.718423
781.131000	-0.618512
781.334000	-1.175962
781.537000	-1.143663
781.739000	-0.063355
781.942000	-0.638896
782.145000	-1.223226
782.347000	-1.129234
782.550000	-0.668647
782.753000	-0.663130
782.955000	-0.677824
783.158000	-0.584662
783.361000	-0.291632
783.563000	-0.317515
783.766000	-0.538507
783.968000	1.100200
784.171000	1.089611
784.374000	-0.124844
784.576000	-0.262901
784.779000	-0.020552
784.982000	0.442442
785.184000	-0.162837
785.387000	-0.207875
785.590000	0.110860
785.792000	0.383534
785.995000	0.392063
786.198000	-0.068676
786.400000	-0.441757
786.603000	-0.215967
786.806000	-0.303123
787.008000	-0.207295
787.211000	-0.226738
787.414000	-0.827785
787.616000	-0.427427
787.819000	-0.425738
788.022000	-1.109386
788.224000	-0.486919
788.427000	-1.045072
788.630000	-0.570433
788.832000	-0.295631
789.035000	-0.769476
789.238000	-1.301134
789.440000	-1.002014
789.643000	-0.007925
789.846000	-0.468369
790.048000	0.085439
790.251000	0.093704
790.454000	-0.304132
790.656000	0.462699
790.859000	-0.303202
791.062000	-0.712772
791.264000	-0.090853
791.467000	-0.917638
791.669000	-1.302233
791.872000	-0.516071
792.075000	-0.950382
792.277000	-0.579690
792.480000	-0.223997
792.683000	-0.760181
792.885000	-1.043567
793.088000	-0.803030
793.291000	-0.943013
793.493000	-1.066032
793.696000	-0.417380
793.899000	0.034241
794.101000	-0.243646
794.304000	-0.554061
794.507000	-0.372674
794.709000	-0.016844
794.912000	-0.435406
795.115000	-0.852672
795.317000	-0.622747
795.520000	-0.247708
795.723000	-0.407949
795.925000	-0.910165
796.128000	-1.152245
796.331000	-0.598209
796.533000	-0.969487
796.736000	-0.491423
796.939000	-0.334169
797.141000	-0.479191
797.344000	0.250571
797.547000	0.076883
797.749000	0.017995
797.952000	-0.397002
798.155000	-0.822150
798.357000	-1.130679
798.560000	-0.936527
798.763000	-0.101360
798.965000	-0.241660
799.168000	-0.335236
799.371000	-0.233650
799.573000	-0.478187
799.776000	-1.063594
799.978000	-1.040067
800.181000	-0.402703
800.384000	1.092834
800.586000	0.450511
800.789000	-1.033509
800.992000	-0.959883
801.194000	-1.086859
801.397000	-1.046925
801.600000	-0.888136
801.802000	-0.137760
802.005000	-0.218225
802.208000	-1.277596
802.410000	-0.480808
802.613000	-0.235115
802.816000	-0.300516
803.018000	-0.951215
803.221000	-0.806568
803.424000	0.206354
803.626000	0.000313
803.829000	-0.325899
804.032000	0.176432
804.234000	0.654262
804.437000	-0.375430
804.640000	-0.223681
804.842000	-0.334866
805.045000	-0.889475
805.248000	-0.579129
805.450000	-0.483144
805.653000	-0.515014
805.856000	-0.763844
806.058000	0.298586
806.261000	-0.623334
806.464000	-0.858867
806.666000	-0.441233
806.869000	-0.645169
807.072000	-1.721887
807.274000	-1.963182
807.477000	-0.858817
807.679000	-0.344920
807.882000	-0.822333
808.085000	-0.729281
808.287000	-0.141132
808.490000	-0.952241
808.693000	-0.689039
808.895000	-0.544520
809.098000	-0.495228
809.301000	-0.324516
809.503000	-0.419140
809.706000	0.261425
809.909000	0.395253
810.111000	0.345536
810.314000	-0.013101
810.517000	-0.739615
810.719000	-0.905402
810.922000	-0.442614
811.125000	0.438964
811.327000	0.336280
811.530000	-0.282423
811.735000	-0.516711
811.940000	-0.780380
812.146000	-0.636448
812.351000	-0.167427
812.556000	-0.322534
812.761000	-0.823194
812.967000	-0.138079
813.172000	-0.113735
813.377000	-0.249327
813.582000	0.334660
813.788000	-0.167959
813.993000	-1.020967
814.198000	-0.076674
814.403000	-0.877934
814.609000	-0.425708
814.814000	-0.501905
815.019000	0.724120
815.224000	0.508493
815.429000	-0.702980
815.635000	-0.298965
815.840000	-0.238647
816.045000	-0.006809
816.250000	0.086501
816.456000	-1.081854
816.661000	-1.823641
816.866000	-1.295535
817.071000	-1.233221
817.277000	-1.900173
817.482000	-0.940604
817.687000	-0.163654
817.892000	-0.300203
818.097000	-0.095230
818.303000	0.434230
818.508000	1.090246
818.713000	7.850939
818.918000	3.972689
819.124000	0.624719
819.329000	-0.437417
819.534000	-0.665708
819.739000	-0.944871
819.945000	-0.739945
820.150000	-0.330525
820.355000	-0.425356
820.560000	-0.153678
820.766000	-0.176674
820.971000	-0.162538
821.176000	-1.503612
821.381000	-2.154426
821.586000	-1.096813
821.792000	0.375039
821.997000	-0.317225
822.202000	-0.696742
822.407000	-1.060000
822.613000	-1.046826
822.818000	-0.694431
823.023000	-0.362905
823.228000	-0.454713
823.434000	0.202496
823.639000	0.230195
823.844000	-0.702559
824.049000	0.305228
824.255000	0.510098
824.460000	-0.342309
824.665000	-0.946308
824.870000	0.352654
825.075000	0.186656
825.281000	0.195168
825.486000	0.696135
825.691000	-1.369147
825.896000	-2.162262
826.102000	-0.838704
826.307000	-0.703908
826.512000	-0.839850
826.717000	-0.449383
826.923000	-0.556322
827.128000	-0.419073
827.333000	-1.114503
827.538000	-0.147703
827.744000	0.165384
827.949000	-0.789952
828.154000	-0.259975
828.359000	0.595289
828.564000	-0.240390
828.770000	-0.662451
828.975000	0.664789
829.180000	0.306992
829.385000	-1.300965
829.591000	-0.939673
829.796000	-0.283438
830.001000	-0.381610
830.206000	-1.064131
830.412000	-0.867367
830.617000	-0.728745
830.822000	0.270411
831.027000	-0.559714
831.232000	-1.092236
831.438000	-0.822688
831.643000	-0.168509
831.848000	-0.525004
832.053000	-0.452905
832.259000	-0.584399
832.464000	-2.187910
832.669000	-1.738996
832.874000	-1.332715
833.080000	-1.246107
833.285000	0.494576
833.490000	0.177043
833.695000	-1.168359
833.901000	-0.758609
834.106000	-1.072795
834.311000	-1.037976
834.516000	-0.341720
834.721000	-0.542864
834.927000	0.477822
835.132000	-0.222752
835.337000	0.867246
835.542000	0.119778
835.748000	-1.227056
835.953000	-0.132828
836.158000	-0.133154
836.363000	-0.013415
836.569000	0.144980
836.774000	-0.826112
836.979000	-1.369487
837.184000	-1.775890
837.390000	-1.276711
837.595000	-0.748116
837.800000	-0.480856
838.005000	-0.141959
838.210000	-0.332016
838.416000	-0.867349
838.621000	-0.707125
838.826000	-0.721027
839.031000	-0.628675
839.237000	-1.151104
839.442000	-1.845971
839.647000	-2.114204
839.852000	-1.365166
840.058000	-1.199385
840.263000	-1.082739
840.468000	-1.741290
840.673000	-0.627595
840.878000	-0.574160
841.084000	-1.437284
841.289000	-0.583988
841.494000	1.945734
841.699000	1.726979
841.905000	0.221270
842.110000	0.671431
842.315000	-0.894283
842.520000	-0.847933
842.726000	-1.199258
842.931000	-1.294391
843.136000	-0.162523
843.341000	-1.821621
843.547000	-1.064919
843.752000	-0.619991
843.957000	-1.410928
844.162000	-1.464376
844.367000	-1.045883
844.573000	-0.056990
844.778000	0.365543
844.983000	0.063251
845.188000	-0.083542
845.394000	-1.521043
845.599000	-1.025466
845.804000	-0.853844
846.009000	-0.352127
846.215000	-1.389805
846.420000	-0.892974
846.625000	-0.237066
846.830000	-0.064030
847.036000	-0.832104
847.241000	-1.025673
847.446000	-0.688947
847.651000	-0.877211
847.856000	-1.325260
848.062000	-1.240909
848.267000	0.099898
848.472000	-0.907740
848.677000	-2.021045
848.883000	-0.298723
849.088000	1.125816
849.293000	-0.398484
849.498000	-1.004201
849.704000	-0.010695
849.909000	-0.490421
850.114000	-1.455508
850.319000	-0.157811
850.524000	-0.380489
850.730000	-0.783025
850.935000	-0.964193
851.140000	0.403622
851.345000	0.559003
851.551000	-0.265041
851.756000	-0.034252
851.961000	-0.796870
852.166000	-0.762341
852.372000	-0.577471
852.577000	-0.616981
852.782000	-0.728332
852.987000	0.703803
853.193000	-0.100228
853.398000	-0.325690
853.603000	-1.456095
853.808000	-1.873274
854.013000	-0.969236
854.219000	0.258493
854.424000	2.270435
854.629000	2.100459
854.834000	-0.740463
855.040000	-0.317278
855.245000	0.475850
855.450000	-1.937025
855.655000	-3.136368
855.861000	-2.996603
856.066000	-1.931196
856.271000	-1.779263
856.476000	-0.192292
856.682000	-0.749015
856.887000	-3.269922
857.092000	-2.000837
857.297000	0.189020
857.502000	-0.339144
857.708000	-0.516327
857.913000	0.676369
858.118000	-0.082218
858.323000	-0.568271
858.529000	-0.407833
858.734000	-0.626533
858.939000	-0.698984
859.144000	-1.403344
859.350000	-2.234459
859.555000	-1.892532
859.760000	-0.473602
859.965000	0.163017
860.171000	-1.199540
860.376000	0.197155
860.581000	-1.654364
860.786000	-4.035559
860.991000	-3.072822
861.197000	-1.932334
861.402000	-0.742885
861.607000	-1.567100
861.812000	-2.474518
862.018000	-2.095570
862.223000	-1.240654
862.428000	-0.654019
862.633000	0.527368
862.839000	-0.074064
863.044000	-1.020208
863.249000	-1.905735
863.454000	0.158000
863.659000	-0.582464
863.865000	-1.343776
864.070000	-1.575423
864.275000	-2.028141
864.480000	-1.432246
864.686000	-3.092208
864.891000	-2.549755
865.096000	-0.111612
865.301000	0.542225
865.507000	-0.020515
865.712000	0.297801
865.917000	-0.462031
866.122000	0.371915
866.328000	-2.626782
866.533000	-2.711036
866.738000	0.453254
866.943000	0.518993
867.148000	0.550866
867.354000	-1.421897
867.559000	-2.516953
867.764000	-0.791263
867.969000	-0.353046
868.175000	-1.703448
868.380000	-1.923192
868.585000	-2.575223
868.790000	-0.828782
868.996000	-0.856626
869.201000	-2.107185
869.406000	-3.294901
869.611000	-2.562819
869.817000	-2.026800
870.022000	2.525943
870.227000	0.484364
870.432000	-1.814108
870.637000	-0.485785
870.843000	-1.016212
871.048000	-0.879001
871.253000	0.169166
871.458000	-0.622397
871.664000	-2.259984
871.869000	-2.413523
872.074000	-2.030217
872.279000	-0.936151
872.485000	-1.115062
872.690000	-1.190926
872.895000	-1.718883
873.100000	-2.482592
873.306000	-2.206304
873.511000	-0.657115
873.716000	0.732533
873.921000	-1.178136
874.126000	-1.621812
874.332000	-0.907721
874.537000	-0.137769
874.742000	-0.307965
874.947000	-0.668319
875.153000	1.343411
875.358000	-0.345928
875.563000	-1.038472
875.768000	-3.204695
875.974000	-3.417473
876.179000	-0.182498
876.384000	-0.233628
876.589000	-1.824276
876.794000	-1.073479
877.000000	-1.946386
877.205000	-3.169966
877.410000	-0.279556
877.615000	-2.102876
877.821000	-4.072749
878.026000	-2.858919
878.231000	-3.046597
878.436000	-3.086010
878.642000	-2.641113
878.847000	-1.392288
879.052000	0.320573
879.257000	-1.445970
879.463000	-2.896807
879.668000	-1.911128
879.873000	0.421613
880.078000	-1.984943
880.283000	-3.624563
880.489000	-4.091989
880.694000	-3.303585
880.899000	-1.114857
881.104000	-0.106651
881.310000	0.879174
881.515000	0.135171
881.720000	1.723762
881.925000	1.886888
882.131000	2.004324
882.336000	0.173693
882.541000	-2.262929
882.746000	-2.403040
882.952000	-2.952238
883.157000	-2.313934
883.362000	-2.456039
883.567000	-3.069219
883.772000	-3.219416
883.978000	-2.192049
884.183000	-0.327817
884.388000	-1.226674
884.593000	-3.505260
884.799000	1.121541
885.004000	1.070533
885.209000	-0.935328
885.414000	-0.465585
885.620000	-3.067852
885.825000	-0.192213
886.030000	-0.683480
886.235000	-2.084374
886.440000	-1.025926
886.646000	-3.364716
886.851000	-3.450672
887.056000	0.040563
887.261000	-0.325756
887.467000	-2.921865
887.672000	-0.679641
887.877000	-1.759581
888.082000	-3.779576
888.288000	-4.148507
888.493000	-6.245190
888.698000	-4.419626
888.903000	-1.112084
889.109000	-2.179817
889.314000	-0.009177
889.519000	-1.583609
889.724000	1.333609
889.929000	-0.304512
890.135000	-1.500104
890.340000	-1.387844
890.545000	-2.415537
890.750000	-3.750340
890.956000	-2.490972
891.161000	-0.174498
891.366000	-2.266604
891.571000	-0.974571
891.777000	-1.359855
891.982000	0.199390
892.187000	0.305084
892.392000	1.224755
892.598000	0.137796
892.803000	-0.518914
893.008000	-2.161591
893.213000	-1.986710
893.418000	-2.352089
893.624000	-2.567212
893.829000	-4.688072
894.034000	-1.640407
894.239000	-0.106736
894.445000	-3.150560
894.650000	-3.004280
894.855000	-2.477644
895.060000	-2.678824
895.266000	-2.467564
895.471000	-3.720397
895.676000	-0.544884
895.881000	0.122250
896.087000	-1.651246
896.292000	-2.815068
896.497000	1.293557
896.702000	-0.775687
896.907000	-2.944156
897.113000	1.774804
897.318000	2.309089
897.523000	0.817187
897.728000	-1.278192
897.934000	-1.262887
898.139000	-1.356104
898.344000	0.136998
898.549000	-0.909792
898.755000	-2.062758
898.960000	-2.259066
899.165000	-4.050700
899.370000	-1.036259
899.575000	2.578192
899.781000	-1.459059
899.986000	-2.455843
900.191000	-1.176863
900.396000	-1.832153
900.602000	-1.067830
900.807000	-1.288323
901.012000	-1.689657
901.217000	0.180248
901.423000	-1.735629
901.628000	-3.281163
901.833000	0.241105
902.038000	0.786963
902.244000	-2.253145
902.449000	-1.999633
902.654000	-2.474112
902.859000	-0.952363
903.064000	1.426179
903.270000	1.098446
903.475000	-2.996825
903.680000	-5.101359
903.885000	-3.961806
904.091000	-3.395290
904.296000	-4.311445
904.501000	-3.032127
904.706000	-2.296881
904.912000	0.996828
905.117000	-1.344500
905.322000	-3.577828
905.527000	-3.239709
905.733000	-2.572621
905.938000	-2.575771
906.143000	-2.777098
906.348000	-4.615596
906.553000	-1.531074
906.759000	0.344573
906.964000	0.213608
907.169000	-0.999339
907.374000	-3.925856
907.580000	-3.277593
907.785000	-2.639759
907.990000	10.486322
908.195000	7.214465
908.401000	0.083940
908.606000	-6.626229
908.811000	-7.780742
909.016000	-1.475680
909.221000	-0.884888
909.427000	-1.238097
909.632000	-3.173699
909.837000	-3.365581
910.042000	-4.155671
910.248000	-6.229522
910.453000	-1.330989
910.658000	-2.293933
910.863000	-3.704828
911.069000	-4.876236
911.274000	-0.348465
911.479000	1.175055
911.684000	-5.524172
911.890000	-2.286814
912.095000	-2.215727
912.300000	-5.402410
912.506000	-4.392420
912.711000	-3.874107
912.917000	-0.949392
913.123000	-0.935133
913.328000	-1.670536
913.534000	-1.471100
913.740000	8.976567
913.946000	4.612424
914.151000	-2.784064
914.357000	-4.069500
914.563000	0.079246
914.768000	-3.662987
914.974000	-5.648380
915.180000	-4.648631
915.385000	-2.982616
915.591000	-6.230245
915.797000	-1.151393
916.002000	1.734432
916.208000	-1.707100
916.414000	-3.815293
916.620000	-5.027040
916.825000	-1.536487
917.031000	-1.769382
917.237000	-7.226710
917.442000	-4.314989
917.648000	-5.347617
917.854000	-5.479423
918.059000	-0.066430
918.265000	0.495050
918.471000	-2.067169
918.676000	-5.044267
918.882000	-7.391073
919.088000	-5.818775
919.294000	-9.762151
919.499000	-5.638914
919.705000	-0.531582
919.911000	-2.273792
920.116000	-0.105939
920.322000	-5.443903
920.528000	-3.442625
920.733000	-6.192787
920.939000	-6.716678
921.145000	-5.228213
921.350000	-4.810306
921.556000	-2.724878
921.762000	-2.492941
921.968000	-3.892110
922.173000	-5.054445
922.379000	-6.762400
922.585000	-2.595827
922.790000	-4.238947
922.996000	-5.864963
923.202000	-6.368401
923.407000	-6.230202
923.613000	-3.663110
923.819000	-1.986963
924.024000	-2.587471
924.230000	-0.137251
924.436000	-2.380061
924.642000	3.994490
924.847000	0.411580
925.053000	-4.416271
925.259000	-7.965848
925.464000	-3.255380
925.670000	-3.891344
925.876000	-5.747689
926.081000	-5.485290
926.287000	-2.537621
926.493000	-2.091109
926.698000	-2.565293
926.904000	0.406144
927.110000	-2.329543
927.316000	-2.425297
927.521000	4.798037
927.727000	-0.989015
927.933000	-3.603773
928.138000	-3.308472
928.344000	-8.651531
928.550000	-3.599441
928.755000	-0.020492
928.961000	-4.951540
929.167000	-3.907191
929.372000	3.835472
929.578000	1.855475
929.784000	-4.804478
929.990000	-7.006633
930.195000	-4.087247
930.401000	-3.999276
930.607000	-2.988292
930.812000	-1.363746
931.018000	-3.776083
931.224000	-10.143481
931.429000	-7.445289
931.635000	-9.507105
931.841000	-8.662077
932.046000	-5.742090
932.252000	-2.611605
932.458000	5.026746
932.664000	1.984048
932.869000	-4.473225
933.075000	-7.576131
933.281000	-5.944095
933.486000	2.054870
933.692000	-2.534575
933.898000	-7.291425
934.103000	0.455775
934.309000	-3.480603
934.515000	-1.739868
934.720000	-0.191516
934.926000	4.369033
935.132000	4.484595
935.338000	-0.393574
935.543000	-8.010264
935.749000	-8.723183
935.955000	-10.219504
936.160000	-9.041614
936.366000	-1.865048
936.572000	-1.811097
936.777000	0.527606
936.983000	2.106104
937.189000	-3.300812
937.394000	-7.420584
937.600000	2.097820
937.806000	4.223002
938.012000	-4.510501
938.217000	6.251814
938.423000	4.022979
938.629000	-5.335093
938.834000	-11.679205
939.040000	-10.067096
939.246000	-4.088686
939.451000	-8.249640
939.657000	-4.803669
939.863000	-8.168414
940.068000	0.995102
940.274000	-4.310693
940.480000	-3.320288
940.686000	0.077258
940.891000	-1.893307
941.097000	8.163064
941.303000	0.301505
941.508000	-3.553110
941.714000	-0.109168
941.920000	-13.001080
942.125000	-2.794362
942.331000	0.350440
942.537000	6.930386
942.742000	2.608293
942.948000	-7.577195
943.154000	-8.305726
943.360000	-19.328842
943.565000	-6.855873
943.771000	2.325713
943.977000	6.325172
944.182000	-10.275187
944.388000	-11.834476
944.594000	2.508416
944.799000	10.204813
945.005000	2.330957
945.211000	3.223126
945.416000	0.984716
945.622000	-9.376501
945.828000	-6.330867
946.034000	1.266676
946.239000	-0.122720
946.445000	-4.203921
946.651000	-12.934010
946.856000	-11.387185
947.062000	-1.164044
947.268000	4.541772
947.473000	-9.234350
947.679000	-14.128973
947.885000	-1.443254
948.090000	2.403063
948.296000	15.032521
948.502000	3.954096
948.708000	-6.361870
948.913000	-7.839734
949.119000	4.560184
949.325000	-2.099629
949.530000	-16.487848
949.736000	-20.233964
949.942000	-8.964918
950.147000	-10.126591
950.353000	-8.866533
950.559000	-4.390463
950.764000	16.561878
950.970000	8.317502
951.176000	-6.123758
951.382000	-10.286672
951.587000	1.752149
951.793000	5.050474
951.999000	2.286263
952.204000	-8.243732
952.410000	-19.541979
952.616000	-8.786377
952.821000	-5.742054
953.027000	-11.737072
953.233000	-12.971206
953.438000	-12.596223
953.644000	-0.744498
953.850000	-2.853473
954.056000	-5.251208
954.261000	-6.093809
954.467000	0.291316
954.673000	7.725172
954.878000	-0.808168
955.084000	-2.437075
955.290000	-17.445589
955.495000	-17.062661
955.701000	-11.583566
955.907000	2.893850
956.112000	1.914740
956.318000	11.798829
956.524000	10.756499
956.730000	-4.782170
956.935000	-8.397866
957.141000	-10.327897
957.347000	1.466892
957.552000	-5.131273
957.758000	-18.488294
957.964000	-27.278646
958.169000	4.608548
958.375000	5.443746
958.581000	-7.470800
958.786000	-20.444120
958.992000	-25.404212
959.198000	-10.220353
959.404000	-3.566263
959.609000	-9.457124
959.815000	-10.333235
960.021000	4.765379
960.226000	-3.987421
960.432000	-23.790395
960.638000	-11.472292
960.843000	-6.338857
961.049000	-8.536330
961.255000	3.380934
961.460000	-8.633015
961.666000	-27.800221
961.872000	-16.684283
962.078000	-12.732078
962.283000	-20.054970
962.489000	-20.666860
962.695000	-14.891194
962.900000	-8.186126
963.106000	-5.205706
963.312000	-12.077664
963.517000	-15.941213
963.723000	-16.966831
963.929000	6.965171
964.134000	13.540957
964.340000	-10.438898
964.546000	-13.274614
964.752000	-16.493534
964.957000	-21.548421
965.163000	-2.407803
965.369000	-2.188569
965.574000	3.934506
965.780000	-2.530078
966.000000	-14.589945
966.220000	-8.420727
966.440000	-6.475718
966.661000	1.297811
966.881000	-17.415620
967.101000	-30.968419
967.321000	-29.057550
967.541000	-7.342615
967.761000	-13.600705
967.981000	-4.238606
968.202000	-1.147458
968.422000	5.119535
968.642000	2.453351
968.862000	4.239131
969.082000	-3.906821
969.302000	1.955668
969.522000	-4.532366
969.743000	10.919904
969.963000	-8.464046
970.183000	-21.306448
970.403000	-18.913069
970.623000	-14.526800
970.843000	9.633896
971.063000	3.636069
971.284000	-17.948073
971.504000	-26.278273
971.724000	-2.187259
971.944000	-17.355281
972.164000	-30.121383
972.384000	-19.642382
972.604000	-32.901896
972.825000	-39.169248
973.045000	-25.266218
973.265000	20.914116
973.485000	15.217491
973.705000	-5.787860
973.925000	-14.619085
974.145000	-44.209952
974.365000	-10.871766
974.586000	-9.167619
974.806000	-25.194042
975.026000	9.390206
975.246000	-4.206945
975.466000	-22.719117
975.686000	-9.833753
975.906000	-16.243023
976.127000	-36.230083
976.347000	-31.506907
976.567000	-10.009312
976.787000	-5.015695
977.007000	-8.390307
977.227000	-16.134196
977.447000	-22.890932
977.668000	-40.189192
977.888000	-21.096213
978.108000	-22.203383
978.328000	-15.555801
978.548000	15.994757
978.768000	23.625188
978.988000	6.177739
979.209000	-11.675493
979.429000	-11.643079
979.649000	5.754299
979.869000	-18.952155
980.089000	-32.769953
980.309000	-35.426917
980.529000	-45.793627
980.750000	-30.778394
980.970000	-40.381659
981.190000	-22.350032
981.410000	-18.302474
981.630000	-28.716757
981.850000	-21.955135
982.070000	-8.393632
982.291000	-34.641926
982.511000	-38.663296
982.731000	-4.661539
982.951000	-17.174520
983.171000	-13.620164
983.391000	-15.280249
983.611000	4.636926
983.832000	-19.482747
984.052000	-40.951437
984.272000	-20.784245
984.492000	-9.342873
984.712000	-19.162639
984.932000	-37.803357
985.152000	-44.167309
985.373000	-27.920809
985.593000	-4.109729
985.813000	-10.223196
986.033000	-25.542253
986.253000	5.150395
986.473000	15.794772
986.693000	-13.657962
986.914000	-29.682577
987.134000	5.952350
987.354000	-23.879040
987.574000	86.930931
987.794000	52.755952
988.014000	-35.000479
988.234000	-10.668377
988.455000	7.742468
988.675000	0.600811
988.895000	-19.244455
989.115000	-29.152863
989.335000	-2.672115
989.555000	12.531869
989.775000	-30.507707
989.995000	-24.827117
990.216000	-11.835482
990.436000	-12.958416
990.656000	12.123356
990.876000	-15.831822
991.096000	2.754809
991.316000	15.018384
991.536000	-17.448378
991.757000	-17.413673
991.977000	-54.620125
992.197000	-17.546857
992.417000	-29.747442
992.637000	-68.173561
992.857000	-71.185015
993.077000	-64.212821
993.298000	-21.036086
993.518000	-18.215304
993.738000	-71.810698
993.958000	-40.156633
994.178000	-43.156872
994.398000	-23.728570
994.618000	-58.169604
994.839000	-107.894719
995.059000	-20.552182
995.279000	50.647059
995.499000	8.176828
995.719000	-2.927312
995.939000	-22.031240
996.159000	-13.645998
996.380000	-1.406095
996.600000	-51.037149
996.820000	-13.461906
997.040000	35.380224
997.260000	-30.333282
997.480000	-26.746503
997.700000	-85.403200
997.921000	-42.477525
998.141000	47.812753
998.361000	1.550602
998.581000	-43.753455
998.801000	-67.229805
999.021000	-36.796366
999.241000	-11.533306
999.462000	-38.895258
999.682000	-81.070951
999.902000	-43.951541
1000.122000	-69.675611
1000.342000	-116.852490
1000.562000	-39.727132
1000.782000	-33.474396
1001.003000	-942.743509
