Wavelength	Irradiance
(nm)	(mW/cm2/nm)

294.396000	0.000000
294.577000	0.000000
294.757000	0.000000
294.938000	0.000000
295.118000	-0.000000
295.299000	0.000000
295.479000	0.000000
295.660000	-0.000000
295.840000	-0.000000
296.021000	-0.000000
296.202000	-0.000000
296.382000	-0.000000
296.563000	-0.000000
296.743000	-0.000000
296.924000	0.000000
297.104000	0.000000
297.285000	-0.000000
297.465000	-0.000000
297.646000	-0.000000
297.826000	0.000000
298.007000	0.000000
298.187000	-0.000000
298.368000	-0.000000
298.548000	0.000000
298.729000	0.000000
298.909000	-0.000000
299.090000	-0.000000
299.270000	-0.000000
299.451000	-0.000000
299.631000	-0.000000
299.812000	-0.000000
299.992000	0.000000
300.173000	0.000000
300.353000	-0.000000
300.534000	0.000000
300.714000	0.000000
300.895000	0.000000
301.075000	-0.000000
301.256000	0.000000
301.436000	0.000000
301.617000	-0.000000
301.797000	-0.000000
301.978000	0.000000
302.159000	0.000000
302.339000	0.000000
302.520000	-0.000000
302.700000	-0.000000
302.881000	0.000000
303.061000	0.000000
303.242000	0.000000
303.422000	0.000000
303.603000	-0.000000
303.783000	-0.000000
303.964000	-0.000000
304.144000	-0.000000
304.325000	-0.000000
304.505000	-0.000000
304.686000	-0.000000
304.866000	0.000000
305.047000	0.000000
305.227000	-0.000000
305.408000	-0.000000
305.588000	-0.000000
305.769000	-0.000000
305.949000	-0.000000
306.130000	-0.000000
306.310000	-0.000000
306.491000	-0.000000
306.671000	0.000000
306.852000	-0.000000
307.032000	-0.000000
307.213000	0.000000
307.393000	-0.000000
307.574000	0.000000
307.755000	0.000000
307.935000	0.000000
308.116000	-0.000000
308.296000	-0.000000
308.477000	0.000000
308.657000	0.000000
308.838000	0.000000
309.018000	0.000000
309.199000	-0.000000
309.379000	-0.000000
309.560000	0.000000
309.740000	-0.000000
309.921000	0.000000
310.101000	0.000000
310.282000	-0.000000
310.462000	-0.000000
310.643000	-0.000000
310.823000	-0.000000
311.004000	-0.000000
311.184000	-0.000000
311.365000	0.000000
311.545000	0.000000
311.726000	0.000000
311.906000	-0.000000
312.087000	0.000000
312.267000	-0.000000
312.448000	-0.000000
312.628000	-0.000000
312.809000	-0.000000
312.989000	-0.000000
313.170000	-0.000000
313.344000	-0.000000
313.518000	-0.000000
313.691000	-0.000000
313.865000	-0.000000
314.039000	-0.000000
314.213000	-0.000000
314.387000	-0.000000
314.560000	-0.000000
314.734000	-0.000000
314.908000	-0.000000
315.082000	-0.000000
315.255000	0.000000
315.429000	0.000000
315.603000	0.000000
315.777000	-0.000000
315.951000	0.000000
316.124000	-0.000000
316.298000	-0.000000
316.472000	-0.000000
316.646000	-0.000000
316.820000	-0.000000
316.993000	0.000000
317.167000	-0.000000
317.341000	-0.000000
317.515000	-0.000000
317.688000	-0.000000
317.862000	-0.000000
318.036000	-0.000000
318.210000	-0.000000
318.384000	-0.000000
318.557000	-0.000000
318.731000	-0.000000
318.905000	-0.000000
319.079000	0.000000
319.253000	0.000000
319.426000	0.000000
319.600000	0.000000
319.774000	-0.000000
319.948000	-0.000000
320.122000	0.000000
320.295000	-0.000000
320.469000	-0.000000
320.643000	-0.000000
320.817000	-0.000000
320.990000	-0.000000
321.164000	-0.000000
321.338000	-0.000000
321.512000	-0.000000
321.686000	-0.000000
321.859000	-0.000000
322.033000	0.000000
322.207000	-0.000000
322.381000	-0.000000
322.555000	0.000000
322.728000	0.000000
322.902000	-0.000000
323.076000	-0.000000
323.250000	-0.000000
323.423000	-0.000000
323.597000	-0.000000
323.771000	-0.000000
323.945000	-0.000000
324.119000	-0.000000
324.292000	0.000000
324.466000	-0.000000
324.640000	0.000000
324.814000	0.000000
324.988000	-0.000000
325.161000	-0.000000
325.335000	-0.000000
325.509000	-0.000000
325.683000	-0.000000
325.856000	-0.000000
326.030000	-0.000000
326.204000	-0.000000
326.378000	-0.000000
326.552000	-0.000000
326.725000	-0.000000
326.899000	-0.000000
327.073000	-0.000000
327.247000	-0.000000
327.421000	0.000000
327.594000	0.000000
327.768000	-0.000000
327.942000	-0.000000
328.116000	0.000000
328.289000	0.000000
328.463000	0.000000
328.637000	0.000000
328.811000	-0.000000
328.985000	-0.000000
329.158000	-0.000000
329.332000	-0.000000
329.506000	0.000000
329.680000	-0.000000
329.854000	-0.000000
330.027000	-0.000000
330.201000	0.000000
330.375000	0.000000
330.549000	0.000000
330.723000	-0.000000
330.896000	-0.000000
331.070000	-0.000000
331.244000	-0.000000
331.418000	-0.000000
331.591000	0.000000
331.765000	-0.000000
331.939000	-0.000000
332.113000	-0.000000
332.287000	-0.000000
332.460000	0.000000
332.634000	0.000000
332.808000	-0.000000
332.982000	-0.000000
333.156000	-0.000000
333.329000	-0.000000
333.503000	-0.000000
333.677000	-0.000000
333.851000	-0.000000
334.024000	-0.000000
334.198000	-0.000000
334.372000	-0.000000
334.546000	-0.000000
334.720000	-0.000000
334.893000	-0.000000
335.067000	0.000000
335.241000	0.000000
335.415000	-0.000000
335.589000	-0.000000
335.762000	-0.000000
335.936000	-0.000000
336.110000	-0.000000
336.284000	-0.000000
336.458000	0.000000
336.631000	-0.000000
336.805000	-0.000000
336.979000	-0.000000
337.153000	-0.000000
337.326000	-0.000000
337.500000	-0.000000
337.674000	-0.000000
337.848000	-0.000000
338.022000	0.000000
338.195000	-0.000000
338.369000	-0.000000
338.543000	-0.000000
338.717000	-0.000000
338.891000	0.000000
339.064000	0.000000
339.238000	-0.000000
339.412000	-0.000000
339.586000	-0.000000
339.759000	-0.000000
339.933000	-0.000000
340.107000	0.000000
340.281000	0.000000
340.455000	-0.000000
340.628000	-0.000000
340.802000	-0.000000
340.976000	-0.000000
341.150000	-0.000000
341.324000	-0.000000
341.497000	-0.000000
341.671000	-0.000000
341.845000	-0.000000
342.019000	-0.000000
342.192000	-0.000000
342.366000	-0.000000
342.540000	-0.000000
342.714000	-0.000000
342.888000	-0.000000
343.061000	-0.000000
343.235000	-0.000000
343.409000	-0.000000
343.583000	-0.000000
343.757000	-0.000000
343.930000	-0.000000
344.104000	-0.000000
344.278000	0.000000
344.452000	0.000000
344.626000	-0.000000
344.799000	-0.000000
344.973000	-0.000000
345.147000	-0.000000
345.321000	-0.000000
345.494000	-0.000000
345.668000	0.000000
345.842000	0.000000
346.016000	-0.000000
346.190000	0.000000
346.363000	0.000000
346.537000	-0.000000
346.711000	-0.000000
346.885000	-0.000000
347.059000	-0.000000
347.232000	-0.000000
347.406000	0.000000
347.580000	-0.000000
347.754000	-0.000000
347.927000	0.000000
348.101000	0.000000
348.275000	-0.000000
348.449000	-0.000000
348.623000	-0.000000
348.796000	-0.000000
348.970000	0.000000
349.144000	-0.000000
349.318000	-0.000000
349.492000	-0.000000
349.665000	-0.000000
349.839000	-0.000000
350.013000	-0.000000
350.187000	-0.000000
350.361000	-0.000000
350.534000	-0.000000
350.708000	-0.000000
350.882000	-0.000000
351.056000	0.000000
351.229000	0.000000
351.403000	-0.000000
351.577000	-0.000000
351.751000	-0.000000
351.925000	-0.000000
352.098000	-0.000000
352.272000	-0.000000
352.446000	-0.000000
352.620000	-0.000000
352.794000	-0.000000
352.967000	-0.000000
353.141000	0.000000
353.315000	0.000000
353.489000	-0.000000
353.662000	-0.000000
353.836000	-0.000000
354.010000	-0.000000
354.184000	0.000000
354.358000	-0.000000
354.531000	-0.000000
354.705000	-0.000000
354.879000	-0.000000
355.053000	-0.000000
355.227000	0.000000
355.400000	-0.000000
355.574000	-0.000000
355.748000	0.000000
355.922000	-0.000000
356.095000	-0.000000
356.269000	-0.000000
356.443000	-0.000000
356.617000	-0.000000
356.791000	-0.000000
356.964000	-0.000000
357.138000	-0.000000
357.312000	-0.000000
357.486000	-0.000000
357.660000	-0.000000
357.833000	-0.000000
358.007000	-0.000000
358.181000	-0.000000
358.355000	-0.000000
358.529000	-0.000000
358.702000	-0.000000
358.876000	-0.000000
359.050000	-0.000000
359.224000	-0.000000
359.397000	0.000000
359.571000	-0.000000
359.745000	-0.000000
359.919000	-0.000000
360.093000	0.008253
360.266000	0.081649
360.440000	0.066375
360.614000	0.086094
360.788000	0.029756
360.962000	-0.153518
361.135000	-0.099746
361.309000	-0.189291
361.483000	-0.282051
361.657000	-0.211032
361.830000	-0.186725
362.004000	-0.045193
362.178000	-0.339425
362.352000	-0.181871
362.526000	-0.049681
362.699000	-0.062848
362.873000	-0.351108
363.047000	-0.314193
363.221000	-0.305632
363.395000	-0.178846
363.568000	-0.144357
363.742000	-0.153792
363.916000	-0.185966
364.090000	-0.278875
364.263000	-0.246648
364.437000	-0.309187
364.611000	-0.063779
364.785000	-0.087238
364.959000	-0.193616
365.132000	-0.156480
365.306000	-0.223224
365.480000	-0.106997
365.656000	-0.148846
365.831000	-0.108788
366.007000	-0.181433
366.183000	-0.176067
366.358000	-0.237836
366.534000	-0.104233
366.710000	-0.288411
366.886000	-0.261977
367.061000	-0.071447
367.237000	0.125235
367.413000	-0.068974
367.588000	-0.307200
367.764000	-0.252289
367.940000	-0.264480
368.115000	-0.231204
368.291000	-0.259872
368.467000	-0.127414
368.643000	0.203590
368.818000	-0.174414
368.994000	-0.303527
369.170000	-0.211165
369.345000	-0.158962
369.521000	-0.212364
369.697000	-0.138001
369.872000	-0.198638
370.048000	-0.290287
370.224000	-0.231469
370.399000	-0.419242
370.575000	-0.301716
370.751000	-0.386475
370.927000	-0.370909
371.102000	-0.332895
371.278000	-0.277790
371.454000	-0.192827
371.629000	0.047994
371.805000	-0.007252
371.981000	0.167892
372.156000	0.335284
372.332000	0.100385
372.508000	-0.043001
372.683000	-0.015828
372.859000	-0.088594
373.035000	-0.119138
373.211000	0.119105
373.386000	-0.041363
373.562000	-0.326515
373.738000	-0.434241
373.913000	-0.584778
374.089000	-0.421703
374.265000	0.005803
374.440000	0.002541
374.616000	-0.004078
374.792000	-0.173399
374.968000	0.266650
375.143000	0.008973
375.319000	-0.270251
375.495000	-0.344382
375.670000	-0.173108
375.846000	-0.072463
376.022000	-0.256548
376.197000	-0.164071
376.373000	-0.329428
376.549000	-0.375243
376.724000	-0.438276
376.900000	-0.259531
377.076000	-0.106534
377.252000	0.024407
377.427000	0.105727
377.603000	-0.186418
377.779000	-0.160867
377.954000	-0.337132
378.130000	-0.233555
378.306000	-0.151108
378.481000	-0.131505
378.657000	-0.213723
378.833000	-0.251071
379.009000	-0.113333
379.184000	0.043669
379.360000	-0.055235
379.536000	-0.078942
379.711000	-0.133971
379.887000	-0.229389
380.063000	-0.263611
380.238000	-0.315036
380.414000	-0.016464
380.590000	-0.237922
380.765000	-0.265686
380.941000	-0.113459
381.117000	-0.038062
381.293000	-0.081431
381.468000	-0.250370
381.644000	-0.192837
381.820000	-0.083875
381.995000	0.033900
382.171000	0.156380
382.347000	0.047710
382.522000	-0.308638
382.698000	0.106599
382.874000	0.125168
383.050000	-0.284569
383.225000	0.127887
383.401000	0.303509
383.577000	-0.071530
383.752000	-0.222469
383.928000	-0.134092
384.104000	-0.055850
384.279000	-0.173622
384.455000	-0.097603
384.631000	-0.111163
384.806000	-0.315172
384.982000	-0.206363
385.158000	-0.233159
385.334000	-0.017140
385.509000	-0.079049
385.685000	-0.398534
385.861000	-0.240484
386.036000	-0.373464
386.212000	-0.491821
386.388000	-0.295577
386.563000	-0.245965
386.739000	-0.297103
386.915000	-0.494346
387.090000	-0.253279
387.266000	-0.090830
387.442000	0.032387
387.618000	-0.030488
387.793000	-0.307193
387.969000	-0.445704
388.145000	-0.368068
388.320000	-0.309380
388.496000	-0.277460
388.672000	-0.483910
388.847000	-0.045666
389.023000	-0.040819
389.199000	-0.338692
389.375000	-0.192249
389.550000	-0.287855
389.726000	-0.143633
389.902000	-0.344327
390.077000	-0.208165
390.253000	-0.128158
390.429000	-0.194545
390.604000	-0.136165
390.780000	-0.108127
390.956000	-0.212874
391.131000	-0.219492
391.307000	0.011349
391.483000	-0.181413
391.659000	-0.287767
391.834000	-0.035804
392.010000	-0.233061
392.186000	-0.319528
392.361000	-0.235818
392.537000	-0.348981
392.713000	0.110929
392.888000	0.159568
393.064000	-0.075155
393.240000	-0.178947
393.416000	-0.293984
393.591000	-0.381360
393.767000	-0.425333
393.943000	-0.301175
394.118000	-0.117867
394.294000	0.053967
394.470000	-0.023069
394.645000	0.102171
394.821000	0.180837
394.997000	-0.115119
395.172000	-0.059523
395.348000	-0.138903
395.524000	-0.444810
395.700000	-0.327657
395.875000	-0.073451
396.051000	-0.074311
396.227000	-0.166399
396.402000	-0.243804
396.578000	-0.149464
396.754000	-0.292791
396.929000	-0.268524
397.105000	-0.044607
397.281000	-0.088518
397.457000	-0.211082
397.632000	-0.240889
397.808000	-0.462377
397.984000	-0.562612
398.159000	-0.458824
398.335000	-0.302895
398.511000	0.121713
398.686000	-0.078372
398.862000	-0.287743
399.038000	-0.404357
399.213000	-0.203422
399.389000	-0.455280
399.565000	-0.132061
399.741000	0.039658
399.916000	-0.074498
400.092000	0.235778
400.268000	-0.098748
400.443000	-0.238894
400.619000	0.039914
400.795000	-0.022446
400.970000	-0.181955
401.146000	-0.284931
401.322000	-0.009162
401.497000	0.434452
401.673000	0.139745
401.849000	-0.203013
402.025000	-0.053387
402.200000	-0.159348
402.376000	-0.237181
402.552000	0.110552
402.727000	-0.075701
402.903000	-0.346071
403.079000	-0.218910
403.254000	-0.025032
403.430000	0.003073
403.606000	-0.063151
403.782000	-0.099405
403.957000	-0.308032
404.133000	-0.473686
404.309000	-0.271277
404.484000	-0.050106
404.660000	-0.087672
404.841000	-0.215055
405.023000	0.023557
405.204000	-0.009992
405.385000	-0.336515
405.566000	-0.354615
405.748000	-0.204494
405.929000	0.042962
406.110000	-0.040965
406.292000	-0.168629
406.473000	-0.074150
406.654000	-0.268853
406.835000	-0.172611
407.017000	-0.208269
407.198000	-0.150707
407.379000	-0.093370
407.560000	-0.159972
407.742000	-0.232677
407.923000	-0.153708
408.104000	-0.291373
408.286000	-0.168426
408.467000	-0.149516
408.648000	-0.347538
408.829000	-0.390679
409.011000	-0.267163
409.192000	-0.434498
409.373000	-0.186201
409.555000	-0.040550
409.736000	-0.072538
409.917000	-0.210651
410.098000	-0.197309
410.280000	-0.080013
410.461000	-0.093532
410.642000	-0.132026
410.823000	0.129788
411.005000	0.082465
411.186000	-0.164219
411.367000	-0.251251
411.549000	-0.244671
411.730000	-0.010691
411.911000	0.077809
412.092000	-0.118866
412.274000	-0.152270
412.455000	-0.065755
412.636000	-0.065815
412.818000	-0.262125
412.999000	-0.335583
413.180000	-0.223181
413.361000	-0.212255
413.543000	-0.267792
413.724000	-0.334399
413.905000	-0.330820
414.087000	-0.345898
414.268000	-0.347443
414.449000	-0.337401
414.630000	-0.419209
414.812000	-0.506726
414.993000	-0.179375
415.174000	-0.022754
415.355000	-0.170770
415.537000	-0.406811
415.718000	-0.161311
415.899000	-0.244919
416.081000	-0.340877
416.262000	-0.159840
416.443000	-0.268248
416.624000	-0.222103
416.806000	-0.134817
416.987000	-0.024413
417.168000	-0.120635
417.350000	-0.272131
417.531000	-0.296613
417.712000	-0.280919
417.893000	-0.098072
418.075000	-0.004942
418.256000	-0.231016
418.437000	-0.155126
418.618000	-0.070194
418.800000	0.020235
418.981000	-0.172569
419.162000	-0.174034
419.344000	0.020136
419.525000	-0.061430
419.706000	-0.124997
419.887000	-0.046617
420.069000	0.039284
420.250000	-0.016212
420.431000	-0.031740
420.613000	-0.092717
420.794000	-0.305317
420.975000	0.018352
421.156000	-0.156854
421.338000	-0.192091
421.519000	-0.199813
421.700000	-0.279115
421.882000	-0.278201
422.063000	-0.114475
422.244000	0.230283
422.425000	0.078662
422.607000	-0.186917
422.788000	-0.218979
422.969000	-0.309545
423.150000	-0.333166
423.332000	-0.403510
423.513000	-0.204855
423.694000	-0.182539
423.876000	-0.101660
424.057000	-0.001469
424.238000	0.007197
424.419000	-0.012783
424.601000	-0.148426
424.782000	-0.112662
424.963000	0.001120
425.145000	-0.099076
425.326000	-0.022104
425.507000	0.044057
425.688000	-0.092100
425.870000	-0.246724
426.051000	-0.318194
426.232000	-0.258786
426.413000	-0.251651
426.595000	-0.253778
426.776000	-0.276901
426.957000	-0.211533
427.139000	-0.136609
427.320000	-0.132025
427.501000	-0.011891
427.682000	-0.015288
427.864000	-0.037724
428.045000	0.079910
428.226000	0.048917
428.408000	-0.244526
428.589000	-0.120749
428.770000	-0.113576
428.951000	-0.198615
429.133000	-0.325917
429.314000	-0.196887
429.495000	-0.189399
429.677000	-0.153205
429.858000	-0.160237
430.039000	-0.120899
430.220000	-0.080527
430.402000	0.034526
430.583000	-0.204121
430.764000	-0.235810
430.945000	-0.093154
431.127000	0.019825
431.308000	-0.119167
431.489000	-0.068728
431.671000	0.021635
431.852000	-0.016734
432.033000	-0.106784
432.214000	-0.035355
432.396000	-0.005666
432.577000	-0.170089
432.758000	-0.316694
432.940000	-0.268822
433.121000	-0.182049
433.302000	-0.127359
433.483000	0.047486
433.665000	0.111647
433.846000	0.032315
434.027000	-0.090300
434.208000	-0.183127
434.390000	-0.235069
434.571000	0.150753
434.752000	0.636203
434.934000	0.451776
435.115000	0.338909
435.296000	0.386214
435.477000	0.233304
435.659000	0.002708
435.840000	0.038936
436.026000	0.024868
436.211000	-0.094854
436.397000	-0.364829
436.582000	-0.262751
436.768000	-0.055249
436.953000	-0.143192
437.139000	-0.146946
437.325000	0.090112
437.510000	0.052861
437.696000	0.244068
437.881000	0.246101
438.067000	-0.124790
438.252000	-0.144134
438.438000	-0.172886
438.624000	-0.150451
438.809000	-0.060430
438.995000	0.012199
439.180000	-0.053019
439.366000	-0.091872
439.551000	-0.120298
439.737000	-0.089190
439.923000	-0.030667
440.108000	-0.107390
440.294000	-0.059724
440.479000	0.032468
440.665000	0.110363
440.850000	0.030525
441.036000	0.023588
441.222000	-0.056836
441.407000	-0.169614
441.593000	-0.025367
441.778000	0.048219
441.964000	0.123043
442.149000	-0.178636
442.335000	-0.187754
442.521000	-0.073649
442.706000	0.047750
442.892000	-0.012007
443.077000	-0.074205
443.263000	-0.015819
443.448000	-0.082692
443.634000	-0.115486
443.820000	0.224131
444.005000	0.070529
444.191000	-0.182333
444.376000	-0.142270
444.562000	0.215284
444.747000	0.176486
444.933000	0.022758
445.119000	-0.065713
445.304000	-0.110466
445.490000	0.042124
445.675000	0.016677
445.861000	-0.136997
446.046000	-0.113504
446.232000	-0.025180
446.418000	0.038288
446.603000	0.018134
446.789000	-0.004249
446.974000	-0.028189
447.160000	-0.238929
447.345000	-0.146518
447.531000	-0.144169
447.717000	0.011398
447.902000	0.069798
448.088000	0.137068
448.273000	0.017240
448.459000	-0.052164
448.644000	-0.087626
448.830000	-0.153901
449.016000	-0.215222
449.201000	-0.155773
449.387000	-0.047200
449.572000	0.060799
449.758000	-0.038169
449.943000	-0.169084
450.129000	-0.216274
450.315000	-0.163683
450.500000	-0.163090
450.686000	-0.092639
450.871000	-0.197480
451.057000	-0.037337
451.243000	-0.040972
451.428000	-0.069753
451.614000	-0.092367
451.799000	-0.137844
451.985000	0.085372
452.170000	0.086757
452.356000	-0.115569
452.542000	-0.076820
452.727000	0.077749
452.913000	-0.058389
453.098000	0.087392
453.284000	0.249921
453.469000	0.110189
453.655000	0.138541
453.841000	0.085712
454.026000	-0.032520
454.212000	0.027058
454.397000	0.030000
454.583000	-0.157318
454.768000	-0.227149
454.954000	0.015429
455.140000	0.049389
455.325000	-0.102232
455.511000	-0.203500
455.696000	-0.179593
455.882000	-0.028720
456.067000	0.102992
456.253000	-0.064202
456.439000	-0.161169
456.624000	-0.159917
456.810000	-0.162355
456.995000	-0.126559
457.181000	-0.189444
457.366000	-0.039097
457.552000	-0.015446
457.738000	0.101890
457.923000	0.116315
458.109000	0.150961
458.294000	0.082292
458.480000	0.085252
458.665000	0.062199
458.851000	-0.086556
459.037000	-0.264016
459.222000	-0.094465
459.408000	-0.076097
459.593000	-0.040572
459.779000	0.058385
459.964000	0.206638
460.150000	0.394806
460.336000	0.258791
460.521000	0.067199
460.707000	-0.024854
460.892000	-0.110964
461.078000	0.071944
461.263000	0.134716
461.449000	-0.015099
461.635000	0.012720
461.820000	0.005758
462.006000	0.058228
462.191000	0.075219
462.377000	-0.082134
462.562000	0.105525
462.748000	0.256998
462.934000	-0.063724
463.119000	-0.181121
463.305000	0.015194
463.490000	-0.053361
463.676000	0.032832
463.861000	0.002253
464.047000	-0.044713
464.233000	0.013725
464.418000	-0.001148
464.604000	-0.067861
464.789000	0.064943
464.975000	0.086921
465.160000	0.012996
465.346000	0.030487
465.532000	-0.093480
465.717000	-0.120243
465.903000	0.143968
466.088000	0.107557
466.274000	-0.081242
466.459000	-0.092697
466.645000	0.258533
466.831000	0.219002
467.016000	0.176813
467.202000	0.074230
467.387000	0.016161
467.573000	-0.134264
467.758000	0.118263
467.944000	0.029206
468.130000	-0.066733
468.315000	0.086395
468.501000	0.224170
468.686000	0.112241
468.872000	0.110301
469.057000	0.178162
469.243000	0.087985
469.429000	0.051643
469.614000	-0.022174
469.800000	-0.078762
469.985000	0.064480
470.171000	0.138085
470.356000	0.040208
470.542000	0.123327
470.728000	0.118308
470.913000	0.070710
471.099000	0.185496
471.284000	0.098763
471.470000	0.025204
471.655000	0.058774
471.841000	0.080894
472.027000	0.030866
472.212000	0.181111
472.398000	0.226919
472.583000	0.147789
472.769000	0.169096
472.954000	0.147835
473.140000	-0.003071
473.326000	-0.034476
473.511000	0.278973
473.697000	0.262307
473.882000	0.105211
474.068000	0.066614
474.253000	0.008708
474.439000	0.082829
474.625000	0.143556
474.810000	0.150209
474.996000	0.175102
475.181000	0.023039
475.367000	0.175942
475.552000	0.412169
475.738000	0.121067
475.924000	0.075501
476.109000	0.174964
476.295000	0.107602
476.480000	0.178515
476.666000	0.154025
476.851000	0.151326
477.037000	0.222487
477.223000	0.129247
477.408000	0.051307
477.594000	-0.008314
477.779000	0.130082
477.965000	0.149814
478.151000	0.041530
478.336000	0.174875
478.522000	0.139081
478.707000	0.108279
478.893000	0.192523
479.078000	0.044943
479.264000	0.052195
479.450000	0.162179
479.635000	0.272430
479.821000	0.189909
480.006000	0.294422
480.192000	0.298089
480.377000	0.286216
480.563000	0.278693
480.749000	0.114830
480.934000	0.158142
481.120000	0.293946
481.305000	0.351162
481.491000	0.361139
481.676000	0.438388
481.862000	0.432796
482.048000	0.276091
482.233000	0.345968
482.419000	0.347408
482.604000	0.287861
482.790000	0.306958
482.975000	0.383015
483.161000	0.542159
483.347000	0.518990
483.532000	0.475142
483.718000	0.270705
483.903000	0.341609
484.089000	0.372345
484.274000	0.289043
484.460000	0.463937
484.646000	0.505420
484.831000	0.403087
485.017000	0.483854
485.202000	0.539921
485.388000	0.773901
485.573000	0.745592
485.759000	0.557548
485.945000	0.744359
486.130000	0.593897
486.316000	0.599365
486.501000	0.688560
486.687000	0.566284
486.872000	0.524368
487.058000	0.685404
487.244000	0.700861
487.429000	0.555452
487.615000	0.766094
487.800000	0.844173
487.986000	0.740328
488.171000	0.886505
488.357000	0.853674
488.543000	0.826010
488.728000	0.878636
488.914000	0.845573
489.099000	0.768139
489.285000	0.784386
489.470000	0.981528
489.656000	1.014501
489.842000	1.017032
490.027000	1.091441
490.213000	0.943800
490.398000	0.710785
490.584000	1.010777
490.769000	1.036408
490.955000	1.055731
491.141000	1.127445
491.326000	1.140039
491.512000	1.248228
491.697000	1.169537
491.883000	1.088768
492.068000	1.066049
492.254000	1.113737
492.440000	1.204597
492.625000	1.173134
492.811000	1.184043
492.996000	1.306198
493.182000	1.330364
493.367000	1.191476
493.553000	1.134339
493.739000	1.249915
493.924000	1.393379
494.110000	1.446230
494.295000	1.360907
494.481000	1.472505
494.666000	1.513778
494.852000	1.705904
495.038000	1.607210
495.223000	1.510512
495.409000	1.570791
495.594000	1.575271
495.780000	1.668068
495.965000	1.619691
496.151000	1.841496
496.337000	1.921580
496.522000	1.726914
496.708000	1.840561
496.893000	2.024608
497.079000	1.893098
497.264000	1.908748
497.450000	2.018911
497.636000	2.130891
497.821000	1.994390
498.007000	2.276859
498.192000	2.346378
498.378000	2.232807
498.563000	2.193086
498.749000	2.263824
498.935000	2.295226
499.120000	2.420534
499.306000	2.330203
499.491000	2.369745
499.677000	2.480490
499.862000	2.588118
500.048000	2.710990
500.234000	2.650721
500.419000	2.667379
500.605000	2.846644
500.790000	2.798068
500.976000	2.735265
501.161000	2.682197
501.347000	2.904489
501.533000	3.067801
501.718000	3.038580
501.904000	3.030050
502.089000	3.170278
502.275000	3.312992
502.460000	3.239797
502.646000	3.316382
502.832000	3.410987
503.017000	3.456578
503.203000	3.309521
503.388000	3.341905
503.574000	3.585016
503.759000	3.675897
503.945000	3.803586
504.131000	3.752249
504.316000	3.801255
504.502000	3.892805
504.687000	3.909473
504.873000	3.843863
505.058000	3.810115
505.244000	3.844964
505.430000	4.037676
505.615000	4.160514
505.801000	4.270197
505.986000	4.184955
506.172000	4.321883
506.358000	4.402227
506.543000	4.452054
506.729000	4.667479
506.914000	4.674583
507.100000	4.777916
507.285000	4.647750
507.471000	4.648907
507.657000	4.989677
507.842000	4.829766
508.028000	4.731141
508.213000	4.878716
508.399000	5.003890
508.584000	5.152036
508.770000	5.092131
508.956000	5.115836
509.141000	5.225611
509.327000	5.294309
509.512000	5.282237
509.698000	5.379778
509.883000	5.503019
510.069000	5.459759
510.255000	5.506891
510.440000	5.613450
510.626000	5.600958
510.811000	5.594945
510.997000	5.749150
511.182000	5.994239
511.368000	5.902818
511.554000	5.600124
511.739000	5.739237
511.925000	6.002884
512.110000	6.003635
512.296000	6.106547
512.481000	6.130516
512.667000	6.095454
512.853000	5.931631
513.038000	6.024112
513.224000	6.043571
513.409000	5.983194
513.595000	6.105449
513.780000	5.946689
513.966000	6.060029
514.152000	6.065273
514.337000	6.009943
514.523000	6.047726
514.708000	6.137463
514.894000	6.163419
515.079000	6.042420
515.265000	6.130830
515.451000	6.139178
515.636000	6.039358
515.822000	6.155212
516.007000	6.056868
516.193000	6.209398
516.378000	6.285214
516.564000	6.182629
516.750000	6.160919
516.935000	6.212408
517.121000	6.222182
517.306000	6.322736
517.492000	6.249508
517.677000	5.992568
517.863000	5.933626
518.049000	6.035594
518.234000	5.963920
518.420000	6.015284
518.605000	6.211555
518.791000	6.150342
518.976000	5.946538
519.162000	5.802974
519.348000	5.911640
519.533000	5.856521
519.719000	5.923903
519.904000	5.820493
520.090000	5.807405
520.275000	5.966526
520.461000	5.811784
520.647000	5.575467
520.832000	5.390443
521.018000	5.478197
521.203000	5.429910
521.389000	5.225230
521.574000	5.293266
521.760000	5.400544
521.946000	5.340377
522.131000	5.237176
522.317000	5.216776
522.502000	5.143883
522.688000	5.152643
522.873000	5.058850
523.059000	5.039041
523.245000	5.001233
523.430000	4.832786
523.616000	4.818440
523.801000	4.715537
523.987000	4.750720
524.172000	4.812763
524.358000	4.788092
524.544000	4.700213
524.729000	4.761737
524.915000	4.730854
525.100000	4.566402
525.286000	4.598557
525.471000	4.538387
525.657000	4.486188
525.843000	4.259732
526.028000	4.376718
526.214000	4.252623
526.399000	4.124376
526.585000	4.026683
526.770000	3.955934
526.956000	4.052727
527.142000	3.945353
527.327000	4.013833
527.513000	3.892766
527.698000	3.864751
527.884000	3.839708
528.069000	3.765816
528.255000	3.864841
528.441000	3.715563
528.626000	3.671082
528.812000	3.878888
528.997000	3.733509
529.183000	3.560767
529.368000	3.538499
529.554000	3.516343
529.740000	3.524908
529.925000	3.451656
530.111000	3.407653
530.296000	3.436298
530.482000	3.498837
530.667000	3.369695
530.853000	3.341115
531.039000	3.225996
531.224000	3.292560
531.410000	3.347600
531.595000	3.184465
531.781000	3.181530
531.967000	3.021763
532.152000	3.174776
532.338000	3.017170
532.523000	2.830949
532.709000	2.801072
532.894000	2.893840
533.080000	2.888550
533.266000	2.719867
533.451000	2.657587
533.637000	2.690904
533.822000	2.800724
534.008000	2.612258
534.193000	2.658864
534.379000	2.722563
534.565000	2.604782
534.750000	2.564171
534.936000	2.782923
535.121000	2.584897
535.307000	2.556801
535.492000	2.493495
535.678000	2.293245
535.864000	2.433589
536.049000	2.609806
536.235000	2.397212
536.420000	2.408925
536.606000	2.282741
536.791000	2.170641
536.977000	2.171574
537.163000	2.390009
537.348000	2.382797
537.534000	2.349219
537.719000	2.135798
537.905000	2.009117
538.090000	2.233459
538.276000	2.228204
538.462000	2.152495
538.647000	2.183011
538.833000	2.088506
539.018000	2.145453
539.204000	2.065100
539.389000	1.896223
539.575000	2.217374
539.761000	2.107308
539.946000	1.805783
540.132000	1.942223
540.317000	1.818026
540.503000	1.875261
540.688000	1.936659
540.874000	2.175764
541.060000	2.279381
541.245000	2.084516
541.431000	1.891840
541.616000	1.920103
541.802000	1.872246
541.987000	1.918967
542.173000	1.911346
542.359000	1.821300
542.544000	1.931574
542.730000	1.756703
542.915000	1.746739
543.101000	1.909125
543.286000	1.715359
543.472000	1.578526
543.658000	1.654760
543.843000	1.626696
544.029000	1.816045
544.214000	1.663752
544.400000	1.322001
544.585000	1.486012
544.771000	1.572123
544.957000	1.724646
545.142000	1.793830
545.328000	1.903470
545.513000	1.896681
545.699000	1.802754
545.884000	1.612613
546.070000	1.520655
546.261000	1.482724
546.451000	1.310271
546.642000	1.087125
546.833000	1.165142
547.023000	1.068628
547.214000	1.061530
547.405000	1.170252
547.595000	1.461117
547.786000	1.402294
547.977000	1.113083
548.167000	0.954532
548.358000	1.029051
548.549000	1.404419
548.740000	1.166820
548.930000	0.800877
549.121000	0.907128
549.312000	0.856626
549.502000	0.780247
549.693000	0.907556
549.884000	1.006967
550.074000	1.080155
550.265000	0.830694
550.456000	0.889057
550.646000	0.974059
550.837000	0.937036
551.028000	0.774961
551.218000	0.862333
551.409000	0.757071
551.600000	0.811819
551.790000	0.908003
551.981000	0.649279
552.172000	0.667090
552.362000	1.018041
552.553000	1.025067
552.744000	0.854010
552.934000	0.801922
553.125000	0.675233
553.316000	0.615277
553.506000	0.900477
553.697000	0.744048
553.888000	0.785648
554.079000	0.928152
554.269000	0.853397
554.460000	0.540797
554.651000	0.527288
554.841000	0.358898
555.032000	0.447828
555.223000	0.567090
555.413000	0.716435
555.604000	0.615926
555.795000	0.509947
555.985000	0.648130
556.176000	0.591252
556.367000	0.299479
556.557000	0.419797
556.748000	0.489880
556.939000	0.438914
557.129000	0.318330
557.320000	0.480492
557.511000	0.456906
557.701000	0.457128
557.892000	0.486445
558.083000	0.638327
558.273000	0.547551
558.464000	0.375250
558.655000	0.388172
558.845000	0.437025
559.036000	0.510020
559.227000	0.484891
559.418000	0.501872
559.608000	0.506404
559.799000	0.279011
559.990000	0.262491
560.180000	0.295772
560.371000	0.122805
560.562000	0.197901
560.752000	0.412836
560.943000	0.206654
561.134000	0.017198
561.324000	0.256539
561.515000	0.524961
561.706000	0.352022
561.896000	0.113529
562.087000	0.231197
562.278000	0.208678
562.468000	0.032086
562.659000	0.137415
562.850000	0.500630
563.040000	0.539837
563.231000	0.100242
563.422000	0.223755
563.612000	0.127056
563.803000	0.240343
563.994000	0.146588
564.185000	0.058519
564.375000	0.271459
564.566000	0.236927
564.757000	0.179186
564.947000	0.089162
565.138000	0.237422
565.329000	0.181691
565.519000	0.023286
565.710000	0.084118
565.901000	0.293466
566.091000	0.436972
566.282000	0.221799
566.473000	0.201869
566.663000	0.199804
566.854000	0.003920
567.045000	0.113023
567.235000	0.197550
567.426000	0.213835
567.617000	0.246569
567.807000	0.180545
567.998000	0.182889
568.189000	0.100596
568.379000	0.184184
568.570000	0.223540
568.761000	0.145808
568.951000	0.118668
569.142000	0.082900
569.333000	0.044279
569.524000	-0.063261
569.714000	-0.124990
569.905000	-0.206947
570.096000	0.151184
570.286000	0.233027
570.477000	0.383588
570.668000	0.213517
570.858000	0.172635
571.049000	0.039222
571.240000	-0.046683
571.430000	0.163044
571.621000	0.083128
571.812000	0.138977
572.002000	0.152416
572.193000	0.009922
572.384000	0.105585
572.574000	0.130265
572.765000	0.097587
572.956000	0.057075
573.146000	0.161329
573.337000	0.047437
573.528000	0.072646
573.718000	0.224673
573.909000	0.240856
574.100000	0.151718
574.290000	0.008023
574.481000	0.044158
574.672000	0.057997
574.863000	0.131583
575.053000	0.011394
575.244000	0.125894
575.435000	-0.041583
575.625000	-0.032898
575.816000	-0.011632
576.007000	0.102139
576.197000	0.084442
576.388000	0.079878
576.579000	0.222113
576.769000	0.202401
576.960000	-0.076656
577.155000	-0.241639
577.350000	0.033082
577.545000	0.190144
577.740000	0.005278
577.935000	0.196712
578.130000	0.155869
578.326000	-0.056469
578.521000	0.147817
578.716000	0.157925
578.911000	-0.066897
579.106000	0.084484
579.301000	0.176438
579.496000	0.016661
579.691000	-0.246585
579.886000	-0.059461
580.081000	0.061493
580.276000	0.083337
580.471000	-0.006272
580.666000	-0.126597
580.861000	-0.155000
581.057000	-0.152661
581.252000	-0.006264
581.447000	-0.063880
581.642000	-0.059922
581.837000	-0.061466
582.032000	-0.021618
582.227000	0.211138
582.422000	0.164948
582.617000	-0.030952
582.812000	-0.120221
583.007000	-0.070722
583.202000	-0.154952
583.397000	0.077165
583.592000	0.318491
583.788000	0.023122
583.983000	-0.020262
584.178000	0.082100
584.373000	-0.060193
584.568000	-0.077297
584.763000	-0.144788
584.958000	-0.193376
585.153000	-0.072668
585.348000	-0.076546
585.543000	0.047292
585.738000	0.033160
585.933000	-0.166783
586.128000	0.059808
586.324000	0.068609
586.519000	0.048926
586.714000	0.166857
586.909000	0.260061
587.104000	0.199310
587.299000	0.032532
587.494000	0.070247
587.689000	0.019941
587.884000	0.035813
588.079000	-0.048781
588.274000	-0.018772
588.469000	-0.011620
588.664000	0.072266
588.859000	0.058895
589.055000	0.047059
589.250000	0.007384
589.445000	-0.113435
589.640000	-0.097616
589.835000	0.148568
590.030000	0.254556
590.225000	0.245832
590.420000	0.028985
590.615000	-0.059700
590.810000	-0.026903
591.005000	-0.017394
591.200000	-0.100799
591.395000	-0.145684
591.591000	-0.002161
591.786000	0.072216
591.981000	-0.044677
592.176000	0.025157
592.371000	0.075017
592.566000	-0.012614
592.761000	0.140023
592.956000	0.138650
593.151000	0.199908
593.346000	0.086627
593.541000	0.083312
593.736000	0.066580
593.931000	-0.060457
594.126000	0.002675
594.322000	0.028611
594.517000	-0.047567
594.712000	-0.142439
594.907000	-0.153529
595.102000	-0.042934
595.297000	0.082474
595.492000	0.173213
595.687000	-0.013653
595.882000	-0.094635
596.077000	0.019914
596.272000	0.189517
596.467000	0.198594
596.662000	0.060957
596.857000	0.070261
597.053000	0.104208
597.248000	0.101689
597.443000	0.131553
597.638000	0.104553
597.833000	-0.082612
598.028000	0.107002
598.223000	0.197591
598.418000	0.117371
598.613000	0.037623
598.808000	0.137394
599.003000	0.110916
599.198000	-0.054736
599.393000	0.022737
599.589000	0.141390
599.784000	-0.037357
599.979000	0.078925
600.174000	0.329403
600.369000	0.090800
600.564000	0.124497
600.759000	0.391075
600.954000	0.502013
601.149000	0.325124
601.344000	0.009520
601.539000	0.188348
601.734000	0.101338
601.929000	-0.098553
602.124000	-0.030174
602.320000	0.211921
602.515000	0.476157
602.710000	0.397377
602.905000	0.061342
603.100000	0.037525
603.295000	0.150461
603.490000	0.222381
603.685000	0.270086
603.880000	0.294277
604.075000	0.118163
604.270000	0.127831
604.465000	0.212434
604.660000	0.030225
604.856000	0.184213
605.051000	0.362020
605.246000	0.356583
605.441000	0.121120
605.636000	0.099719
605.831000	0.215008
606.026000	0.127337
606.221000	0.148147
606.416000	0.346348
606.611000	0.522498
606.806000	0.498775
607.001000	0.673561
607.196000	0.459323
607.391000	0.269861
607.587000	0.466958
607.782000	0.459773
607.977000	0.304724
608.172000	0.633650
608.367000	0.657067
608.562000	0.503630
608.757000	0.489563
608.952000	0.427112
609.147000	0.823319
609.342000	0.760111
609.537000	0.573814
609.732000	0.618441
609.927000	0.596273
610.122000	0.707434
610.318000	1.094870
610.513000	1.229381
610.708000	1.059822
610.903000	1.163661
611.098000	1.214505
611.293000	1.184055
611.488000	1.218520
611.683000	1.178361
611.878000	1.144348
612.073000	1.188755
612.268000	1.138857
612.463000	1.198907
612.658000	1.195388
612.854000	1.126979
613.049000	1.021947
613.244000	1.183151
613.439000	1.262615
613.634000	0.947162
613.829000	1.108561
614.024000	1.014820
614.219000	1.004858
614.414000	1.282278
614.609000	1.079438
614.804000	0.972403
614.999000	1.023340
615.194000	1.077959
615.389000	1.128556
615.585000	1.005730
615.780000	1.222400
615.975000	1.189697
616.170000	1.234740
616.365000	1.467076
616.560000	1.600400
616.755000	1.500138
616.950000	1.420096
617.145000	1.556618
617.340000	1.441835
617.535000	1.207458
617.730000	1.438318
617.925000	1.290330
618.120000	1.298026
618.316000	1.647011
618.511000	1.582718
618.706000	1.498399
618.901000	1.551725
619.096000	1.708587
619.291000	1.689620
619.486000	1.787228
619.681000	1.521807
619.876000	1.520229
620.071000	1.676741
620.266000	2.007666
620.461000	2.135560
620.656000	2.081924
620.852000	2.044032
621.047000	1.955056
621.242000	1.869129
621.437000	2.216307
621.632000	2.350201
621.827000	2.197765
622.022000	1.972596
622.217000	2.222312
622.412000	2.419497
622.607000	2.420904
622.802000	2.292114
622.997000	2.289702
623.192000	2.402029
623.387000	2.497117
623.583000	2.320109
623.778000	2.645815
623.973000	2.716025
624.168000	2.787273
624.363000	2.847693
624.558000	2.880204
624.753000	2.619761
624.948000	2.954283
625.143000	3.015873
625.338000	2.976770
625.533000	2.900826
625.728000	3.050152
625.923000	3.335070
626.119000	3.226081
626.314000	2.993586
626.509000	3.027968
626.704000	3.168032
626.899000	3.197980
627.094000	3.180041
627.289000	3.276121
627.484000	3.408997
627.679000	3.400303
627.874000	3.442913
628.069000	3.849334
628.264000	3.764469
628.459000	3.690751
628.654000	3.658688
628.850000	3.590565
629.045000	3.785296
629.240000	3.748516
629.435000	3.755373
629.630000	3.909339
629.825000	3.926092
630.020000	3.995366
630.215000	3.850795
630.410000	3.937026
630.605000	3.973264
630.800000	4.039681
630.995000	4.217178
631.190000	4.502542
631.385000	4.294137
631.581000	4.056753
631.776000	4.119810
631.971000	3.980476
632.166000	4.132268
632.361000	3.915386
632.556000	3.984748
632.751000	4.124808
632.946000	3.923621
633.141000	3.793667
633.336000	3.803701
633.531000	3.817480
633.726000	3.758487
633.921000	3.534519
634.117000	3.302510
634.312000	3.138906
634.507000	3.186656
634.702000	3.228533
634.897000	3.172080
635.092000	3.232329
635.287000	3.272135
635.482000	3.020115
635.677000	3.005448
635.872000	3.021421
636.067000	3.013763
636.262000	2.745344
636.457000	2.346495
636.652000	2.265223
636.848000	2.219831
637.043000	2.190061
637.238000	2.150385
637.433000	1.946990
637.628000	1.927892
637.823000	2.064078
638.018000	2.002311
638.213000	1.822928
638.408000	1.723568
638.603000	1.551341
638.798000	1.452247
638.993000	1.457175
639.188000	1.421325
639.383000	1.310165
639.579000	1.555728
639.774000	1.327449
639.969000	1.145688
640.164000	1.068766
640.359000	1.012888
640.554000	1.185511
640.749000	1.160687
640.944000	1.127476
641.139000	1.080874
641.334000	0.919360
641.529000	0.471062
641.724000	0.579154
641.919000	0.731645
642.115000	1.024671
642.310000	1.028655
642.505000	0.842083
642.700000	0.761789
642.895000	0.603255
643.090000	0.759493
643.285000	0.922604
643.480000	0.774482
643.675000	0.753194
643.870000	1.059231
644.065000	0.808997
644.260000	0.442007
644.455000	0.539939
644.650000	0.438398
644.846000	0.445046
645.041000	0.219278
645.236000	0.096770
645.431000	0.183495
645.626000	-0.016308
645.821000	0.154479
646.016000	0.282836
646.211000	0.704578
646.406000	0.517233
646.601000	0.410770
646.796000	0.257916
646.991000	0.020409
647.186000	0.083046
647.381000	0.298959
647.577000	0.344025
647.772000	0.475035
647.967000	0.353692
648.162000	0.225991
648.357000	0.215054
648.552000	0.412744
648.747000	0.312915
648.942000	0.299614
649.137000	0.293757
649.332000	0.113340
649.527000	0.063593
649.722000	0.256655
649.917000	0.408026
650.113000	0.101007
650.308000	-0.034774
650.503000	0.017321
650.698000	0.152480
650.893000	0.095779
651.088000	0.203849
651.283000	0.215688
651.478000	-0.094229
651.673000	0.183601
651.868000	-0.005361
652.063000	0.195762
652.258000	0.366319
652.453000	0.545568
652.648000	0.165963
652.844000	0.035777
653.039000	0.119420
653.234000	-0.237885
653.429000	-0.384026
653.624000	-0.170488
653.819000	0.108354
654.014000	0.042868
654.209000	-0.142538
654.404000	-0.018072
654.599000	-0.116210
654.794000	-0.089513
654.989000	0.175973
655.184000	0.072068
655.380000	-0.208864
655.575000	-0.198484
655.770000	-0.165234
655.965000	-0.099258
656.160000	-0.161886
656.355000	0.040898
656.550000	-0.014759
656.745000	0.002675
656.940000	-0.067156
657.135000	0.042238
657.330000	-0.014784
657.525000	-0.248938
657.720000	0.017854
657.915000	0.156575
658.111000	0.009680
658.306000	0.145087
658.501000	-0.003159
658.696000	-0.191438
658.891000	0.028431
659.086000	-0.075668
659.281000	-0.012534
659.476000	-0.206111
659.671000	-0.611942
659.866000	-0.336440
660.061000	0.034406
660.256000	0.137807
660.451000	0.010936
660.646000	-0.184501
660.842000	-0.046797
661.037000	-0.209547
661.232000	-0.259446
661.427000	-0.156582
661.622000	-0.233710
661.817000	-0.279738
662.012000	-0.116939
662.207000	-0.269962
662.402000	-0.305110
662.597000	-0.046030
662.792000	-0.375149
662.987000	-0.441332
663.182000	-0.149563
663.378000	-0.133012
663.573000	-0.471162
663.768000	-0.508305
663.963000	-0.310897
664.158000	-0.253423
664.353000	0.063765
664.548000	0.234758
664.743000	0.009937
664.938000	-0.283364
665.133000	-0.313784
665.328000	0.104830
665.523000	0.064128
665.718000	-0.116358
665.913000	-0.164737
666.109000	-0.192885
666.304000	0.034169
666.499000	-0.099789
666.694000	-0.085552
666.889000	0.221782
667.084000	-0.020274
667.279000	-0.113684
667.474000	-0.151381
667.669000	-0.108866
667.864000	-0.096844
668.059000	-0.045879
668.254000	-0.088585
668.449000	-0.248489
668.644000	-0.154700
668.840000	0.110111
669.035000	-0.181582
669.230000	-0.449310
669.425000	-0.073199
669.620000	-0.220315
669.815000	-0.328163
670.010000	-0.349987
670.205000	-0.149733
670.400000	-0.124903
670.595000	-0.105573
670.790000	-0.200697
670.985000	-0.140401
671.180000	0.086905
671.376000	-0.290396
671.571000	-0.412565
671.766000	-0.358832
671.961000	-0.368915
672.156000	-0.340741
672.351000	-0.227504
672.546000	-0.234223
672.741000	-0.095502
672.936000	-0.053237
673.131000	0.374168
673.326000	0.040492
673.521000	-0.330867
673.716000	-0.409905
673.911000	-0.553333
674.107000	0.023020
674.302000	0.253398
674.497000	-0.060114
674.692000	-0.359048
674.887000	-0.380519
675.082000	-0.175783
675.277000	-0.026271
675.472000	-0.106366
675.667000	-0.247804
675.862000	-0.301413
676.057000	-0.218789
676.252000	-0.184774
676.447000	-0.242830
676.643000	-0.021360
676.838000	0.188758
677.033000	-0.181838
677.228000	0.150903
677.423000	0.145846
677.618000	-0.311971
677.813000	-0.436917
678.008000	-0.158790
678.203000	-0.056613
678.398000	-0.264374
678.593000	-0.150213
678.788000	-0.060827
678.983000	-0.301424
679.178000	-0.209163
679.374000	-0.287675
679.569000	-0.121092
679.764000	-0.201370
679.959000	-0.429052
680.154000	-0.437021
680.349000	-0.561119
680.544000	-0.455060
680.739000	-0.357839
680.934000	-0.457077
681.129000	-0.423983
681.324000	-0.468188
681.519000	-0.263846
681.714000	-0.305117
681.909000	-0.353834
682.105000	-0.474570
682.300000	-0.166551
682.495000	-0.039647
682.690000	0.016457
682.885000	-0.063872
683.080000	-0.286946
683.275000	-0.238727
683.470000	0.108008
683.665000	0.323928
683.860000	0.306932
684.055000	0.049045
684.250000	-0.249794
684.445000	-0.298007
684.641000	0.023430
684.836000	-0.203082
685.031000	-0.186116
685.226000	-0.176824
685.421000	0.037324
685.616000	-0.215602
685.811000	-0.277790
686.006000	0.053854
686.201000	-0.068196
686.396000	-0.458264
686.591000	-0.388795
686.786000	0.066768
686.981000	-0.117098
687.176000	-0.103524
687.372000	-0.178561
687.567000	0.155877
687.762000	0.004593
687.957000	-0.188869
688.152000	-0.264590
688.347000	-0.133721
688.542000	-0.438020
688.737000	-0.779463
688.932000	-0.792007
689.127000	-0.321205
689.322000	-0.067185
689.517000	-0.300929
689.712000	-0.440484
689.908000	-0.324933
690.103000	-0.362414
690.298000	-0.244816
690.493000	-0.221295
690.688000	-0.490523
690.883000	-0.296583
691.078000	0.050423
691.273000	0.106143
691.468000	-0.108354
691.663000	-0.171985
691.858000	-0.039806
692.053000	-0.038368
692.248000	0.032078
692.443000	-0.018268
692.639000	-0.165327
692.834000	0.061122
693.029000	0.607547
693.224000	0.385314
693.419000	-0.197269
693.614000	-0.298139
693.809000	-0.409130
694.004000	-0.436187
694.199000	-0.409795
694.394000	-0.179738
694.589000	-0.467345
694.784000	-0.482499
694.979000	-0.205072
695.174000	-0.223252
695.370000	0.281054
695.565000	0.006333
695.760000	-0.306591
695.955000	0.105502
696.150000	0.194345
696.345000	-0.308622
696.540000	-0.099283
696.740000	-0.198874
696.940000	-0.004019
697.140000	0.078255
697.340000	-0.212389
697.539000	-0.037042
697.739000	-0.143574
697.939000	-0.136167
698.139000	-0.460926
698.339000	-0.750778
698.539000	-0.512142
698.739000	-0.549799
698.939000	-0.453513
699.138000	-0.528782
699.338000	0.176265
699.538000	0.283435
699.738000	-0.182644
699.938000	-0.259154
700.138000	-0.313133
700.338000	-0.427563
700.538000	-0.228693
700.737000	-0.160970
700.937000	-0.571307
701.137000	-0.625918
701.337000	-0.156945
701.537000	-0.024282
701.737000	-0.178718
701.937000	-0.312264
702.137000	-0.251899
702.337000	-0.326761
702.536000	-0.457964
702.736000	-0.497412
702.936000	-0.629033
703.136000	-0.065168
703.336000	-0.065153
703.536000	-0.289380
703.736000	-0.601225
703.936000	-0.529431
704.135000	-0.537000
704.335000	-0.186520
704.535000	-0.450162
704.735000	-0.617813
704.935000	-0.070354
705.135000	-0.127633
705.335000	-0.339113
705.535000	-0.031282
705.735000	0.002064
705.934000	-0.134404
706.134000	-0.356678
706.334000	-0.338431
706.534000	-0.423368
706.734000	-0.426894
706.934000	-0.509788
707.134000	-0.465261
707.334000	-0.199319
707.533000	-0.215701
707.733000	-0.305155
707.933000	-0.409576
708.133000	-0.052315
708.333000	0.026213
708.533000	-0.257299
708.733000	0.048810
708.933000	-0.194607
709.132000	-0.333915
709.332000	-0.308588
709.532000	-0.377384
709.732000	-0.182506
709.932000	-0.671548
710.132000	-0.695461
710.332000	-0.850807
710.532000	-0.265687
710.732000	-0.072748
710.931000	-0.328502
711.131000	-0.344502
711.331000	-0.172956
711.531000	-0.351908
711.731000	-0.300212
711.931000	-0.236519
712.131000	-0.244455
712.331000	-0.170532
712.530000	-0.267231
712.730000	-0.458963
712.930000	-0.307355
713.130000	-0.295215
713.330000	-0.381592
713.530000	-0.241884
713.730000	0.377524
713.930000	0.017102
714.129000	-0.425775
714.329000	-0.535299
714.529000	-0.238931
714.729000	-0.017828
714.929000	-0.139459
715.129000	-0.415066
715.329000	-0.265107
715.529000	-0.284644
715.729000	0.191359
715.928000	0.012252
716.128000	-0.256449
716.328000	-0.151092
716.528000	-0.208600
716.728000	-0.073711
716.928000	-0.306511
717.128000	-0.220971
717.328000	-0.227697
717.527000	-0.354907
717.727000	-0.295960
717.927000	-0.259521
718.127000	-0.351498
718.327000	-0.757592
718.527000	-0.639723
718.727000	-0.221051
718.927000	-0.387070
719.127000	-0.601198
719.326000	-0.368270
719.526000	-0.038827
719.726000	-0.191460
719.926000	-0.646375
720.126000	-0.546677
720.326000	-0.329815
720.526000	-0.450332
720.726000	-0.351585
720.925000	-0.066839
721.125000	-0.576733
721.325000	-0.359610
721.525000	-0.280644
721.725000	-0.436896
721.925000	-0.488606
722.125000	-0.450348
722.325000	0.104960
722.524000	-0.175813
722.724000	-0.681227
722.924000	-0.787811
723.124000	-0.512268
723.324000	-0.106343
723.524000	-0.080137
723.724000	-0.627806
723.924000	-0.395790
724.124000	-0.188008
724.323000	-0.128265
724.523000	-0.233919
724.723000	0.224883
724.923000	0.058844
725.123000	-0.068458
725.323000	-0.033138
725.523000	-0.232056
725.723000	-0.375476
725.922000	-0.407861
726.122000	-0.351436
726.322000	-0.436157
726.522000	-0.418742
726.722000	0.043305
726.922000	-0.218515
727.122000	-0.228211
727.322000	0.136529
727.521000	-0.064037
727.721000	-0.317424
727.921000	-0.186296
728.121000	-0.223966
728.321000	-0.605840
728.521000	-0.473898
728.721000	-0.245212
728.921000	0.137827
729.121000	0.695337
729.320000	0.103791
729.520000	-0.307416
729.720000	-0.467601
729.920000	-0.406017
730.120000	-0.183126
730.320000	-0.139823
730.520000	-0.466329
730.720000	-0.464139
730.919000	-0.427469
731.119000	-0.094740
731.319000	-0.588638
731.519000	-0.658296
731.719000	-0.295145
731.919000	-0.495601
732.119000	-0.932657
732.319000	-0.874653
732.519000	-0.363386
732.718000	-0.611741
732.918000	-0.432678
733.118000	-0.327963
733.318000	-0.060867
733.518000	-0.321487
733.718000	-0.843889
733.918000	-0.807077
734.118000	-0.611017
734.317000	-0.308344
734.517000	-0.524786
734.717000	-0.493500
734.917000	-0.059685
735.117000	-0.040901
735.317000	-0.101189
735.517000	0.066698
735.717000	0.246927
735.916000	-0.456210
736.116000	-0.505050
736.316000	-0.388127
736.516000	-0.348005
736.716000	-0.323406
736.916000	-0.774404
737.116000	-0.593582
737.316000	0.060175
737.516000	0.073779
737.715000	0.017926
737.915000	-0.616521
738.115000	-0.635890
738.315000	-0.326602
738.515000	-0.622688
738.715000	-0.447222
738.915000	-0.001365
739.115000	-0.421223
739.314000	-0.405234
739.514000	-0.034658
739.714000	0.035923
739.914000	-0.017128
740.114000	-0.202569
740.314000	-0.023095
740.514000	0.271432
740.714000	-0.431834
740.913000	-0.797982
741.113000	-0.614196
741.313000	-0.254075
741.513000	-0.310656
741.713000	-0.193457
741.913000	-0.166230
742.113000	-0.276362
742.313000	-0.743565
742.513000	-0.408064
742.712000	-0.304363
742.912000	-0.629695
743.112000	-0.508175
743.312000	-0.779062
743.512000	-0.618022
743.712000	-0.395439
743.912000	-0.852069
744.112000	-0.977427
744.311000	-1.064186
744.511000	-0.650930
744.711000	-0.180704
744.911000	-0.482222
745.111000	-0.528273
745.311000	-0.148416
745.511000	-0.492709
745.711000	-0.623885
745.911000	-0.310997
746.110000	-0.724759
746.310000	-0.852389
746.510000	-0.554306
746.710000	-0.154459
746.910000	-0.037128
747.110000	-0.629677
747.310000	-0.898075
747.510000	-0.620504
747.709000	-0.318644
747.909000	-0.249506
748.109000	0.028289
748.309000	-0.361692
748.509000	-0.710216
748.709000	-0.777126
748.909000	-0.492006
749.109000	-0.418859
749.308000	-0.197474
749.508000	-0.405693
749.708000	-0.356100
749.908000	-0.075042
750.108000	-0.114308
750.308000	-0.798157
750.508000	-0.062628
750.708000	-0.597457
750.908000	-0.964079
751.107000	-0.216582
751.307000	0.395173
751.507000	-0.217242
751.707000	-0.285112
751.907000	-0.318867
752.107000	-0.202758
752.307000	-0.647148
752.507000	-0.475344
752.706000	-0.510586
752.906000	0.470684
753.106000	-0.450857
753.306000	-0.999325
753.506000	0.072619
753.706000	-0.373280
753.906000	-0.224634
754.106000	-0.060237
754.305000	-0.114532
754.505000	-0.046884
754.705000	-0.286256
754.905000	-0.380188
755.105000	-0.097529
755.305000	-0.825006
755.505000	-0.653051
755.705000	-0.263430
755.905000	-0.294169
756.104000	-0.797041
756.304000	-1.224549
756.504000	-1.403131
756.704000	-0.304345
756.904000	-0.048174
757.104000	-0.466420
757.304000	-0.466866
757.504000	0.019425
757.703000	-0.324555
757.903000	-0.043863
758.103000	0.158184
758.303000	-0.194927
758.503000	-0.429403
758.703000	-0.584376
758.903000	-0.679430
759.103000	-0.227420
759.303000	-0.242838
759.502000	-0.432836
759.702000	-0.186046
759.902000	-0.456540
760.102000	-0.414210
760.302000	-0.497902
760.502000	-0.095808
760.702000	-0.025859
760.902000	-0.297166
761.101000	-0.664778
761.301000	-0.892223
761.501000	-0.588273
761.701000	-0.757731
761.901000	-0.496916
762.101000	-0.178604
762.301000	-0.257223
762.501000	-0.611499
762.700000	-0.819334
762.900000	-0.755381
763.100000	-0.387645
763.300000	-0.068804
763.500000	-0.402046
763.703000	-0.536996
763.905000	-0.904697
764.108000	-0.089119
764.311000	-0.356274
764.513000	-0.584176
764.716000	-0.267796
764.919000	-0.205326
765.121000	-0.798742
765.324000	-0.987749
765.527000	-0.815558
765.729000	-0.546815
765.932000	0.109948
766.135000	-0.044931
766.337000	-0.291313
766.540000	-0.447705
766.743000	-0.189193
766.945000	-0.662785
767.148000	-1.087969
767.351000	-0.985120
767.553000	-0.285277
767.756000	-0.595154
767.958000	-0.827248
768.161000	-0.425214
768.364000	-0.761052
768.566000	-1.079543
768.769000	-0.483859
768.972000	-0.168558
769.174000	-0.595018
769.377000	-1.123471
769.580000	-1.173138
769.782000	-0.295719
769.985000	-0.762586
770.188000	-1.730122
770.390000	-0.813258
770.593000	0.747625
770.796000	0.321482
770.998000	-0.314775
771.201000	-0.713303
771.404000	-0.318209
771.606000	-0.719814
771.809000	-0.615524
772.012000	-0.397507
772.214000	-1.219142
772.417000	-1.307569
772.620000	-0.367292
772.822000	-0.676570
773.025000	-0.808430
773.228000	-0.834181
773.430000	-0.768121
773.633000	-0.407360
773.836000	-0.250921
774.038000	-0.178510
774.241000	-0.439227
774.444000	-0.614954
774.646000	0.259450
774.849000	-0.132883
775.052000	-0.397489
775.254000	-0.228798
775.457000	-0.564510
775.659000	-0.563125
775.862000	-0.749460
776.065000	-0.457218
776.267000	0.184905
776.470000	0.381673
776.673000	-0.413420
776.875000	0.175326
777.078000	0.141863
777.281000	-0.756978
777.483000	-0.124476
777.686000	0.014787
777.889000	-0.091328
778.091000	-0.069223
778.294000	-1.051412
778.497000	-0.786561
778.699000	-0.621731
778.902000	-0.694203
779.105000	-0.457862
779.307000	0.409480
779.510000	-0.572519
779.713000	-0.481177
779.915000	-0.673369
780.118000	0.496338
780.321000	0.630949
780.523000	-0.336355
780.726000	-0.799639
780.929000	-0.945104
781.131000	-0.872146
781.334000	-1.323563
781.537000	-1.335909
781.739000	-0.238475
781.942000	-0.763909
782.145000	-1.290015
782.347000	-1.247288
782.550000	-0.919874
782.753000	-0.911241
782.955000	-0.761772
783.158000	-0.653272
783.361000	-0.408973
783.563000	-0.406113
783.766000	-0.568623
783.968000	1.062256
784.171000	0.951940
784.374000	-0.303360
784.576000	-0.397765
784.779000	-0.128842
784.982000	0.273698
785.184000	-0.389669
785.387000	-0.232008
785.590000	0.266503
785.792000	0.402319
785.995000	0.255922
786.198000	-0.116299
786.400000	-0.454787
786.603000	-0.337947
786.806000	-0.472631
787.008000	-0.297664
787.211000	-0.265445
787.414000	-0.946661
787.616000	-0.630139
787.819000	-0.607178
788.022000	-1.262811
788.224000	-0.545093
788.427000	-1.162316
788.630000	-0.661275
788.832000	-0.346739
789.035000	-0.880674
789.238000	-1.433889
789.440000	-1.141202
789.643000	-0.079598
789.846000	-0.632695
790.048000	-0.176538
790.251000	-0.039551
790.454000	-0.424871
790.656000	0.325366
790.859000	-0.411793
791.062000	-0.800917
791.264000	-0.171193
791.467000	-0.998503
791.669000	-1.528742
791.872000	-0.698124
792.075000	-1.054350
792.277000	-0.691111
792.480000	-0.300887
792.683000	-0.876747
792.885000	-1.144015
793.088000	-0.957213
793.291000	-1.125552
793.493000	-1.175560
793.696000	-0.494779
793.899000	-0.092045
794.101000	-0.371926
794.304000	-0.649845
794.507000	-0.366866
794.709000	-0.041092
794.912000	-0.583771
795.115000	-1.102414
795.317000	-0.760447
795.520000	-0.283350
795.723000	-0.510906
795.925000	-1.034150
796.128000	-1.328195
796.331000	-0.799142
796.533000	-1.200409
796.736000	-0.592771
796.939000	-0.431261
797.141000	-0.665768
797.344000	0.014349
797.547000	-0.015691
797.749000	-0.092608
797.952000	-0.650878
798.155000	-1.068568
798.357000	-1.301000
798.560000	-1.111601
798.763000	-0.354790
798.965000	-0.452632
799.168000	-0.518463
799.371000	-0.413691
799.573000	-0.722025
799.776000	-1.259374
799.978000	-1.352864
800.181000	-0.678929
800.384000	0.998471
800.586000	0.352682
800.789000	-1.225757
800.992000	-1.138834
801.194000	-1.310464
801.397000	-1.355374
801.600000	-1.144743
801.802000	-0.096320
802.005000	-0.190811
802.208000	-1.370280
802.410000	-0.537226
802.613000	-0.399168
802.816000	-0.557801
803.018000	-1.154870
803.221000	-0.980489
803.424000	0.153199
803.626000	-0.059178
803.829000	-0.493062
804.032000	0.282647
804.234000	0.834852
804.437000	-0.564335
804.640000	-0.517380
804.842000	-0.568735
805.045000	-1.057772
805.248000	-0.749440
805.450000	-0.709056
805.653000	-0.713551
805.856000	-0.868589
806.058000	0.164655
806.261000	-0.829590
806.464000	-0.979947
806.666000	-0.477417
806.869000	-0.715752
807.072000	-1.895601
807.274000	-2.176388
807.477000	-0.994717
807.679000	-0.567354
807.882000	-1.042231
808.085000	-0.948690
808.287000	-0.423921
808.490000	-1.183055
808.693000	-0.974550
808.895000	-0.769813
809.098000	-0.635394
809.301000	-0.509790
809.503000	-0.696880
809.706000	0.152883
809.909000	0.338715
810.111000	0.206249
810.314000	-0.276768
810.517000	-0.890596
810.719000	-1.147471
810.922000	-0.711632
811.125000	0.333828
811.327000	0.274204
811.530000	-0.265253
811.735000	-0.646518
811.940000	-0.957071
812.146000	-0.833055
812.351000	-0.344190
812.556000	-0.574974
812.761000	-1.072759
812.967000	-0.214536
813.172000	-0.167295
813.377000	-0.391827
813.582000	0.190627
813.788000	-0.193533
813.993000	-1.231619
814.198000	-0.399567
814.403000	-1.140930
814.609000	-0.477680
814.814000	-0.616128
815.019000	0.477357
815.224000	0.369131
815.429000	-0.795906
815.635000	-0.467251
815.840000	-0.439458
816.045000	-0.283071
816.250000	-0.031322
816.456000	-1.274184
816.661000	-2.123283
816.866000	-1.487965
817.071000	-1.499328
817.277000	-2.210472
817.482000	-1.172661
817.687000	-0.436628
817.892000	-0.630194
818.097000	-0.161266
818.303000	0.380451
818.508000	0.833030
818.713000	7.947070
818.918000	4.110652
819.124000	0.503691
819.329000	-0.700930
819.534000	-0.783147
819.739000	-1.078445
819.945000	-1.015732
820.150000	-0.535683
820.355000	-0.532455
820.560000	-0.109441
820.766000	-0.143875
820.971000	-0.204820
821.176000	-1.733363
821.381000	-2.359278
821.586000	-1.363086
821.792000	0.070624
821.997000	-0.510442
822.202000	-0.788772
822.407000	-1.300610
822.613000	-1.285888
822.818000	-0.781772
823.023000	-0.502398
823.228000	-0.690795
823.434000	0.032156
823.639000	0.182313
823.844000	-0.622736
824.049000	0.315806
824.255000	0.405700
824.460000	-0.476344
824.665000	-1.031353
824.870000	0.104517
825.075000	-0.128902
825.281000	-0.066222
825.486000	0.672038
825.691000	-1.555331
825.896000	-2.376897
826.102000	-0.781264
826.307000	-0.646329
826.512000	-0.831879
826.717000	-0.609415
826.923000	-0.836827
827.128000	-0.644805
827.333000	-1.420121
827.538000	-0.525506
827.744000	0.001402
827.949000	-1.029641
828.154000	-0.504493
828.359000	0.352547
828.564000	-0.398546
828.770000	-0.759282
828.975000	0.536539
829.180000	0.020466
829.385000	-1.563872
829.591000	-1.197784
829.796000	-0.507533
830.001000	-0.532556
830.206000	-1.354656
830.412000	-1.064010
830.617000	-0.882937
830.822000	0.074309
831.027000	-0.759370
831.232000	-1.300272
831.438000	-1.152341
831.643000	-0.533655
831.848000	-0.825329
832.053000	-0.640751
832.259000	-0.681115
832.464000	-2.453838
832.669000	-2.044539
832.874000	-1.688340
833.080000	-1.595963
833.285000	0.311511
833.490000	-0.038529
833.695000	-1.373500
833.901000	-1.101642
834.106000	-1.290842
834.311000	-1.037796
834.516000	-0.437288
834.721000	-0.855392
834.927000	0.202495
835.132000	-0.463088
835.337000	0.802951
835.542000	-0.159673
835.748000	-1.467490
835.953000	-0.154705
836.158000	-0.202080
836.363000	-0.239590
836.569000	-0.156914
836.774000	-1.316268
836.979000	-1.593418
837.184000	-1.820385
837.390000	-1.413946
837.595000	-0.820119
837.800000	-0.602730
838.005000	-0.401950
838.210000	-0.660517
838.416000	-1.257520
838.621000	-0.914114
838.826000	-1.059768
839.031000	-0.885588
839.237000	-1.435097
839.442000	-2.156912
839.647000	-2.252409
839.852000	-1.496515
840.058000	-1.452171
840.263000	-1.325984
840.468000	-2.061319
840.673000	-0.965976
840.878000	-0.861125
841.084000	-1.706196
841.289000	-0.795459
841.494000	1.804945
841.699000	1.601071
841.905000	0.223477
842.110000	0.487675
842.315000	-1.338947
842.520000	-1.039976
842.726000	-1.375223
842.931000	-1.597680
843.136000	-0.454420
843.341000	-1.952815
843.547000	-1.182526
843.752000	-0.945593
843.957000	-1.568582
844.162000	-1.717321
844.367000	-1.237255
844.573000	-0.353754
844.778000	-0.027776
844.983000	-0.300365
845.188000	-0.218539
845.394000	-1.626510
845.599000	-1.232922
845.804000	-1.074743
846.009000	-0.621931
846.215000	-1.683405
846.420000	-1.297530
846.625000	-0.340892
846.830000	0.050615
847.036000	-0.984720
847.241000	-1.388885
847.446000	-0.435012
847.651000	-0.751963
847.856000	-1.687758
848.062000	-1.705271
848.267000	-0.048165
848.472000	-1.127946
848.677000	-2.339613
848.883000	-0.349858
849.088000	1.093197
849.293000	-0.545887
849.498000	-1.111376
849.704000	-0.061881
849.909000	-0.823163
850.114000	-1.891352
850.319000	-0.709641
850.524000	-0.636195
850.730000	-0.782415
850.935000	-1.000333
851.140000	0.282554
851.345000	0.184646
851.551000	-0.351424
851.756000	0.074347
851.961000	-0.914994
852.166000	-1.146482
852.372000	-0.917843
852.577000	-1.051200
852.782000	-1.133053
852.987000	0.544487
853.193000	-0.293725
853.398000	-0.535856
853.603000	-1.743231
853.808000	-2.202599
854.013000	-1.076755
854.219000	0.226346
854.424000	2.233347
854.629000	2.012603
854.834000	-0.851583
855.040000	-0.545262
855.245000	0.043503
855.450000	-2.524348
855.655000	-3.470166
855.861000	-3.074564
856.066000	-2.180268
856.271000	-2.197836
856.476000	-0.272943
856.682000	-1.052786
856.887000	-3.725718
857.092000	-2.209490
857.297000	0.187178
857.502000	-0.311627
857.708000	-0.669481
857.913000	0.431588
858.118000	-0.322882
858.323000	-0.664325
858.529000	-0.684997
858.734000	-1.201826
858.939000	-0.958039
859.144000	-1.764173
859.350000	-2.618527
859.555000	-2.180020
859.760000	-0.483736
859.965000	0.252471
860.171000	-1.291468
860.376000	0.017074
860.581000	-1.970219
860.786000	-4.243261
860.991000	-3.383438
861.197000	-2.406050
861.402000	-1.073676
861.607000	-1.601379
861.812000	-2.568544
862.018000	-2.555626
862.223000	-1.533830
862.428000	-0.900327
862.633000	0.293103
862.839000	-0.421234
863.044000	-1.574002
863.249000	-2.320910
863.454000	-0.214725
863.659000	-0.961809
863.865000	-1.732362
864.070000	-1.807416
864.275000	-2.438248
864.480000	-1.913326
864.686000	-3.708648
864.891000	-3.141553
865.096000	-0.681792
865.301000	0.201652
865.507000	-0.077768
865.712000	-0.053713
865.917000	-1.127147
866.122000	-0.135108
866.328000	-3.073026
866.533000	-2.851359
866.738000	0.531597
866.943000	0.394032
867.148000	0.593140
867.354000	-1.742122
867.559000	-2.917058
867.764000	-1.061324
867.969000	-0.548807
868.175000	-2.020484
868.380000	-2.328323
868.585000	-2.883453
868.790000	-1.080305
868.996000	-1.281783
869.201000	-2.598239
869.406000	-3.724011
869.611000	-2.894304
869.817000	-2.193209
870.022000	2.403126
870.227000	0.173847
870.432000	-2.105904
870.637000	-0.746999
870.843000	-1.340625
871.048000	-1.306592
871.253000	-0.058124
871.458000	-1.000093
871.664000	-2.673631
871.869000	-2.680601
872.074000	-2.095521
872.279000	-1.315817
872.485000	-1.796305
872.690000	-1.652038
872.895000	-1.991178
873.100000	-2.533053
873.306000	-2.408369
873.511000	-1.106639
873.716000	0.339919
873.921000	-1.415207
874.126000	-1.909064
874.332000	-1.054493
874.537000	-0.006467
874.742000	-0.365603
874.947000	-1.097762
875.153000	1.048317
875.358000	-0.399538
875.563000	-1.296592
875.768000	-3.667660
875.974000	-3.871251
876.179000	-0.639383
876.384000	-0.604530
876.589000	-2.266699
876.794000	-1.780334
877.000000	-2.741308
877.205000	-3.974028
877.410000	-0.748257
877.615000	-2.419792
877.821000	-4.429560
878.026000	-3.257575
878.231000	-3.576990
878.436000	-3.582996
878.642000	-2.873883
878.847000	-1.262145
879.052000	0.159624
879.257000	-1.943010
879.463000	-3.290961
879.668000	-2.282703
879.873000	-0.016888
880.078000	-2.556320
880.283000	-4.205811
880.489000	-4.485634
880.694000	-3.852499
880.899000	-1.656011
881.104000	-0.443870
881.310000	0.978115
881.515000	-0.067973
881.720000	1.386128
881.925000	2.130291
882.131000	2.672492
882.336000	0.147381
882.541000	-3.009235
882.746000	-2.982323
882.952000	-3.437623
883.157000	-2.693533
883.362000	-2.530179
883.567000	-3.381737
883.772000	-3.593501
883.978000	-2.524683
884.183000	-1.061350
884.388000	-1.568656
884.593000	-3.683633
884.799000	0.718250
885.004000	0.252179
885.209000	-1.371878
885.414000	-0.762899
885.620000	-3.529069
885.825000	-0.631631
886.030000	-1.187592
886.235000	-2.524979
886.440000	-1.504105
886.646000	-4.111384
886.851000	-3.997940
887.056000	0.070639
887.261000	-0.411832
887.467000	-3.433134
887.672000	-0.881432
887.877000	-2.254155
888.082000	-4.556180
888.288000	-4.733601
888.493000	-6.616656
888.698000	-5.029688
888.903000	-1.744137
889.109000	-2.941683
889.314000	-0.597454
889.519000	-1.999675
889.724000	0.741301
889.929000	-0.850664
890.135000	-2.056575
890.340000	-1.955327
890.545000	-2.828513
890.750000	-4.446610
890.956000	-3.148889
891.161000	-0.780526
891.366000	-2.801173
891.571000	-1.337415
891.777000	-1.562362
891.982000	-0.244905
892.187000	-0.590528
892.392000	0.667357
892.598000	-0.270613
892.803000	-0.573671
893.008000	-2.915975
893.213000	-3.016120
893.418000	-2.639152
893.624000	-3.004105
893.829000	-5.213656
894.034000	-2.367379
894.239000	-0.912754
894.445000	-3.531624
894.650000	-3.267628
894.855000	-3.112227
895.060000	-3.560167
895.266000	-3.015960
895.471000	-4.361972
895.676000	-1.221458
895.881000	-0.433125
896.087000	-2.081150
896.292000	-3.414078
896.497000	0.799309
896.702000	-1.191014
896.907000	-3.233422
897.113000	1.495625
897.318000	1.608595
897.523000	0.358549
897.728000	-1.954808
897.934000	-2.290796
898.139000	-1.941169
898.344000	0.247653
898.549000	-1.389852
898.755000	-3.084749
898.960000	-3.064789
899.165000	-4.783323
899.370000	-1.589853
899.575000	2.125650
899.781000	-2.215745
899.986000	-3.082765
900.191000	-1.582292
900.396000	-2.523755
900.602000	-1.686835
900.807000	-2.168026
901.012000	-2.141661
901.217000	-0.280041
901.423000	-2.436225
901.628000	-4.013546
901.833000	0.330350
902.038000	0.401420
902.244000	-3.083678
902.449000	-2.428421
902.654000	-2.704000
902.859000	-1.464528
903.064000	0.825571
903.270000	0.507184
903.475000	-3.910965
903.680000	-5.876526
903.885000	-4.796987
904.091000	-3.675338
904.296000	-5.608096
904.501000	-4.503424
904.706000	-3.387363
904.912000	0.192388
905.117000	-1.825905
905.322000	-4.330176
905.527000	-3.858242
905.733000	-2.868964
905.938000	-3.019009
906.143000	-3.679120
906.348000	-5.421282
906.553000	-1.477704
906.759000	0.184036
906.964000	-0.942794
907.169000	-2.248535
907.374000	-5.019611
907.580000	-3.878419
907.785000	-3.019500
907.990000	12.367873
908.195000	8.380765
908.401000	-0.541164
908.606000	-7.365459
908.811000	-9.003028
909.016000	-2.232523
909.221000	-1.360705
909.427000	-2.599586
909.632000	-4.533093
909.837000	-4.147817
910.042000	-5.285415
910.248000	-7.040733
910.453000	-2.495688
910.658000	-3.676357
910.863000	-4.391666
911.069000	-5.145835
911.274000	-0.722105
911.479000	0.769776
911.684000	-5.526517
911.890000	-2.973203
912.095000	-2.993621
912.300000	-5.731308
912.506000	-5.059103
912.711000	-4.711964
912.917000	-2.081821
913.123000	-1.415944
913.328000	-2.199918
913.534000	-1.907164
913.740000	7.725934
913.946000	3.541832
914.151000	-3.829491
914.357000	-5.288088
914.563000	-0.857620
914.768000	-4.556052
914.974000	-6.397910
915.180000	-5.138050
915.385000	-3.958531
915.591000	-7.369139
915.797000	-1.853380
916.002000	1.654440
916.208000	-2.133902
916.414000	-4.935586
916.620000	-5.936491
916.825000	-2.318679
917.031000	-2.526790
917.237000	-8.186505
917.442000	-4.981693
917.648000	-6.210278
917.854000	-6.359559
918.059000	-0.225862
918.265000	0.121466
918.471000	-2.765231
918.676000	-5.947938
918.882000	-8.254322
919.088000	-6.728913
919.294000	-11.696669
919.499000	-7.168323
919.705000	-1.364098
919.911000	-3.257976
920.116000	-0.909643
920.322000	-6.206543
920.528000	-4.739909
920.733000	-7.576805
920.939000	-7.859073
921.145000	-6.296814
921.350000	-5.362897
921.556000	-3.765936
921.762000	-3.628927
921.968000	-4.449434
922.173000	-6.389420
922.379000	-8.742522
922.585000	-3.526399
922.790000	-4.493913
922.996000	-6.620538
923.202000	-7.703294
923.407000	-7.953318
923.613000	-5.494203
923.819000	-3.036335
924.024000	-3.712069
924.230000	-1.548752
924.436000	-3.827181
924.642000	4.187155
924.847000	1.074475
925.053000	-4.722280
925.259000	-9.069747
925.464000	-4.152070
925.670000	-4.942494
925.876000	-6.391275
926.081000	-6.805334
926.287000	-3.037728
926.493000	-2.534535
926.698000	-3.726913
926.904000	-1.077237
927.110000	-3.944465
927.316000	-3.741989
927.521000	3.327594
927.727000	-2.414019
927.933000	-4.655924
928.138000	-3.920839
928.344000	-10.309461
928.550000	-5.860103
928.755000	-1.127677
928.961000	-6.173177
929.167000	-5.485308
929.372000	2.244971
929.578000	0.585444
929.784000	-6.497596
929.990000	-8.918514
930.195000	-4.546974
930.401000	-3.883094
930.607000	-3.381351
930.812000	-2.463691
931.018000	-5.419687
931.224000	-11.241647
931.429000	-7.655002
931.635000	-10.824589
931.841000	-11.126330
932.046000	-7.119466
932.252000	-2.474511
932.458000	4.933965
932.664000	0.354131
932.869000	-6.735523
933.075000	-9.770196
933.281000	-7.584239
933.486000	-0.110330
933.692000	-3.974799
933.898000	-9.060538
934.103000	-1.984619
934.309000	-4.925457
934.515000	-2.780654
934.720000	-1.437571
934.926000	2.261672
935.132000	1.850794
935.338000	-1.819503
935.543000	-9.722796
935.749000	-10.865374
935.955000	-11.311449
936.160000	-10.273874
936.366000	-2.678276
936.572000	-2.936657
936.777000	-0.618935
936.983000	1.237271
937.189000	-4.405031
937.394000	-8.868267
937.600000	1.773255
937.806000	5.046930
938.012000	-4.515697
938.217000	5.461422
938.423000	2.064976
938.629000	-6.972638
938.834000	-13.078452
939.040000	-12.669825
939.246000	-6.734213
939.451000	-9.652319
939.657000	-5.553904
939.863000	-9.567577
940.068000	-1.432805
940.274000	-6.857413
940.480000	-4.819416
940.686000	-1.446801
940.891000	-4.824831
941.097000	10.016474
941.303000	0.561072
941.508000	-5.164053
941.714000	-1.523085
941.920000	-14.077575
942.125000	-4.287755
942.331000	-1.427177
942.537000	4.897576
942.742000	2.260002
942.948000	-8.798980
943.154000	-10.240492
943.360000	-21.146223
943.565000	-7.491366
943.771000	2.826348
943.977000	6.141234
944.182000	-12.715725
944.388000	-14.758615
944.594000	-0.444056
944.799000	8.060211
945.005000	-0.031828
945.211000	3.798809
945.416000	1.356811
945.622000	-11.499493
945.828000	-9.558822
946.034000	-0.271851
946.239000	-0.848883
946.445000	-6.266023
946.651000	-16.576046
946.856000	-14.874987
947.062000	-2.350062
947.268000	0.633299
947.473000	-13.993971
947.679000	-16.917136
947.885000	-3.218300
948.090000	1.907886
948.296000	14.430233
948.502000	1.036394
948.708000	-9.458066
948.913000	-11.060349
949.119000	2.397930
949.325000	-4.257411
949.530000	-18.378021
949.736000	-22.624681
949.942000	-12.815029
950.147000	-13.504753
950.353000	-10.038881
950.559000	-5.311198
950.764000	15.743812
950.970000	8.133553
951.176000	-6.676641
951.382000	-12.261858
951.587000	-0.609803
951.793000	2.429104
951.999000	1.101605
952.204000	-10.585831
952.410000	-22.810089
952.616000	-11.128807
952.821000	-5.721986
953.027000	-12.152522
953.233000	-14.532029
953.438000	-13.203315
953.644000	0.546590
953.850000	-4.232261
954.056000	-7.604229
954.261000	-8.083468
954.467000	-0.525006
954.673000	7.469732
954.878000	-2.476788
955.084000	-3.456593
955.290000	-17.908369
955.495000	-20.255662
955.701000	-14.861008
955.907000	3.124314
956.112000	0.904645
956.318000	9.477568
956.524000	8.473955
956.730000	-7.386517
956.935000	-10.186476
957.141000	-11.918893
957.347000	-0.268510
957.552000	-5.575748
957.758000	-20.199557
957.964000	-29.865850
958.169000	4.770862
958.375000	3.855260
958.581000	-11.610589
958.786000	-22.860196
958.992000	-27.169723
959.198000	-11.033484
959.404000	-3.315557
959.609000	-12.002593
959.815000	-14.102471
960.021000	3.170145
960.226000	-4.812603
960.432000	-26.707340
960.638000	-15.907459
960.843000	-9.279125
961.049000	-12.192790
961.255000	-0.357460
961.460000	-11.666367
961.666000	-30.921216
961.872000	-18.509960
962.078000	-15.197018
962.283000	-23.551037
962.489000	-25.394718
962.695000	-17.452549
962.900000	-11.991424
963.106000	-8.249220
963.312000	-12.145708
963.517000	-17.852505
963.723000	-21.789339
963.929000	0.761747
964.134000	7.690029
964.340000	-15.014645
964.546000	-13.915698
964.752000	-17.988850
964.957000	-27.121903
965.163000	-4.679019
965.369000	-3.390087
965.574000	-0.481095
965.780000	-7.308691
966.000000	-17.383971
966.220000	-10.686683
966.440000	-9.215758
966.661000	1.339134
966.881000	-19.429416
967.101000	-34.861045
967.321000	-33.946536
967.541000	-10.686490
967.761000	-17.355004
967.981000	-8.923404
968.202000	-5.979003
968.422000	2.263684
968.642000	1.486509
968.862000	1.124422
969.082000	-10.590118
969.302000	-3.655872
969.522000	-8.416441
969.743000	7.146862
969.963000	-11.736717
970.183000	-23.559742
970.403000	-21.007594
970.623000	-18.054636
970.843000	5.479871
971.063000	-0.226606
971.284000	-21.590834
971.504000	-30.197727
971.724000	-9.237953
971.944000	-24.252295
972.164000	-33.518291
972.384000	-24.229413
972.604000	-37.183752
972.825000	-42.276670
973.045000	-29.403539
973.265000	21.493623
973.485000	10.914007
973.705000	-8.639662
973.925000	-15.531041
974.145000	-46.533058
974.365000	-14.863380
974.586000	-12.374462
974.806000	-30.225666
975.026000	1.178213
975.246000	-9.525992
975.466000	-24.373280
975.686000	-11.125852
975.906000	-18.580536
976.127000	-41.527913
976.347000	-35.289960
976.567000	-7.638947
976.787000	-7.862330
977.007000	-15.905405
977.227000	-20.429007
977.447000	-24.226937
977.668000	-45.943909
977.888000	-25.890046
978.108000	-23.297436
978.328000	-15.672224
978.548000	15.923711
978.768000	20.105692
978.988000	0.597546
979.209000	-17.474618
979.429000	-17.575173
979.649000	-2.173846
979.869000	-24.240550
980.089000	-42.391980
980.309000	-45.118536
980.529000	-52.227550
980.750000	-34.269178
980.970000	-44.200424
981.190000	-26.597125
981.410000	-23.327887
981.630000	-33.403783
981.850000	-26.005964
982.070000	-15.710698
982.291000	-40.841657
982.511000	-40.332411
982.731000	-5.644755
982.951000	-25.541417
983.171000	-25.398453
983.391000	-23.499707
983.611000	3.446666
983.832000	-19.375625
984.052000	-42.583585
984.272000	-24.492734
984.492000	-18.309153
984.712000	-27.977372
984.932000	-48.877746
985.152000	-55.106903
985.373000	-39.030413
985.593000	-13.689937
985.813000	-23.892131
986.033000	-33.695400
986.253000	4.821964
986.473000	14.948042
986.693000	-16.765288
986.914000	-32.844759
987.134000	3.258271
987.354000	-25.942424
987.574000	109.012389
987.794000	61.972086
988.014000	-39.951789
988.234000	-19.747805
988.455000	-2.594432
988.675000	-4.434275
988.895000	-21.947879
989.115000	-38.398675
989.335000	-15.006635
989.555000	2.583860
989.775000	-41.990751
989.995000	-32.278991
990.216000	-16.099655
990.436000	-20.187045
990.656000	7.555977
990.876000	-22.854532
991.096000	-11.630341
991.316000	6.927715
991.536000	-23.162623
991.757000	-25.642720
991.977000	-64.757783
992.197000	-14.823030
992.417000	-31.780769
992.637000	-73.089003
992.857000	-76.869553
993.077000	-73.739763
993.298000	-32.233551
993.518000	-33.870101
993.738000	-88.060734
993.958000	-49.883422
994.178000	-49.076293
994.398000	-29.980100
994.618000	-66.321236
994.839000	-119.691263
995.059000	-35.244295
995.279000	40.691803
995.499000	7.464500
995.719000	-5.499680
995.939000	-26.709187
996.159000	-18.039071
996.380000	-10.554544
996.600000	-66.591328
996.820000	-26.669601
997.040000	17.802260
997.260000	-47.578356
997.480000	-33.043121
997.700000	-94.722878
997.921000	-53.989895
998.141000	41.247420
998.361000	-3.390941
998.581000	-54.941394
998.801000	-80.655458
999.021000	-49.167020
999.241000	-21.475867
999.462000	-48.606857
999.682000	-101.399430
999.902000	-52.060814
1000.122000	-67.741872
1000.342000	-119.158604
1000.562000	-49.667451
1000.782000	-47.970746
1001.003000	-996.926510
