Wavelength	Irradiance
(nm)	(mW/cm2/nm)

294.396000	0.000000
294.577000	0.000000
294.757000	0.000000
294.938000	-0.000000
295.118000	-0.000000
295.299000	0.000000
295.479000	-0.000000
295.660000	-0.000000
295.840000	-0.000000
296.021000	-0.000000
296.202000	-0.000000
296.382000	-0.000000
296.563000	-0.000000
296.743000	-0.000000
296.924000	0.000000
297.104000	-0.000000
297.285000	-0.000000
297.465000	-0.000000
297.646000	-0.000000
297.826000	-0.000000
298.007000	0.000000
298.187000	-0.000000
298.368000	-0.000000
298.548000	0.000000
298.729000	0.000000
298.909000	-0.000000
299.090000	-0.000000
299.270000	-0.000000
299.451000	-0.000000
299.631000	-0.000000
299.812000	-0.000000
299.992000	0.000000
300.173000	0.000000
300.353000	-0.000000
300.534000	0.000000
300.714000	0.000000
300.895000	0.000000
301.075000	-0.000000
301.256000	0.000000
301.436000	0.000000
301.617000	-0.000000
301.797000	-0.000000
301.978000	-0.000000
302.159000	0.000000
302.339000	0.000000
302.520000	-0.000000
302.700000	-0.000000
302.881000	0.000000
303.061000	0.000000
303.242000	0.000000
303.422000	0.000000
303.603000	-0.000000
303.783000	-0.000000
303.964000	0.000000
304.144000	-0.000000
304.325000	-0.000000
304.505000	-0.000000
304.686000	-0.000000
304.866000	0.000000
305.047000	-0.000000
305.227000	-0.000000
305.408000	-0.000000
305.588000	-0.000000
305.769000	-0.000000
305.949000	-0.000000
306.130000	-0.000000
306.310000	-0.000000
306.491000	-0.000000
306.671000	0.000000
306.852000	-0.000000
307.032000	-0.000000
307.213000	-0.000000
307.393000	-0.000000
307.574000	0.000000
307.755000	0.000000
307.935000	0.000000
308.116000	-0.000000
308.296000	-0.000000
308.477000	0.000000
308.657000	0.000000
308.838000	0.000000
309.018000	0.000000
309.199000	-0.000000
309.379000	-0.000000
309.560000	0.000000
309.740000	-0.000000
309.921000	0.000000
310.101000	0.000000
310.282000	-0.000000
310.462000	-0.000000
310.643000	-0.000000
310.823000	-0.000000
311.004000	-0.000000
311.184000	-0.000000
311.365000	0.000000
311.545000	0.000000
311.726000	0.000000
311.906000	0.000000
312.087000	0.000000
312.267000	-0.000000
312.448000	-0.000000
312.628000	-0.000000
312.809000	-0.000000
312.989000	-0.000000
313.170000	-0.000000
313.344000	-0.000000
313.518000	-0.000000
313.691000	-0.000000
313.865000	-0.000000
314.039000	-0.000000
314.213000	-0.000000
314.387000	-0.000000
314.560000	-0.000000
314.734000	-0.000000
314.908000	-0.000000
315.082000	-0.000000
315.255000	0.000000
315.429000	0.000000
315.603000	0.000000
315.777000	-0.000000
315.951000	0.000000
316.124000	-0.000000
316.298000	-0.000000
316.472000	-0.000000
316.646000	-0.000000
316.820000	-0.000000
316.993000	0.000000
317.167000	-0.000000
317.341000	-0.000000
317.515000	-0.000000
317.688000	-0.000000
317.862000	-0.000000
318.036000	-0.000000
318.210000	-0.000000
318.384000	-0.000000
318.557000	-0.000000
318.731000	-0.000000
318.905000	-0.000000
319.079000	0.000000
319.253000	-0.000000
319.426000	0.000000
319.600000	0.000000
319.774000	-0.000000
319.948000	-0.000000
320.122000	0.000000
320.295000	-0.000000
320.469000	-0.000000
320.643000	-0.000000
320.817000	-0.000000
320.990000	-0.000000
321.164000	-0.000000
321.338000	-0.000000
321.512000	-0.000000
321.686000	-0.000000
321.859000	-0.000000
322.033000	0.000000
322.207000	-0.000000
322.381000	-0.000000
322.555000	0.000000
322.728000	0.000000
322.902000	-0.000000
323.076000	-0.000000
323.250000	-0.000000
323.423000	-0.000000
323.597000	-0.000000
323.771000	-0.000000
323.945000	-0.000000
324.119000	-0.000000
324.292000	0.000000
324.466000	-0.000000
324.640000	0.000000
324.814000	0.000000
324.988000	-0.000000
325.161000	-0.000000
325.335000	-0.000000
325.509000	-0.000000
325.683000	-0.000000
325.856000	-0.000000
326.030000	-0.000000
326.204000	-0.000000
326.378000	-0.000000
326.552000	-0.000000
326.725000	-0.000000
326.899000	-0.000000
327.073000	-0.000000
327.247000	-0.000000
327.421000	0.000000
327.594000	0.000000
327.768000	-0.000000
327.942000	-0.000000
328.116000	0.000000
328.289000	0.000000
328.463000	0.000000
328.637000	0.000000
328.811000	-0.000000
328.985000	-0.000000
329.158000	-0.000000
329.332000	-0.000000
329.506000	0.000000
329.680000	-0.000000
329.854000	-0.000000
330.027000	-0.000000
330.201000	0.000000
330.375000	0.000000
330.549000	0.000000
330.723000	-0.000000
330.896000	-0.000000
331.070000	-0.000000
331.244000	-0.000000
331.418000	-0.000000
331.591000	-0.000000
331.765000	-0.000000
331.939000	-0.000000
332.113000	-0.000000
332.287000	-0.000000
332.460000	0.000000
332.634000	0.000000
332.808000	-0.000000
332.982000	-0.000000
333.156000	-0.000000
333.329000	-0.000000
333.503000	-0.000000
333.677000	-0.000000
333.851000	-0.000000
334.024000	-0.000000
334.198000	-0.000000
334.372000	-0.000000
334.546000	-0.000000
334.720000	-0.000000
334.893000	-0.000000
335.067000	-0.000000
335.241000	0.000000
335.415000	-0.000000
335.589000	-0.000000
335.762000	-0.000000
335.936000	-0.000000
336.110000	-0.000000
336.284000	-0.000000
336.458000	0.000000
336.631000	-0.000000
336.805000	-0.000000
336.979000	-0.000000
337.153000	-0.000000
337.326000	-0.000000
337.500000	-0.000000
337.674000	-0.000000
337.848000	-0.000000
338.022000	0.000000
338.195000	-0.000000
338.369000	-0.000000
338.543000	-0.000000
338.717000	-0.000000
338.891000	0.000000
339.064000	0.000000
339.238000	-0.000000
339.412000	-0.000000
339.586000	-0.000000
339.759000	-0.000000
339.933000	-0.000000
340.107000	0.000000
340.281000	-0.000000
340.455000	-0.000000
340.628000	-0.000000
340.802000	-0.000000
340.976000	-0.000000
341.150000	-0.000000
341.324000	-0.000000
341.497000	-0.000000
341.671000	-0.000000
341.845000	-0.000000
342.019000	-0.000000
342.192000	-0.000000
342.366000	-0.000000
342.540000	-0.000000
342.714000	-0.000000
342.888000	-0.000000
343.061000	-0.000000
343.235000	-0.000000
343.409000	-0.000000
343.583000	-0.000000
343.757000	-0.000000
343.930000	-0.000000
344.104000	-0.000000
344.278000	0.000000
344.452000	0.000000
344.626000	-0.000000
344.799000	-0.000000
344.973000	-0.000000
345.147000	-0.000000
345.321000	-0.000000
345.494000	-0.000000
345.668000	0.000000
345.842000	0.000000
346.016000	-0.000000
346.190000	0.000000
346.363000	0.000000
346.537000	-0.000000
346.711000	-0.000000
346.885000	-0.000000
347.059000	-0.000000
347.232000	-0.000000
347.406000	0.000000
347.580000	-0.000000
347.754000	-0.000000
347.927000	0.000000
348.101000	0.000000
348.275000	-0.000000
348.449000	-0.000000
348.623000	-0.000000
348.796000	-0.000000
348.970000	0.000000
349.144000	0.000000
349.318000	-0.000000
349.492000	-0.000000
349.665000	-0.000000
349.839000	-0.000000
350.013000	-0.000000
350.187000	-0.000000
350.361000	-0.000000
350.534000	-0.000000
350.708000	-0.000000
350.882000	-0.000000
351.056000	0.000000
351.229000	0.000000
351.403000	-0.000000
351.577000	-0.000000
351.751000	-0.000000
351.925000	-0.000000
352.098000	-0.000000
352.272000	-0.000000
352.446000	-0.000000
352.620000	-0.000000
352.794000	-0.000000
352.967000	-0.000000
353.141000	0.000000
353.315000	0.000000
353.489000	-0.000000
353.662000	-0.000000
353.836000	-0.000000
354.010000	-0.000000
354.184000	-0.000000
354.358000	-0.000000
354.531000	-0.000000
354.705000	-0.000000
354.879000	-0.000000
355.053000	-0.000000
355.227000	0.000000
355.400000	-0.000000
355.574000	0.000000
355.748000	0.000000
355.922000	-0.000000
356.095000	-0.000000
356.269000	-0.000000
356.443000	-0.000000
356.617000	-0.000000
356.791000	-0.000000
356.964000	-0.000000
357.138000	-0.000000
357.312000	-0.000000
357.486000	-0.000000
357.660000	-0.000000
357.833000	-0.000000
358.007000	-0.000000
358.181000	-0.000000
358.355000	-0.000000
358.529000	-0.000000
358.702000	-0.000000
358.876000	-0.000000
359.050000	-0.000000
359.224000	-0.000000
359.397000	0.000000
359.571000	-0.000000
359.745000	-0.000000
359.919000	-0.000000
360.093000	-0.007884
360.266000	0.067236
360.440000	0.095170
360.614000	0.084333
360.788000	-0.013094
360.962000	-0.205856
361.135000	-0.100666
361.309000	-0.202937
361.483000	-0.284461
361.657000	-0.217450
361.830000	-0.177745
362.004000	-0.057499
362.178000	-0.374695
362.352000	-0.222654
362.526000	-0.076903
362.699000	-0.073604
362.873000	-0.379176
363.047000	-0.358118
363.221000	-0.321473
363.395000	-0.182173
363.568000	-0.201935
363.742000	-0.186342
363.916000	-0.188422
364.090000	-0.301145
364.263000	-0.271079
364.437000	-0.338324
364.611000	-0.067814
364.785000	-0.091263
364.959000	-0.208487
365.132000	-0.176003
365.306000	-0.243562
365.480000	-0.119987
365.656000	-0.202929
365.831000	-0.177078
366.007000	-0.184961
366.183000	-0.174423
366.358000	-0.273210
366.534000	-0.133407
366.710000	-0.297089
366.886000	-0.251640
367.061000	-0.110038
367.237000	0.042052
367.413000	-0.089131
367.588000	-0.314224
367.764000	-0.295940
367.940000	-0.314792
368.115000	-0.289741
368.291000	-0.308327
368.467000	-0.153007
368.643000	0.163580
368.818000	-0.233016
368.994000	-0.363899
369.170000	-0.257208
369.345000	-0.208809
369.521000	-0.253800
369.697000	-0.149178
369.872000	-0.205620
370.048000	-0.303783
370.224000	-0.247268
370.399000	-0.452223
370.575000	-0.334193
370.751000	-0.434585
370.927000	-0.404887
371.102000	-0.356285
371.278000	-0.336887
371.454000	-0.228684
371.629000	0.032877
371.805000	-0.052077
371.981000	0.098946
372.156000	0.311576
372.332000	0.072838
372.508000	-0.050867
372.683000	-0.050564
372.859000	-0.124745
373.035000	-0.164024
373.211000	0.133622
373.386000	-0.046461
373.562000	-0.347739
373.738000	-0.448919
373.913000	-0.624549
374.089000	-0.451348
374.265000	-0.008465
374.440000	-0.008540
374.616000	-0.002162
374.792000	-0.190177
374.968000	0.243239
375.143000	-0.017089
375.319000	-0.282756
375.495000	-0.377414
375.670000	-0.207198
375.846000	-0.088626
376.022000	-0.268151
376.197000	-0.189313
376.373000	-0.367756
376.549000	-0.384961
376.724000	-0.463329
376.900000	-0.320348
377.076000	-0.171009
377.252000	0.022118
377.427000	0.097667
377.603000	-0.240953
377.779000	-0.190543
377.954000	-0.316221
378.130000	-0.224713
378.306000	-0.192683
378.481000	-0.174857
378.657000	-0.236918
378.833000	-0.273986
379.009000	-0.119739
379.184000	0.034527
379.360000	-0.058895
379.536000	-0.071577
379.711000	-0.157062
379.887000	-0.248802
380.063000	-0.305375
380.238000	-0.346466
380.414000	-0.050458
380.590000	-0.289187
380.765000	-0.302907
380.941000	-0.116462
381.117000	-0.060672
381.293000	-0.108285
381.468000	-0.290069
381.644000	-0.216514
381.820000	-0.123162
381.995000	-0.002059
382.171000	0.182871
382.347000	0.085431
382.522000	-0.269115
382.698000	0.107368
382.874000	0.124015
383.050000	-0.287260
383.225000	0.105332
383.401000	0.286045
383.577000	-0.095944
383.752000	-0.239957
383.928000	-0.194087
384.104000	-0.095012
384.279000	-0.179529
384.455000	-0.103105
384.631000	-0.134220
384.806000	-0.339946
384.982000	-0.173724
385.158000	-0.253396
385.334000	-0.067147
385.509000	-0.151858
385.685000	-0.444144
385.861000	-0.256946
386.036000	-0.348715
386.212000	-0.509519
386.388000	-0.339869
386.563000	-0.284985
386.739000	-0.334470
386.915000	-0.549799
387.090000	-0.257468
387.266000	-0.060588
387.442000	0.058860
387.618000	-0.047023
387.793000	-0.356843
387.969000	-0.511886
388.145000	-0.404453
388.320000	-0.346433
388.496000	-0.329538
388.672000	-0.539498
388.847000	-0.097484
389.023000	-0.069639
389.199000	-0.371718
389.375000	-0.192437
389.550000	-0.285475
389.726000	-0.142339
389.902000	-0.383348
390.077000	-0.249442
390.253000	-0.179638
390.429000	-0.226841
390.604000	-0.134787
390.780000	-0.102546
390.956000	-0.242143
391.131000	-0.284527
391.307000	-0.006605
391.483000	-0.212798
391.659000	-0.332039
391.834000	-0.098015
392.010000	-0.270072
392.186000	-0.316629
392.361000	-0.239636
392.537000	-0.373966
392.713000	0.093802
392.888000	0.214936
393.064000	-0.084427
393.240000	-0.219047
393.416000	-0.323313
393.591000	-0.425161
393.767000	-0.452903
393.943000	-0.327114
394.118000	-0.075155
394.294000	0.118570
394.470000	-0.029987
394.645000	0.036162
394.821000	0.215414
394.997000	-0.098139
395.172000	-0.120998
395.348000	-0.206001
395.524000	-0.487281
395.700000	-0.357855
395.875000	-0.122320
396.051000	-0.138713
396.227000	-0.214234
396.402000	-0.262313
396.578000	-0.179148
396.754000	-0.347814
396.929000	-0.285552
397.105000	-0.010691
397.281000	-0.097729
397.457000	-0.214993
397.632000	-0.237729
397.808000	-0.499600
397.984000	-0.618448
398.159000	-0.528314
398.335000	-0.305629
398.511000	0.159046
398.686000	-0.093709
398.862000	-0.320065
399.038000	-0.431901
399.213000	-0.198060
399.389000	-0.467762
399.565000	-0.155627
399.741000	0.072804
399.916000	-0.017148
400.092000	0.220967
400.268000	-0.125798
400.443000	-0.282192
400.619000	0.059120
400.795000	-0.012786
400.970000	-0.205635
401.146000	-0.303868
401.322000	0.014495
401.497000	0.405454
401.673000	0.085712
401.849000	-0.225518
402.025000	-0.047477
402.200000	-0.158944
402.376000	-0.258509
402.552000	0.125385
402.727000	-0.054876
402.903000	-0.343147
403.079000	-0.240700
403.254000	-0.024556
403.430000	-0.023317
403.606000	-0.093316
403.782000	-0.156622
403.957000	-0.354343
404.133000	-0.454692
404.309000	-0.268713
404.484000	-0.072887
404.660000	-0.072010
404.841000	-0.206009
405.023000	0.002471
405.204000	-0.066485
405.385000	-0.386122
405.566000	-0.375765
405.748000	-0.225066
405.929000	0.005800
406.110000	-0.067819
406.292000	-0.189218
406.473000	-0.112394
406.654000	-0.318872
406.835000	-0.160346
407.017000	-0.194117
407.198000	-0.157959
407.379000	-0.120447
407.560000	-0.166518
407.742000	-0.224567
407.923000	-0.157972
408.104000	-0.285829
408.286000	-0.167599
408.467000	-0.143712
408.648000	-0.368899
408.829000	-0.413459
409.011000	-0.235657
409.192000	-0.429524
409.373000	-0.211636
409.555000	-0.085333
409.736000	-0.125174
409.917000	-0.227047
410.098000	-0.223423
410.280000	-0.124957
410.461000	-0.117379
410.642000	-0.128123
410.823000	0.117131
411.005000	0.060379
411.186000	-0.198973
411.367000	-0.280406
411.549000	-0.283368
411.730000	-0.035530
411.911000	0.080307
412.092000	-0.115116
412.274000	-0.167364
412.455000	-0.098831
412.636000	-0.078030
412.818000	-0.284764
412.999000	-0.347942
413.180000	-0.244001
413.361000	-0.233431
413.543000	-0.279929
413.724000	-0.354786
413.905000	-0.332021
414.087000	-0.373177
414.268000	-0.362930
414.449000	-0.362580
414.630000	-0.441391
414.812000	-0.565115
414.993000	-0.202887
415.174000	-0.011952
415.355000	-0.208349
415.537000	-0.469397
415.718000	-0.189201
415.899000	-0.280556
416.081000	-0.378063
416.262000	-0.196611
416.443000	-0.312554
416.624000	-0.246172
416.806000	-0.151509
416.987000	-0.021051
417.168000	-0.098760
417.350000	-0.285700
417.531000	-0.330191
417.712000	-0.307062
417.893000	-0.110148
418.075000	-0.028709
418.256000	-0.246492
418.437000	-0.145751
418.618000	-0.061924
418.800000	0.004309
418.981000	-0.195130
419.162000	-0.180004
419.344000	0.019245
419.525000	-0.097950
419.706000	-0.197421
419.887000	-0.071819
420.069000	0.068341
420.250000	-0.022708
420.431000	-0.082527
420.613000	-0.148089
420.794000	-0.357312
420.975000	-0.012626
421.156000	-0.198914
421.338000	-0.254487
421.519000	-0.230554
421.700000	-0.282136
421.882000	-0.281088
422.063000	-0.107202
422.244000	0.282547
422.425000	0.077840
422.607000	-0.234759
422.788000	-0.257668
422.969000	-0.327379
423.150000	-0.346647
423.332000	-0.387280
423.513000	-0.182673
423.694000	-0.167638
423.876000	-0.148194
424.057000	-0.078445
424.238000	-0.041721
424.419000	-0.012743
424.601000	-0.153202
424.782000	-0.119972
424.963000	0.002286
425.145000	-0.081428
425.326000	-0.030466
425.507000	0.018134
425.688000	-0.093322
425.870000	-0.248684
426.051000	-0.378071
426.232000	-0.330375
426.413000	-0.281377
426.595000	-0.278910
426.776000	-0.307584
426.957000	-0.241084
427.139000	-0.171531
427.320000	-0.159320
427.501000	-0.041763
427.682000	-0.045545
427.864000	-0.066437
428.045000	0.091205
428.226000	0.052433
428.408000	-0.282145
428.589000	-0.145310
428.770000	-0.115128
428.951000	-0.238111
429.133000	-0.380020
429.314000	-0.200474
429.495000	-0.205723
429.677000	-0.209419
429.858000	-0.234404
430.039000	-0.162302
430.220000	-0.076058
430.402000	0.004251
430.583000	-0.242460
430.764000	-0.225704
430.945000	-0.116385
431.127000	0.010112
431.308000	-0.144342
431.489000	-0.035082
431.671000	0.041738
431.852000	-0.034010
432.033000	-0.117331
432.214000	-0.067209
432.396000	-0.029954
432.577000	-0.206035
432.758000	-0.343846
432.940000	-0.259250
433.121000	-0.174835
433.302000	-0.148903
433.483000	0.055764
433.665000	0.128824
433.846000	0.020736
434.027000	-0.100323
434.208000	-0.201639
434.390000	-0.242141
434.571000	0.164245
434.752000	0.611782
434.934000	0.433171
435.115000	0.347844
435.296000	0.412039
435.477000	0.230918
435.659000	-0.026229
435.840000	0.005034
436.026000	-0.006345
436.211000	-0.110393
436.397000	-0.390801
436.582000	-0.292808
436.768000	-0.064690
436.953000	-0.159579
437.139000	-0.140465
437.325000	0.110515
437.510000	0.056324
437.696000	0.208022
437.881000	0.190952
438.067000	-0.171732
438.252000	-0.154277
438.438000	-0.153243
438.624000	-0.147701
438.809000	-0.082622
438.995000	-0.006164
439.180000	-0.096028
439.366000	-0.127080
439.551000	-0.129655
439.737000	-0.106564
439.923000	-0.059157
440.108000	-0.152219
440.294000	-0.097133
440.479000	0.040185
440.665000	0.103009
440.850000	0.005646
441.036000	-0.001527
441.222000	-0.035812
441.407000	-0.149860
441.593000	-0.040011
441.778000	0.063674
441.964000	0.124036
442.149000	-0.190930
442.335000	-0.210416
442.521000	-0.090307
442.706000	0.048906
442.892000	-0.022679
443.077000	-0.099788
443.263000	-0.012080
443.448000	-0.069959
443.634000	-0.127983
443.820000	0.196643
444.005000	0.058702
444.191000	-0.179793
444.376000	-0.163288
444.562000	0.195663
444.747000	0.171480
444.933000	0.008060
445.119000	-0.084469
445.304000	-0.130912
445.490000	0.036518
445.675000	0.035638
445.861000	-0.133848
446.046000	-0.135282
446.232000	-0.067850
446.418000	-0.000603
446.603000	-0.016963
446.789000	-0.004043
446.974000	-0.017859
447.160000	-0.223249
447.345000	-0.140840
447.531000	-0.162931
447.717000	0.004556
447.902000	0.056367
448.088000	0.108383
448.273000	-0.014257
448.459000	-0.047419
448.644000	-0.100256
448.830000	-0.174158
449.016000	-0.251750
449.201000	-0.174620
449.387000	-0.078401
449.572000	0.036057
449.758000	-0.061930
449.943000	-0.169505
450.129000	-0.202816
450.315000	-0.179536
450.500000	-0.194122
450.686000	-0.125599
450.871000	-0.230415
451.057000	-0.078769
451.243000	-0.082922
451.428000	-0.100031
451.614000	-0.089620
451.799000	-0.134477
451.985000	0.076484
452.170000	0.112797
452.356000	-0.108826
452.542000	-0.117423
452.727000	0.032323
452.913000	-0.081743
453.098000	0.072099
453.284000	0.228381
453.469000	0.099226
453.655000	0.186877
453.841000	0.098055
454.026000	-0.045917
454.212000	-0.001423
454.397000	0.005280
454.583000	-0.172221
454.768000	-0.237710
454.954000	-0.000585
455.140000	0.040300
455.325000	-0.152091
455.511000	-0.234808
455.696000	-0.188818
455.882000	-0.074874
456.067000	0.097959
456.253000	-0.054870
456.439000	-0.169263
456.624000	-0.174532
456.810000	-0.175712
456.995000	-0.146860
457.181000	-0.206156
457.366000	-0.005526
457.552000	-0.007967
457.738000	0.088851
457.923000	0.087364
458.109000	0.189024
458.294000	0.110600
458.480000	0.076930
458.665000	0.039707
458.851000	-0.081818
459.037000	-0.245941
459.222000	-0.084541
459.408000	-0.078836
459.593000	-0.050059
459.779000	0.056854
459.964000	0.208452
460.150000	0.380879
460.336000	0.249148
460.521000	0.066265
460.707000	-0.050366
460.892000	-0.141665
461.078000	0.052475
461.263000	0.141042
461.449000	-0.037494
461.635000	-0.015800
461.820000	0.013847
462.006000	0.096675
462.191000	0.092350
462.377000	-0.110604
462.562000	0.135262
462.748000	0.308419
462.934000	-0.035455
463.119000	-0.179774
463.305000	0.015959
463.490000	-0.049835
463.676000	0.009647
463.861000	-0.004490
464.047000	-0.053163
464.233000	0.021297
464.418000	0.003351
464.604000	-0.079078
464.789000	0.074934
464.975000	0.099518
465.160000	-0.002875
465.346000	0.018093
465.532000	-0.100862
465.717000	-0.129426
465.903000	0.127359
466.088000	0.087717
466.274000	-0.105294
466.459000	-0.120068
466.645000	0.243480
466.831000	0.214327
467.016000	0.205548
467.202000	0.073338
467.387000	-0.018954
467.573000	-0.139635
467.758000	0.125042
467.944000	0.021528
468.130000	-0.067059
468.315000	0.082090
468.501000	0.198434
468.686000	0.093766
468.872000	0.096841
469.057000	0.159179
469.243000	0.068772
469.429000	0.051978
469.614000	-0.017234
469.800000	-0.087843
469.985000	0.060019
470.171000	0.154804
470.356000	0.045637
470.542000	0.095196
470.728000	0.091082
470.913000	0.065768
471.099000	0.202741
471.284000	0.112441
471.470000	0.048823
471.655000	0.068575
471.841000	0.071386
472.027000	0.005497
472.212000	0.187873
472.398000	0.240660
472.583000	0.146306
472.769000	0.164020
472.954000	0.144080
473.140000	-0.011082
473.326000	-0.026193
473.511000	0.281213
473.697000	0.269477
473.882000	0.119882
474.068000	0.056375
474.253000	-0.003551
474.439000	0.101625
474.625000	0.165642
474.810000	0.177098
474.996000	0.192215
475.181000	0.021312
475.367000	0.185671
475.552000	0.422510
475.738000	0.116322
475.924000	0.104495
476.109000	0.209434
476.295000	0.116599
476.480000	0.171183
476.666000	0.156572
476.851000	0.188195
477.037000	0.227121
477.223000	0.132502
477.408000	0.067517
477.594000	-0.011859
477.779000	0.158420
477.965000	0.179676
478.151000	0.047919
478.336000	0.195717
478.522000	0.158210
478.707000	0.118135
478.893000	0.212296
479.078000	0.054135
479.264000	0.067819
479.450000	0.160537
479.635000	0.290063
479.821000	0.211525
480.006000	0.300984
480.192000	0.309045
480.377000	0.319603
480.563000	0.308655
480.749000	0.137058
480.934000	0.191584
481.120000	0.327820
481.305000	0.405942
481.491000	0.404561
481.676000	0.449570
481.862000	0.454418
482.048000	0.319325
482.233000	0.381782
482.419000	0.406925
482.604000	0.345060
482.790000	0.357221
482.975000	0.433578
483.161000	0.595248
483.347000	0.560996
483.532000	0.516450
483.718000	0.319946
483.903000	0.400248
484.089000	0.449354
484.274000	0.363810
484.460000	0.525445
484.646000	0.568755
484.831000	0.437754
485.017000	0.525733
485.202000	0.566302
485.388000	0.808372
485.573000	0.808287
485.759000	0.626699
485.945000	0.811257
486.130000	0.668650
486.316000	0.688553
486.501000	0.774899
486.687000	0.612769
486.872000	0.586963
487.058000	0.758442
487.244000	0.798128
487.429000	0.649930
487.615000	0.824538
487.800000	0.910127
487.986000	0.827256
488.171000	0.938043
488.357000	0.901197
488.543000	0.936686
488.728000	0.992928
488.914000	0.947301
489.099000	0.858717
489.285000	0.875992
489.470000	1.089410
489.656000	1.128913
489.842000	1.122358
490.027000	1.215020
490.213000	1.067535
490.398000	0.817910
490.584000	1.102692
490.769000	1.143356
490.955000	1.204127
491.141000	1.245660
491.326000	1.247908
491.512000	1.388912
491.697000	1.300416
491.883000	1.201342
492.068000	1.202222
492.254000	1.232248
492.440000	1.331251
492.625000	1.318520
492.811000	1.318773
492.996000	1.418251
493.182000	1.452229
493.367000	1.327432
493.553000	1.287722
493.739000	1.402923
493.924000	1.552388
494.110000	1.598298
494.295000	1.494271
494.481000	1.618596
494.666000	1.691546
494.852000	1.888698
495.038000	1.738130
495.223000	1.647370
495.409000	1.730864
495.594000	1.751809
495.780000	1.841742
495.965000	1.780784
496.151000	2.038262
496.337000	2.141554
496.522000	1.951683
496.708000	2.067539
496.893000	2.233807
497.079000	2.132614
497.264000	2.129258
497.450000	2.181735
497.636000	2.317271
497.821000	2.198093
498.007000	2.486058
498.192000	2.586595
498.378000	2.455046
498.563000	2.437169
498.749000	2.543844
498.935000	2.573005
499.120000	2.724216
499.306000	2.609137
499.491000	2.604227
499.677000	2.742769
499.862000	2.853591
500.048000	2.974295
500.234000	2.945280
500.419000	2.959268
500.605000	3.139416
500.790000	3.110807
500.976000	3.034557
501.161000	3.004269
501.347000	3.260763
501.533000	3.446984
501.718000	3.367316
501.904000	3.356430
502.089000	3.529568
502.275000	3.652108
502.460000	3.549497
502.646000	3.635491
502.832000	3.758925
503.017000	3.811173
503.203000	3.679471
503.388000	3.723733
503.574000	3.981516
503.759000	4.072723
503.945000	4.207492
504.131000	4.177866
504.316000	4.196253
504.502000	4.289542
504.687000	4.294480
504.873000	4.223725
505.058000	4.289101
505.244000	4.348162
505.430000	4.536261
505.615000	4.653873
505.801000	4.738688
505.986000	4.638345
506.172000	4.789702
506.358000	4.872516
506.543000	4.889474
506.729000	5.117557
506.914000	5.184851
507.100000	5.327468
507.285000	5.176964
507.471000	5.200429
507.657000	5.513269
507.842000	5.415925
508.028000	5.297640
508.213000	5.405296
508.399000	5.541195
508.584000	5.711902
508.770000	5.625600
508.956000	5.655690
509.141000	5.767184
509.327000	5.906129
509.512000	5.900316
509.698000	5.971543
509.883000	6.092516
510.069000	6.083158
510.255000	6.152921
510.440000	6.228403
510.626000	6.197893
510.811000	6.209037
510.997000	6.351456
511.182000	6.643441
511.368000	6.559078
511.554000	6.262878
511.739000	6.393980
511.925000	6.645573
512.110000	6.682145
512.296000	6.794354
512.481000	6.773524
512.667000	6.736444
512.853000	6.580675
513.038000	6.682567
513.224000	6.669366
513.409000	6.597507
513.595000	6.767037
513.780000	6.632977
513.966000	6.759863
514.152000	6.740709
514.337000	6.659724
514.523000	6.746264
514.708000	6.868109
514.894000	6.906393
515.079000	6.783876
515.265000	6.865916
515.451000	6.892564
515.636000	6.750778
515.822000	6.849961
516.007000	6.740168
516.193000	6.908976
516.378000	7.003463
516.564000	6.895125
516.750000	6.838008
516.935000	6.893561
517.121000	6.919772
517.306000	7.056411
517.492000	6.929045
517.677000	6.649284
517.863000	6.649031
518.049000	6.788987
518.234000	6.643854
518.420000	6.700588
518.605000	6.894336
518.791000	6.820862
518.976000	6.645950
519.162000	6.520269
519.348000	6.611260
519.533000	6.495763
519.719000	6.631476
519.904000	6.474558
520.090000	6.427128
520.275000	6.606069
520.461000	6.477072
520.647000	6.225377
520.832000	6.047311
521.018000	6.144526
521.203000	6.049142
521.389000	5.843665
521.574000	5.905576
521.760000	6.010428
521.946000	5.956807
522.131000	5.845046
522.317000	5.839023
522.502000	5.756489
522.688000	5.806176
522.873000	5.726283
523.059000	5.632893
523.245000	5.556490
523.430000	5.436084
523.616000	5.387339
523.801000	5.265374
523.987000	5.335731
524.172000	5.390043
524.358000	5.372037
524.544000	5.302426
524.729000	5.334043
524.915000	5.338563
525.100000	5.136101
525.286000	5.137684
525.471000	5.073812
525.657000	4.996817
525.843000	4.758724
526.028000	4.919297
526.214000	4.816961
526.399000	4.645233
526.585000	4.545372
526.770000	4.459961
526.956000	4.535677
527.142000	4.391302
527.327000	4.521081
527.513000	4.342421
527.698000	4.309929
527.884000	4.317976
528.069000	4.239812
528.255000	4.320297
528.441000	4.207588
528.626000	4.189799
528.812000	4.352133
528.997000	4.101889
529.183000	3.967202
529.368000	3.994885
529.554000	3.945095
529.740000	3.946899
529.925000	3.857695
530.111000	3.802897
530.296000	3.825641
530.482000	3.921646
530.667000	3.767906
530.853000	3.779961
531.039000	3.665801
531.224000	3.717056
531.410000	3.770335
531.595000	3.602541
531.781000	3.555717
531.967000	3.418366
532.152000	3.519838
532.338000	3.394362
532.523000	3.230499
532.709000	3.138111
532.894000	3.234204
533.080000	3.281273
533.266000	3.084983
533.451000	2.997516
533.637000	3.044684
533.822000	3.162992
534.008000	2.975787
534.193000	2.998293
534.379000	3.085518
534.565000	2.960120
534.750000	2.882442
534.936000	3.107946
535.121000	2.877521
535.307000	2.838239
535.492000	2.805167
535.678000	2.603133
535.864000	2.717497
536.049000	2.927106
536.235000	2.674901
536.420000	2.661481
536.606000	2.578170
536.791000	2.435548
536.977000	2.426936
537.163000	2.670854
537.348000	2.613978
537.534000	2.596313
537.719000	2.400024
537.905000	2.254488
538.090000	2.464222
538.276000	2.505912
538.462000	2.450549
538.647000	2.444307
538.833000	2.321308
539.018000	2.395676
539.204000	2.314709
539.389000	2.145896
539.575000	2.426754
539.761000	2.333120
539.946000	2.042945
540.132000	2.155701
540.317000	2.014940
540.503000	2.110631
540.688000	2.153001
540.874000	2.359019
541.060000	2.493676
541.245000	2.289926
541.431000	2.102266
541.616000	2.102317
541.802000	2.047952
541.987000	2.137818
542.173000	2.134483
542.359000	1.995960
542.544000	2.117604
542.730000	1.968291
542.915000	1.941224
543.101000	2.071629
543.286000	1.864216
543.472000	1.746470
543.658000	1.824643
543.843000	1.794981
544.029000	1.975015
544.214000	1.823645
544.400000	1.488092
544.585000	1.651682
544.771000	1.771557
544.957000	1.944487
545.142000	2.011410
545.328000	2.019678
545.513000	2.029410
545.699000	1.970270
545.884000	1.760793
546.070000	1.710619
546.261000	1.643617
546.451000	1.443419
546.642000	1.197921
546.833000	1.300971
547.023000	1.193657
547.214000	1.181253
547.405000	1.347250
547.595000	1.631105
547.786000	1.550796
547.977000	1.275133
548.167000	1.096272
548.358000	1.116513
548.549000	1.480315
548.740000	1.274185
548.930000	0.919965
549.121000	1.015667
549.312000	0.944822
549.502000	0.872193
549.693000	1.014952
549.884000	1.087012
550.074000	1.165978
550.265000	0.910375
550.456000	1.019544
550.646000	1.086076
550.837000	1.029675
551.028000	0.889974
551.218000	0.961317
551.409000	0.835485
551.600000	0.875346
551.790000	0.991397
551.981000	0.744919
552.172000	0.743115
552.362000	1.072546
552.553000	1.085480
552.744000	0.892444
552.934000	0.841887
553.125000	0.752334
553.316000	0.701359
553.506000	1.046531
553.697000	0.885471
553.888000	0.858086
554.079000	0.955697
554.269000	0.929702
554.460000	0.617511
554.651000	0.582441
554.841000	0.437944
555.032000	0.513470
555.223000	0.635866
555.413000	0.772577
555.604000	0.719373
555.795000	0.636318
555.985000	0.726017
556.176000	0.627750
556.367000	0.322682
556.557000	0.447230
556.748000	0.549919
556.939000	0.492229
557.129000	0.395701
557.320000	0.521627
557.511000	0.473748
557.701000	0.499138
557.892000	0.549255
558.083000	0.725608
558.273000	0.599014
558.464000	0.390371
558.655000	0.427150
558.845000	0.520585
559.036000	0.578682
559.227000	0.547499
559.418000	0.612935
559.608000	0.619242
559.799000	0.330658
559.990000	0.285524
560.180000	0.318473
560.371000	0.188460
560.562000	0.240291
560.752000	0.427442
560.943000	0.252582
561.134000	0.029604
561.324000	0.288425
561.515000	0.537616
561.706000	0.374793
561.896000	0.142874
562.087000	0.236561
562.278000	0.226765
562.468000	0.082355
562.659000	0.151021
562.850000	0.479634
563.040000	0.575496
563.231000	0.141534
563.422000	0.249584
563.612000	0.139074
563.803000	0.221490
563.994000	0.129607
564.185000	0.083522
564.375000	0.314290
564.566000	0.278710
564.757000	0.246328
564.947000	0.135998
565.138000	0.289920
565.329000	0.195830
565.519000	0.028993
565.710000	0.128952
565.901000	0.358827
566.091000	0.432975
566.282000	0.201831
566.473000	0.200149
566.663000	0.231599
566.854000	0.040288
567.045000	0.140903
567.235000	0.219550
567.426000	0.242539
567.617000	0.224948
567.807000	0.158148
567.998000	0.187034
568.189000	0.077486
568.379000	0.175071
568.570000	0.264163
568.761000	0.181716
568.951000	0.123470
569.142000	0.083218
569.333000	0.052127
569.524000	-0.047183
569.714000	-0.123572
569.905000	-0.215082
570.096000	0.162079
570.286000	0.239036
570.477000	0.392317
570.668000	0.221760
570.858000	0.139733
571.049000	0.032997
571.240000	-0.067152
571.430000	0.131985
571.621000	0.078625
571.812000	0.147189
572.002000	0.158613
572.193000	0.004357
572.384000	0.097524
572.574000	0.153346
572.765000	0.097425
572.956000	0.042660
573.146000	0.196249
573.337000	0.071872
573.528000	0.085834
573.718000	0.212068
573.909000	0.234816
574.100000	0.162077
574.290000	0.039121
574.481000	0.038040
574.672000	0.071892
574.863000	0.197384
575.053000	0.039837
575.244000	0.103843
575.435000	-0.044039
575.625000	-0.046787
575.816000	-0.026157
576.007000	0.081606
576.197000	0.073885
576.388000	0.085326
576.579000	0.192775
576.769000	0.183767
576.960000	-0.085524
577.155000	-0.229217
577.350000	0.055655
577.545000	0.182556
577.740000	-0.007443
577.935000	0.229869
578.130000	0.182744
578.326000	-0.035321
578.521000	0.167673
578.716000	0.179349
578.911000	-0.075276
579.106000	0.054601
579.301000	0.180783
579.496000	0.005966
579.691000	-0.245727
579.886000	-0.038410
580.081000	0.077549
580.276000	0.072659
580.471000	-0.042949
580.666000	-0.164837
580.861000	-0.158214
581.057000	-0.145179
581.252000	-0.037265
581.447000	-0.098059
581.642000	-0.071018
581.837000	-0.075606
582.032000	-0.029615
582.227000	0.186965
582.422000	0.134702
582.617000	-0.055094
582.812000	-0.151603
583.007000	-0.125761
583.202000	-0.186137
583.397000	0.066160
583.592000	0.273402
583.788000	-0.006101
583.983000	-0.031566
584.178000	0.094731
584.373000	-0.084848
584.568000	-0.109068
584.763000	-0.162540
584.958000	-0.226744
585.153000	-0.110079
585.348000	-0.091938
585.543000	0.031040
585.738000	0.000271
585.933000	-0.210538
586.128000	0.016551
586.324000	0.032917
586.519000	0.051016
586.714000	0.135395
586.909000	0.210131
587.104000	0.165256
587.299000	0.041173
587.494000	0.052917
587.689000	-0.007912
587.884000	0.013956
588.079000	-0.048076
588.274000	0.000274
588.469000	-0.004287
588.664000	0.033153
588.859000	0.027713
589.055000	0.017672
589.250000	-0.027209
589.445000	-0.168493
589.640000	-0.125485
589.835000	0.135538
590.030000	0.214608
590.225000	0.221088
590.420000	0.031601
590.615000	-0.103926
590.810000	-0.054070
591.005000	-0.054291
591.200000	-0.171823
591.395000	-0.205102
591.591000	-0.064371
591.786000	0.032574
591.981000	-0.062656
592.176000	0.006770
592.371000	0.047593
592.566000	-0.039586
592.761000	0.154149
592.956000	0.108914
593.151000	0.167493
593.346000	0.060830
593.541000	0.078448
593.736000	0.074022
593.931000	-0.085634
594.126000	-0.034323
594.322000	0.003086
594.517000	-0.090415
594.712000	-0.219542
594.907000	-0.245680
595.102000	-0.095600
595.297000	0.021888
595.492000	0.108544
595.687000	-0.055371
595.882000	-0.127126
596.077000	-0.012955
596.272000	0.146822
596.467000	0.166730
596.662000	-0.009182
596.857000	-0.000665
597.053000	0.042174
597.248000	0.072608
597.443000	0.100337
597.638000	0.026076
597.833000	-0.179456
598.028000	0.030842
598.223000	0.152408
598.418000	0.029041
598.613000	-0.054336
598.808000	0.032896
599.003000	0.031011
599.198000	-0.123719
599.393000	-0.079475
599.589000	0.028234
599.784000	-0.126998
599.979000	-0.030613
600.174000	0.194534
600.369000	-0.041308
600.564000	0.032256
600.759000	0.266982
600.954000	0.362380
601.149000	0.191602
601.344000	-0.122194
601.539000	0.060633
601.734000	-0.034699
601.929000	-0.244287
602.124000	-0.161596
602.320000	0.077470
602.515000	0.334454
602.710000	0.254859
602.905000	-0.109350
603.100000	-0.117970
603.295000	-0.000685
603.490000	0.074926
603.685000	0.090653
603.880000	0.118297
604.075000	-0.016463
604.270000	-0.012547
604.465000	0.035835
604.660000	-0.161731
604.856000	-0.002666
605.051000	0.188234
605.246000	0.161394
605.441000	-0.081795
605.636000	-0.139200
605.831000	-0.007632
606.026000	-0.067073
606.221000	-0.062205
606.416000	0.110562
606.611000	0.268777
606.806000	0.278466
607.001000	0.429029
607.196000	0.194452
607.391000	0.016252
607.587000	0.242074
607.782000	0.207381
607.977000	0.033234
608.172000	0.377731
608.367000	0.395746
608.562000	0.245064
608.757000	0.197854
608.952000	0.137001
609.147000	0.522325
609.342000	0.447725
609.537000	0.264213
609.732000	0.295907
609.927000	0.245983
610.122000	0.363403
610.318000	0.706013
610.513000	0.822543
610.708000	0.664677
610.903000	0.811200
611.098000	0.881920
611.293000	0.787785
611.488000	0.808190
611.683000	0.762838
611.878000	0.715273
612.073000	0.733786
612.268000	0.679591
612.463000	0.740314
612.658000	0.700517
612.854000	0.648799
613.049000	0.530386
613.244000	0.686324
613.439000	0.758290
613.634000	0.430559
613.829000	0.632005
614.024000	0.538781
614.219000	0.487231
614.414000	0.747141
614.609000	0.526449
614.804000	0.386247
614.999000	0.421978
615.194000	0.461321
615.389000	0.527060
615.585000	0.407762
615.780000	0.591765
615.975000	0.558635
616.170000	0.597535
616.365000	0.812697
616.560000	0.912518
616.755000	0.822225
616.950000	0.760859
617.145000	0.861034
617.340000	0.687871
617.535000	0.434222
617.730000	0.700341
617.925000	0.572179
618.120000	0.539761
618.316000	0.891868
618.511000	0.801981
618.706000	0.606864
618.901000	0.652045
619.096000	0.840385
619.291000	0.803572
619.486000	0.878502
619.681000	0.571319
619.876000	0.554036
620.071000	0.735705
620.266000	1.023815
620.461000	1.159435
620.656000	1.084393
620.852000	1.032693
621.047000	0.930009
621.242000	0.846314
621.437000	1.170509
621.632000	1.284239
621.827000	1.125438
622.022000	0.884016
622.217000	1.074032
622.412000	1.269539
622.607000	1.301202
622.802000	1.065924
622.997000	1.049999
623.192000	1.184107
623.387000	1.229101
623.583000	1.004098
623.778000	1.369803
623.973000	1.394845
624.168000	1.378353
624.363000	1.456390
624.558000	1.513876
624.753000	1.226313
624.948000	1.492844
625.143000	1.513841
625.338000	1.431056
625.533000	1.380503
625.728000	1.520715
625.923000	1.753786
626.119000	1.639869
626.314000	1.377399
626.509000	1.409571
626.704000	1.521981
626.899000	1.536752
627.094000	1.528782
627.289000	1.526666
627.484000	1.597957
627.679000	1.627619
627.874000	1.667035
628.069000	2.011449
628.264000	1.928171
628.459000	1.836307
628.654000	1.825488
628.850000	1.676980
629.045000	1.794017
629.240000	1.777545
629.435000	1.779857
629.630000	1.944673
629.825000	1.951485
630.020000	2.007458
630.215000	1.824832
630.410000	1.913958
630.605000	1.927068
630.800000	1.966018
630.995000	2.132385
631.190000	2.400131
631.385000	2.190457
631.581000	2.030356
631.776000	2.106070
631.971000	1.921574
632.166000	1.977922
632.361000	1.802170
632.556000	1.925212
632.751000	2.107525
632.946000	1.943809
633.141000	1.781288
633.336000	1.767564
633.531000	1.861765
633.726000	1.833469
633.921000	1.639351
634.117000	1.468388
634.312000	1.293904
634.507000	1.356004
634.702000	1.482437
634.897000	1.497685
635.092000	1.563891
635.287000	1.579050
635.482000	1.425628
635.677000	1.475416
635.872000	1.498441
636.067000	1.546524
636.262000	1.334618
636.457000	0.969865
636.652000	0.935084
636.848000	0.902031
637.043000	0.942230
637.238000	0.908142
637.433000	0.756403
637.628000	0.825877
637.823000	0.960198
638.018000	0.969389
638.213000	0.794975
638.408000	0.707342
638.603000	0.578068
638.798000	0.525978
638.993000	0.647852
639.188000	0.611064
639.383000	0.486870
639.579000	0.791025
639.774000	0.590380
639.969000	0.412436
640.164000	0.317879
640.359000	0.321947
640.554000	0.553599
640.749000	0.538918
640.944000	0.537589
641.139000	0.507817
641.334000	0.316379
641.529000	-0.073464
641.724000	0.060523
641.919000	0.241471
642.115000	0.488760
642.310000	0.466695
642.505000	0.305701
642.700000	0.287373
642.895000	0.163252
643.090000	0.265438
643.285000	0.454826
643.480000	0.393866
643.675000	0.370143
643.870000	0.714688
644.065000	0.497429
644.260000	0.052488
644.455000	0.128981
644.650000	0.037399
644.846000	0.107605
645.041000	-0.085103
645.236000	-0.242629
645.431000	-0.181496
645.626000	-0.332437
645.821000	-0.131413
646.016000	-0.016298
646.211000	0.348822
646.406000	0.207781
646.601000	0.177978
646.796000	0.001673
646.991000	-0.232529
647.186000	-0.095049
647.381000	0.084270
647.577000	0.102435
647.772000	0.217412
647.967000	0.123351
648.162000	0.052204
648.357000	0.017252
648.552000	0.200066
648.747000	0.124936
648.942000	0.137998
649.137000	0.087635
649.332000	-0.101310
649.527000	-0.086931
649.722000	0.141100
649.917000	0.257809
650.113000	-0.023100
650.308000	-0.169513
650.503000	-0.127622
650.698000	0.058035
650.893000	-0.059911
651.088000	0.038437
651.283000	0.087164
651.478000	-0.195496
651.673000	0.026661
651.868000	-0.157525
652.063000	0.053140
652.258000	0.248485
652.453000	0.451825
652.648000	0.062338
652.844000	-0.069505
653.039000	0.018892
653.234000	-0.351131
653.429000	-0.486795
653.624000	-0.269477
653.819000	0.029566
654.014000	-0.035406
654.209000	-0.254877
654.404000	-0.105856
654.599000	-0.186019
654.794000	-0.167089
654.989000	0.077726
655.184000	-0.006273
655.380000	-0.258335
655.575000	-0.307716
655.770000	-0.298875
655.965000	-0.169320
656.160000	-0.217545
656.355000	-0.030346
656.550000	-0.057257
656.745000	-0.021067
656.940000	-0.151349
657.135000	-0.037190
657.330000	-0.042578
657.525000	-0.304710
657.720000	-0.069612
657.915000	0.059593
658.111000	-0.087069
658.306000	0.120270
658.501000	-0.057641
658.696000	-0.285660
658.891000	-0.038745
659.086000	-0.157480
659.281000	-0.094210
659.476000	-0.332570
659.671000	-0.715561
659.866000	-0.404449
660.061000	-0.056501
660.256000	0.046496
660.451000	-0.024015
660.646000	-0.215602
660.842000	-0.138324
661.037000	-0.290768
661.232000	-0.310261
661.427000	-0.161610
661.622000	-0.290125
661.817000	-0.378684
662.012000	-0.180042
662.207000	-0.293711
662.402000	-0.369879
662.597000	-0.154668
662.792000	-0.476741
662.987000	-0.469500
663.182000	-0.173946
663.378000	-0.153476
663.573000	-0.539516
663.768000	-0.570011
663.963000	-0.333959
664.158000	-0.278664
664.353000	0.070814
664.548000	0.237757
664.743000	-0.014782
664.938000	-0.326959
665.133000	-0.359291
665.328000	0.044753
665.523000	-0.003748
665.718000	-0.166193
665.913000	-0.159490
666.109000	-0.169602
666.304000	-0.013514
666.499000	-0.154125
666.694000	-0.059619
666.889000	0.261486
667.084000	-0.045805
667.279000	-0.153573
667.474000	-0.153659
667.669000	-0.089204
667.864000	-0.134175
668.059000	-0.147017
668.254000	-0.137362
668.449000	-0.281088
668.644000	-0.195406
668.840000	0.074993
669.035000	-0.220790
669.230000	-0.514193
669.425000	-0.143879
669.620000	-0.234405
669.815000	-0.324698
670.010000	-0.389647
670.205000	-0.191223
670.400000	-0.168209
670.595000	-0.130343
670.790000	-0.221611
670.985000	-0.170550
671.180000	0.073174
671.376000	-0.283677
671.571000	-0.398771
671.766000	-0.405432
671.961000	-0.405586
672.156000	-0.404654
672.351000	-0.284057
672.546000	-0.284655
672.741000	-0.153295
672.936000	-0.093076
673.131000	0.384131
673.326000	0.020685
673.521000	-0.365844
673.716000	-0.481653
673.911000	-0.632666
674.107000	-0.031497
674.302000	0.212497
674.497000	-0.072270
674.692000	-0.367721
674.887000	-0.401098
675.082000	-0.268631
675.277000	-0.052279
675.472000	-0.149124
675.667000	-0.300614
675.862000	-0.359539
676.057000	-0.275973
676.252000	-0.196993
676.447000	-0.255079
676.643000	-0.042355
676.838000	0.166046
677.033000	-0.135779
677.228000	0.151853
677.423000	0.114813
677.618000	-0.306351
677.813000	-0.480320
678.008000	-0.211590
678.203000	-0.093724
678.398000	-0.361953
678.593000	-0.165833
678.788000	-0.061168
678.983000	-0.319276
679.178000	-0.232331
679.374000	-0.319901
679.569000	-0.159316
679.764000	-0.265608
679.959000	-0.472330
680.154000	-0.467879
680.349000	-0.600297
680.544000	-0.464315
680.739000	-0.346026
680.934000	-0.481761
681.129000	-0.408362
681.324000	-0.529525
681.519000	-0.335081
681.714000	-0.338264
681.909000	-0.396023
682.105000	-0.526089
682.300000	-0.153647
682.495000	-0.025723
682.690000	0.002007
682.885000	-0.106144
683.080000	-0.324894
683.275000	-0.303356
683.470000	0.037713
683.665000	0.247775
683.860000	0.330781
684.055000	0.020734
684.250000	-0.347523
684.445000	-0.378130
684.641000	0.044224
684.836000	-0.203019
685.031000	-0.232030
685.226000	-0.211893
685.421000	0.057264
685.616000	-0.204602
685.811000	-0.285738
686.006000	0.013124
686.201000	-0.129352
686.396000	-0.531945
686.591000	-0.469313
686.786000	0.010049
686.981000	-0.123946
687.176000	-0.122649
687.372000	-0.223641
687.567000	0.085365
687.762000	-0.054122
687.957000	-0.182595
688.152000	-0.303687
688.347000	-0.180090
688.542000	-0.442373
688.737000	-0.826680
688.932000	-0.832939
689.127000	-0.385206
689.322000	-0.074270
689.517000	-0.309855
689.712000	-0.472378
689.908000	-0.348807
690.103000	-0.395275
690.298000	-0.259580
690.493000	-0.271739
690.688000	-0.531507
690.883000	-0.333973
691.078000	0.066421
691.273000	0.077967
691.468000	-0.191086
691.663000	-0.211707
691.858000	-0.079093
692.053000	-0.112251
692.248000	0.008797
692.443000	-0.057591
692.639000	-0.180783
692.834000	0.010504
693.029000	0.512544
693.224000	0.399346
693.419000	-0.217554
693.614000	-0.338965
693.809000	-0.435074
694.004000	-0.531937
694.199000	-0.493055
694.394000	-0.183727
694.589000	-0.495252
694.784000	-0.483899
694.979000	-0.243397
695.174000	-0.259296
695.370000	0.331074
695.565000	0.017503
695.760000	-0.346946
695.955000	0.065391
696.150000	0.159345
696.345000	-0.302952
696.540000	-0.078490
696.740000	-0.236335
696.940000	-0.042425
697.140000	0.060944
697.340000	-0.212204
697.539000	-0.047931
697.739000	-0.151814
697.939000	-0.122471
698.139000	-0.446868
698.339000	-0.801881
698.539000	-0.575277
698.739000	-0.594266
698.939000	-0.489998
699.138000	-0.543452
699.338000	0.152669
699.538000	0.279643
699.738000	-0.244194
699.938000	-0.339552
700.138000	-0.394844
700.338000	-0.479181
700.538000	-0.263877
700.737000	-0.203475
700.937000	-0.660969
701.137000	-0.732842
701.337000	-0.133013
701.537000	-0.042294
701.737000	-0.238294
701.937000	-0.351373
702.137000	-0.269215
702.337000	-0.384190
702.536000	-0.539179
702.736000	-0.529056
702.936000	-0.679062
703.136000	-0.116667
703.336000	-0.120246
703.536000	-0.304976
703.736000	-0.655654
703.936000	-0.585556
704.135000	-0.541870
704.335000	-0.180766
704.535000	-0.473967
704.735000	-0.652804
704.935000	-0.063017
705.135000	-0.156394
705.335000	-0.404101
705.535000	-0.136865
705.735000	-0.072726
705.934000	-0.158743
706.134000	-0.371257
706.334000	-0.425379
706.534000	-0.519757
706.734000	-0.477850
706.934000	-0.558779
707.134000	-0.514755
707.334000	-0.207852
707.533000	-0.237800
707.733000	-0.339177
707.933000	-0.443017
708.133000	-0.106513
708.333000	-0.016144
708.533000	-0.306179
708.733000	0.030297
708.933000	-0.192920
709.132000	-0.344278
709.332000	-0.328056
709.532000	-0.435443
709.732000	-0.210584
709.932000	-0.698070
710.132000	-0.703248
710.332000	-0.890023
710.532000	-0.287835
710.732000	-0.087695
710.931000	-0.335819
711.131000	-0.405048
711.331000	-0.256206
711.531000	-0.379571
711.731000	-0.357774
711.931000	-0.299495
712.131000	-0.342763
712.331000	-0.210050
712.530000	-0.247698
712.730000	-0.470668
712.930000	-0.314750
713.130000	-0.323478
713.330000	-0.472743
713.530000	-0.263772
713.730000	0.399193
713.930000	0.012070
714.129000	-0.489364
714.329000	-0.623413
714.529000	-0.279526
714.729000	0.029414
714.929000	-0.122464
715.129000	-0.459665
715.329000	-0.361789
715.529000	-0.353595
715.729000	0.205345
715.928000	-0.012975
716.128000	-0.288151
716.328000	-0.203490
716.528000	-0.283499
716.728000	-0.180416
716.928000	-0.390649
717.128000	-0.227656
717.328000	-0.249074
717.527000	-0.399744
717.727000	-0.345401
717.927000	-0.270032
718.127000	-0.401650
718.327000	-0.781757
718.527000	-0.679200
718.727000	-0.316021
718.927000	-0.419038
719.127000	-0.669953
719.326000	-0.428867
719.526000	-0.056643
719.726000	-0.234759
719.926000	-0.686263
720.126000	-0.622839
720.326000	-0.404378
720.526000	-0.497773
720.726000	-0.425591
720.925000	-0.156834
721.125000	-0.579454
721.325000	-0.313049
721.525000	-0.309802
721.725000	-0.528144
721.925000	-0.503522
722.125000	-0.459373
722.325000	0.060855
722.524000	-0.239123
722.724000	-0.753759
722.924000	-0.816236
723.124000	-0.615311
723.324000	-0.132811
723.524000	-0.023673
723.724000	-0.623135
723.924000	-0.432291
724.124000	-0.235230
724.323000	-0.135784
724.523000	-0.280077
724.723000	0.167755
724.923000	-0.005505
725.123000	-0.142264
725.323000	-0.032102
725.523000	-0.194006
725.723000	-0.433242
725.922000	-0.427584
726.122000	-0.325510
726.322000	-0.488862
726.522000	-0.495516
726.722000	0.126050
726.922000	-0.141170
727.122000	-0.224142
727.322000	0.107981
727.521000	-0.113214
727.721000	-0.426369
727.921000	-0.360058
728.121000	-0.308159
728.321000	-0.711503
728.521000	-0.521828
728.721000	-0.337148
728.921000	0.052732
729.121000	0.714627
729.320000	0.113489
729.520000	-0.335899
729.720000	-0.491385
729.920000	-0.392750
730.120000	-0.284740
730.320000	-0.266506
730.520000	-0.554906
730.720000	-0.503881
730.919000	-0.501676
731.119000	-0.176976
731.319000	-0.613544
731.519000	-0.706633
731.719000	-0.310883
731.919000	-0.459471
732.119000	-1.008180
732.319000	-0.979388
732.519000	-0.378791
732.718000	-0.616209
732.918000	-0.544106
733.118000	-0.369853
733.318000	-0.055197
733.518000	-0.373094
733.718000	-0.904888
733.918000	-0.840852
734.118000	-0.573783
734.317000	-0.325539
734.517000	-0.573165
734.717000	-0.471882
734.917000	-0.010211
735.117000	-0.045018
735.317000	-0.149371
735.517000	0.127103
735.717000	0.315528
735.916000	-0.493592
736.116000	-0.563084
736.316000	-0.366493
736.516000	-0.302642
736.716000	-0.346774
736.916000	-0.794187
737.116000	-0.567313
737.316000	0.060560
737.516000	-0.001556
737.715000	-0.070504
737.915000	-0.720271
738.115000	-0.691307
738.315000	-0.350042
738.515000	-0.642550
738.715000	-0.446383
738.915000	0.016422
739.115000	-0.465747
739.314000	-0.458573
739.514000	0.027789
739.714000	0.018800
739.914000	-0.126530
740.114000	-0.304286
740.314000	-0.069922
740.514000	0.322315
740.714000	-0.447917
740.913000	-0.872614
741.113000	-0.660478
741.313000	-0.288572
741.513000	-0.365356
741.713000	-0.280928
741.913000	-0.217316
742.113000	-0.395298
742.313000	-0.850998
742.513000	-0.482457
742.712000	-0.430421
742.912000	-0.700930
743.112000	-0.504495
743.312000	-0.861433
743.512000	-0.619181
743.712000	-0.359697
743.912000	-0.893500
744.112000	-1.052251
744.311000	-1.069299
744.511000	-0.658582
744.711000	-0.272696
744.911000	-0.658788
745.111000	-0.628616
745.311000	-0.104374
745.511000	-0.477626
745.711000	-0.681564
745.911000	-0.370828
746.110000	-0.759517
746.310000	-0.935278
746.510000	-0.666063
746.710000	-0.212077
746.910000	-0.091248
747.110000	-0.675641
747.310000	-0.939100
747.510000	-0.676962
747.709000	-0.323751
747.909000	-0.331920
748.109000	-0.031169
748.309000	-0.407499
748.509000	-0.799775
748.709000	-0.834877
748.909000	-0.535570
749.109000	-0.488263
749.308000	-0.106100
749.508000	-0.355881
749.708000	-0.408390
749.908000	-0.076606
750.108000	-0.141904
750.308000	-0.835560
750.508000	-0.064709
750.708000	-0.661668
750.908000	-1.026577
751.107000	-0.346117
751.307000	0.291588
751.507000	-0.276061
751.707000	-0.268101
751.907000	-0.355210
752.107000	-0.336002
752.307000	-0.841424
752.507000	-0.586972
752.706000	-0.614786
752.906000	0.465989
753.106000	-0.429949
753.306000	-1.041822
753.506000	-0.061481
753.706000	-0.487893
753.906000	-0.225396
754.106000	-0.059092
754.305000	-0.147791
754.505000	-0.111591
754.705000	-0.332923
754.905000	-0.378153
755.105000	-0.128346
755.305000	-0.878035
755.505000	-0.697940
755.705000	-0.293358
755.905000	-0.411192
756.104000	-0.863796
756.304000	-1.271567
756.504000	-1.482678
756.704000	-0.410278
756.904000	-0.176424
757.104000	-0.481866
757.304000	-0.509167
757.504000	-0.036997
757.703000	-0.423087
757.903000	-0.015427
758.103000	0.187944
758.303000	-0.238514
758.503000	-0.440929
758.703000	-0.603217
758.903000	-0.789427
759.103000	-0.333699
759.303000	-0.241626
759.502000	-0.444149
759.702000	-0.159413
759.902000	-0.504561
760.102000	-0.494635
760.302000	-0.465579
760.502000	-0.141178
760.702000	-0.082821
760.902000	-0.323322
761.101000	-0.733421
761.301000	-1.026680
761.501000	-0.743368
761.701000	-0.874305
761.901000	-0.547907
762.101000	-0.140884
762.301000	-0.330813
762.501000	-0.711250
762.700000	-0.788629
762.900000	-0.731888
763.100000	-0.438720
763.300000	-0.202630
763.500000	-0.449555
763.703000	-0.568143
763.905000	-0.880282
764.108000	-0.122992
764.311000	-0.462940
764.513000	-0.619248
764.716000	-0.366914
764.919000	-0.367406
765.121000	-0.936130
765.324000	-1.011686
765.527000	-0.821097
765.729000	-0.604615
765.932000	0.118074
766.135000	-0.051843
766.337000	-0.368366
766.540000	-0.569506
766.743000	-0.274577
766.945000	-0.809093
767.148000	-1.187204
767.351000	-1.027068
767.553000	-0.293484
767.756000	-0.648019
767.958000	-0.981304
768.161000	-0.535315
768.364000	-0.869167
768.566000	-1.167718
768.769000	-0.636466
768.972000	-0.215533
769.174000	-0.620225
769.377000	-1.181408
769.580000	-1.280894
769.782000	-0.501679
769.985000	-0.885981
770.188000	-1.816667
770.390000	-0.956732
770.593000	0.633461
770.796000	0.230271
770.998000	-0.344843
771.201000	-0.826105
771.404000	-0.419310
771.606000	-0.738168
771.809000	-0.614785
772.012000	-0.489507
772.214000	-1.360399
772.417000	-1.354371
772.620000	-0.309924
772.822000	-0.678307
773.025000	-0.880068
773.228000	-0.950085
773.430000	-0.870728
773.633000	-0.429484
773.836000	-0.351989
774.038000	-0.303159
774.241000	-0.484861
774.444000	-0.674980
774.646000	0.233398
774.849000	-0.203700
775.052000	-0.449198
775.254000	-0.289231
775.457000	-0.638753
775.659000	-0.596060
775.862000	-0.836326
776.065000	-0.590854
776.267000	0.042163
776.470000	0.335310
776.673000	-0.432412
776.875000	0.084051
777.078000	0.020102
777.281000	-0.854218
777.483000	-0.191823
777.686000	0.007404
777.889000	-0.256841
778.091000	-0.073405
778.294000	-1.106608
778.497000	-1.001334
778.699000	-0.772391
778.902000	-0.732819
779.105000	-0.547785
779.307000	0.358666
779.510000	-0.601937
779.713000	-0.440695
779.915000	-0.635817
780.118000	0.516841
780.321000	0.547083
780.523000	-0.496915
780.726000	-0.958947
780.929000	-1.011363
781.131000	-0.963388
781.334000	-1.397906
781.537000	-1.345306
781.739000	-0.321745
781.942000	-0.878103
782.145000	-1.394758
782.347000	-1.358796
782.550000	-1.004419
782.753000	-0.997633
782.955000	-0.875596
783.158000	-0.787471
783.361000	-0.566474
783.563000	-0.610487
783.766000	-0.801753
783.968000	0.927147
784.171000	0.893913
784.374000	-0.363664
784.576000	-0.506662
784.779000	-0.162271
784.982000	0.202896
785.184000	-0.504659
785.387000	-0.271147
785.590000	0.273068
785.792000	0.305213
785.995000	0.080661
786.198000	-0.196606
786.400000	-0.455112
786.603000	-0.407394
786.806000	-0.562744
787.008000	-0.301701
787.211000	-0.264374
787.414000	-0.962640
787.616000	-0.589898
787.819000	-0.623021
788.022000	-1.340579
788.224000	-0.597099
788.427000	-1.252598
788.630000	-0.819871
788.832000	-0.467534
789.035000	-0.931098
789.238000	-1.522754
789.440000	-1.227244
789.643000	-0.084696
789.846000	-0.733617
790.048000	-0.282734
790.251000	-0.146252
790.454000	-0.461546
790.656000	0.317832
790.859000	-0.413813
791.062000	-0.891608
791.264000	-0.193919
791.467000	-1.072337
791.669000	-1.644086
791.872000	-0.710631
792.075000	-1.187393
792.277000	-0.830252
792.480000	-0.435163
792.683000	-0.975071
792.885000	-1.224867
793.088000	-1.008978
793.291000	-1.232434
793.493000	-1.371171
793.696000	-0.489711
793.899000	-0.154312
794.101000	-0.462527
794.304000	-0.649448
794.507000	-0.363739
794.709000	-0.211681
794.912000	-0.767292
795.115000	-1.140571
795.317000	-0.821120
795.520000	-0.538117
795.723000	-0.627368
795.925000	-1.041581
796.128000	-1.381060
796.331000	-0.872696
796.533000	-1.247988
796.736000	-0.618900
796.939000	-0.478426
797.141000	-0.768194
797.344000	-0.048900
797.547000	-0.114407
797.749000	-0.268876
797.952000	-0.770399
798.155000	-1.174932
798.357000	-1.364933
798.560000	-1.059518
798.763000	-0.378094
798.965000	-0.627736
799.168000	-0.598226
799.371000	-0.469491
799.573000	-0.742594
799.776000	-1.445242
799.978000	-1.473989
800.181000	-0.731868
800.384000	0.882218
800.586000	0.200089
800.789000	-1.314930
800.992000	-1.306093
801.194000	-1.476233
801.397000	-1.440123
801.600000	-1.132564
801.802000	0.033301
802.005000	-0.187967
802.208000	-1.556873
802.410000	-0.660206
802.613000	-0.403867
802.816000	-0.590894
803.018000	-1.344742
803.221000	-1.180220
803.424000	0.184933
803.626000	-0.080548
803.829000	-0.585324
804.032000	0.190414
804.234000	0.897509
804.437000	-0.535542
804.640000	-0.568097
804.842000	-0.656233
805.045000	-1.108305
805.248000	-0.785634
805.450000	-0.664246
805.653000	-0.756357
805.856000	-0.914414
806.058000	0.114495
806.261000	-1.016074
806.464000	-1.067587
806.666000	-0.521362
806.869000	-0.774966
807.072000	-1.962443
807.274000	-2.265061
807.477000	-0.934968
807.679000	-0.646121
807.882000	-1.219650
808.085000	-0.965709
808.287000	-0.312757
808.490000	-1.227135
808.693000	-0.995081
808.895000	-0.750065
809.098000	-0.655382
809.301000	-0.661909
809.503000	-0.952111
809.706000	-0.125627
809.909000	0.233270
810.111000	0.128413
810.314000	-0.376453
810.517000	-1.097665
810.719000	-1.240346
810.922000	-0.794584
811.125000	0.279293
811.327000	0.320827
811.530000	-0.421892
811.735000	-0.906122
811.940000	-1.095396
812.146000	-0.876154
812.351000	-0.312073
812.556000	-0.591563
812.761000	-1.206257
812.967000	-0.261118
813.172000	-0.188512
813.377000	-0.556405
813.582000	0.096999
813.788000	-0.296673
813.993000	-1.366212
814.198000	-0.602968
814.403000	-1.362215
814.609000	-0.537356
814.814000	-0.512027
815.019000	0.596965
815.224000	0.462836
815.429000	-0.895127
815.635000	-0.571754
815.840000	-0.595699
816.045000	-0.415656
816.250000	-0.054916
816.456000	-1.319758
816.661000	-2.138209
816.866000	-1.641145
817.071000	-1.512385
817.277000	-2.150609
817.482000	-1.333993
817.687000	-0.618194
817.892000	-0.703180
818.097000	-0.210117
818.303000	0.309162
818.508000	0.778836
818.713000	7.725119
818.918000	3.986522
819.124000	0.339627
819.329000	-0.900946
819.534000	-0.918229
819.739000	-1.025368
819.945000	-0.956864
820.150000	-0.608261
820.355000	-0.663638
820.560000	-0.312992
820.766000	-0.422168
820.971000	-0.518739
821.176000	-2.000035
821.381000	-2.578629
821.586000	-1.552864
821.792000	0.021497
821.997000	-0.634008
822.202000	-0.960211
822.407000	-1.334908
822.613000	-1.448474
822.818000	-0.886901
823.023000	-0.604960
823.228000	-0.853024
823.434000	0.001525
823.639000	0.235828
823.844000	-0.784931
824.049000	0.088415
824.255000	0.150227
824.460000	-0.642348
824.665000	-1.092015
824.870000	-0.055381
825.075000	-0.117639
825.281000	-0.014034
825.486000	0.843402
825.691000	-1.506595
825.896000	-2.527449
826.102000	-0.932960
826.307000	-0.651031
826.512000	-0.917599
826.717000	-0.862140
826.923000	-0.816775
827.128000	-0.637491
827.333000	-1.434915
827.538000	-0.391143
827.744000	0.098698
827.949000	-1.118067
828.154000	-0.771278
828.359000	0.277132
828.564000	-0.573876
828.770000	-0.925160
828.975000	0.280309
829.180000	-0.272942
829.385000	-1.667225
829.591000	-1.271803
829.796000	-0.701962
830.001000	-0.703303
830.206000	-1.401580
830.412000	-1.160950
830.617000	-1.135874
830.822000	-0.003923
831.027000	-0.781140
831.232000	-1.393430
831.438000	-1.278638
831.643000	-0.593097
831.848000	-0.827374
832.053000	-0.727927
832.259000	-0.928585
832.464000	-2.648203
832.669000	-2.100601
832.874000	-1.655613
833.080000	-1.582292
833.285000	0.019039
833.490000	-0.269623
833.695000	-1.555750
833.901000	-1.271125
834.106000	-1.594693
834.311000	-1.197457
834.516000	-0.687077
834.721000	-1.288950
834.927000	-0.063614
835.132000	-0.617729
835.337000	1.033866
835.542000	-0.076216
835.748000	-1.681279
835.953000	-0.160475
836.158000	-0.377770
836.363000	-0.463976
836.569000	-0.327362
836.774000	-1.408848
836.979000	-1.710160
837.184000	-2.069799
837.390000	-1.717440
837.595000	-0.946291
837.800000	-0.547357
838.005000	-0.457579
838.210000	-0.793192
838.416000	-1.214039
838.621000	-1.035991
838.826000	-1.272796
839.031000	-1.122319
839.237000	-1.706501
839.442000	-2.393682
839.647000	-2.440732
839.852000	-1.822078
840.058000	-1.726609
840.263000	-1.363331
840.468000	-2.070473
840.673000	-1.127421
840.878000	-0.987183
841.084000	-1.542257
841.289000	-0.937269
841.494000	1.684758
841.699000	1.677244
841.905000	0.435013
842.110000	0.569298
842.315000	-1.359837
842.520000	-0.935807
842.726000	-1.427918
842.931000	-1.817019
843.136000	-0.704216
843.341000	-2.246536
843.547000	-1.545308
843.752000	-1.231895
843.957000	-1.938360
844.162000	-1.770941
844.367000	-1.121250
844.573000	-0.510734
844.778000	-0.297994
844.983000	-0.462784
845.188000	-0.396449
845.394000	-1.835145
845.599000	-1.685406
845.804000	-1.337241
846.009000	-0.843387
846.215000	-1.998549
846.420000	-1.370452
846.625000	-0.555757
846.830000	0.128765
847.036000	-0.931173
847.241000	-1.318543
847.446000	-0.253453
847.651000	-0.853391
847.856000	-1.846697
848.062000	-1.837744
848.267000	-0.041140
848.472000	-1.120414
848.677000	-2.401782
848.883000	-0.548632
849.088000	0.807489
849.293000	-0.784214
849.498000	-1.238315
849.704000	-0.299589
849.909000	-0.994083
850.114000	-1.798558
850.319000	-0.611709
850.524000	-0.778696
850.730000	-0.678399
850.935000	-1.041586
851.140000	-0.140800
851.345000	-0.178422
851.551000	-0.382837
851.756000	-0.157147
851.961000	-1.390683
852.166000	-1.665574
852.372000	-0.997965
852.577000	-0.882196
852.782000	-1.237622
852.987000	0.226419
853.193000	-0.517289
853.398000	-0.664842
853.603000	-1.855918
853.808000	-2.354760
854.013000	-1.422470
854.219000	-0.178034
854.424000	1.663633
854.629000	1.493711
854.834000	-1.189124
855.040000	-0.821012
855.245000	-0.172896
855.450000	-2.618817
855.655000	-3.876342
855.861000	-3.499384
856.066000	-2.450919
856.271000	-2.422426
856.476000	-0.404450
856.682000	-1.443489
856.887000	-4.013237
857.092000	-2.394009
857.297000	0.109219
857.502000	-0.392482
857.708000	-1.011559
857.913000	0.398884
858.118000	-0.405895
858.323000	-0.850119
858.529000	-0.798728
858.734000	-1.294664
858.939000	-1.113823
859.144000	-1.942943
859.350000	-2.869761
859.555000	-2.515407
859.760000	-0.668599
859.965000	0.163916
860.171000	-1.387797
860.376000	-0.297219
860.581000	-2.281918
860.786000	-4.551095
860.991000	-3.869319
861.197000	-2.603077
861.402000	-1.230175
861.607000	-1.882493
861.812000	-2.771766
862.018000	-2.966315
862.223000	-1.778578
862.428000	-0.835837
862.633000	0.055630
862.839000	-0.601551
863.044000	-1.636960
863.249000	-2.570747
863.454000	-0.498202
863.659000	-1.136694
863.865000	-2.098056
864.070000	-2.230117
864.275000	-2.623209
864.480000	-2.089431
864.686000	-3.795321
864.891000	-3.177129
865.096000	-0.869299
865.301000	-0.392698
865.507000	-0.432011
865.712000	-0.311730
865.917000	-1.226077
866.122000	-0.165228
866.328000	-3.414369
866.533000	-3.168072
866.738000	0.134324
866.943000	0.049889
867.148000	0.646528
867.354000	-1.762093
867.559000	-3.232233
867.764000	-1.464347
867.969000	-0.777814
868.175000	-2.158423
868.380000	-2.378063
868.585000	-3.220889
868.790000	-1.033428
868.996000	-1.157251
869.201000	-2.851344
869.406000	-4.002423
869.611000	-3.113469
869.817000	-2.579726
870.022000	1.875830
870.227000	-0.313241
870.432000	-2.330589
870.637000	-1.011044
870.843000	-1.556875
871.048000	-1.697683
871.253000	-0.077076
871.458000	-1.123771
871.664000	-3.206454
871.869000	-3.215214
872.074000	-2.581350
872.279000	-1.242576
872.485000	-1.867141
872.690000	-2.122928
872.895000	-2.100613
873.100000	-2.611491
873.306000	-2.705951
873.511000	-1.266399
873.716000	0.539426
873.921000	-1.779758
874.126000	-2.559914
874.332000	-1.630429
874.537000	-0.412555
874.742000	-0.613116
874.947000	-1.362688
875.153000	0.703354
875.358000	-0.795692
875.563000	-1.625504
875.768000	-3.961125
875.974000	-4.205801
876.179000	-0.694161
876.384000	-0.500429
876.589000	-2.350233
876.794000	-1.821928
877.000000	-2.642701
877.205000	-3.944100
877.410000	-1.141165
877.615000	-2.780975
877.821000	-4.876015
878.026000	-3.310872
878.231000	-3.802665
878.436000	-3.966031
878.642000	-3.056338
878.847000	-1.546847
879.052000	-0.007910
879.257000	-2.093764
879.463000	-3.386377
879.668000	-2.496884
879.873000	-0.248734
880.078000	-2.846186
880.283000	-4.541408
880.489000	-4.622054
880.694000	-4.086054
880.899000	-1.782385
881.104000	-0.336360
881.310000	1.234070
881.515000	-0.371083
881.720000	1.130009
881.925000	2.269222
882.131000	3.260662
882.336000	0.491138
882.541000	-3.160571
882.746000	-2.983448
882.952000	-3.208561
883.157000	-3.047622
883.362000	-2.979832
883.567000	-3.623030
883.772000	-4.036169
883.978000	-3.231735
884.183000	-1.310617
884.388000	-1.515880
884.593000	-3.674152
884.799000	0.582465
885.004000	0.166093
885.209000	-1.495481
885.414000	-0.755761
885.620000	-3.771023
885.825000	-0.741436
886.030000	-1.357692
886.235000	-2.570979
886.440000	-1.671559
886.646000	-4.333288
886.851000	-4.651697
887.056000	-0.319559
887.261000	-0.850683
887.467000	-3.857303
887.672000	-1.082483
887.877000	-2.298359
888.082000	-4.358250
888.288000	-4.882341
888.493000	-7.277165
888.698000	-5.230730
888.903000	-1.905633
889.109000	-3.181027
889.314000	-0.302683
889.519000	-2.001800
889.724000	0.336552
889.929000	-1.407711
890.135000	-2.239434
890.340000	-2.013984
890.545000	-3.250221
890.750000	-4.483807
890.956000	-3.444026
891.161000	-0.954617
891.366000	-2.798826
891.571000	-1.516027
891.777000	-1.924990
891.982000	-0.473701
892.187000	-0.544280
892.392000	0.510160
892.598000	-0.284735
892.803000	-0.745189
893.008000	-3.433902
893.213000	-3.438658
893.418000	-3.212263
893.624000	-3.410300
893.829000	-5.609760
894.034000	-2.366818
894.239000	-0.686610
894.445000	-3.990554
894.650000	-3.939984
894.855000	-3.293784
895.060000	-3.910051
895.266000	-3.835486
895.471000	-5.061504
895.676000	-1.166626
895.881000	-0.643783
896.087000	-2.530972
896.292000	-3.504357
896.497000	0.791150
896.702000	-1.461316
896.907000	-3.600066
897.113000	1.302679
897.318000	1.185378
897.523000	0.530660
897.728000	-1.873997
897.934000	-2.131257
898.139000	-2.401158
898.344000	-0.276870
898.549000	-1.484554
898.755000	-3.037430
898.960000	-3.266234
899.165000	-5.384128
899.370000	-1.653564
899.575000	2.195770
899.781000	-2.435390
899.986000	-3.269078
900.191000	-1.734207
900.396000	-2.789863
900.602000	-2.069242
900.807000	-2.996622
901.012000	-2.206437
901.217000	-0.385563
901.423000	-3.246606
901.628000	-4.631015
901.833000	0.067450
902.038000	0.067975
902.244000	-3.684208
902.449000	-3.246034
902.654000	-3.184099
902.859000	-1.689840
903.064000	0.550987
903.270000	0.391753
903.475000	-3.883430
903.680000	-6.426023
903.885000	-5.502493
904.091000	-4.289763
904.296000	-5.454426
904.501000	-4.504960
904.706000	-3.941521
904.912000	0.055079
905.117000	-2.023010
905.322000	-4.624629
905.527000	-4.350907
905.733000	-3.529125
905.938000	-3.347995
906.143000	-4.382244
906.348000	-6.221021
906.553000	-1.739593
906.759000	0.143293
906.964000	-1.278688
907.169000	-3.030654
907.374000	-5.617773
907.580000	-4.440096
907.785000	-3.911309
907.990000	14.681777
908.195000	9.830895
908.401000	-0.876347
908.606000	-8.100545
908.811000	-9.484324
909.016000	-2.467678
909.221000	-1.533827
909.427000	-2.999523
909.632000	-4.716078
909.837000	-4.767443
910.042000	-5.987235
910.248000	-7.806946
910.453000	-3.029524
910.658000	-3.958776
910.863000	-4.539266
911.069000	-5.540028
911.274000	-1.119193
911.479000	0.542897
911.684000	-6.510917
911.890000	-3.739510
912.095000	-3.628143
912.300000	-6.496244
912.506000	-5.389442
912.711000	-5.594643
912.917000	-2.698169
913.123000	-1.732559
913.328000	-2.339592
913.534000	-2.200573
913.740000	7.015679
913.946000	2.665612
914.151000	-4.500965
914.357000	-6.204812
914.563000	-1.700745
914.768000	-4.847401
914.974000	-6.906199
915.180000	-5.949416
915.385000	-4.546555
915.591000	-7.931339
915.797000	-2.626956
916.002000	0.797364
916.208000	-2.845250
916.414000	-5.436732
916.620000	-6.655752
916.825000	-3.194473
917.031000	-3.499931
917.237000	-8.924451
917.442000	-5.330782
917.648000	-6.036725
917.854000	-6.917630
918.059000	-0.750647
918.265000	-0.037819
918.471000	-3.078855
918.676000	-6.591830
918.882000	-8.773563
919.088000	-6.784214
919.294000	-11.590115
919.499000	-7.161232
919.705000	-1.852947
919.911000	-3.456979
920.116000	-1.824451
920.322000	-7.585844
920.528000	-5.706192
920.733000	-8.021340
920.939000	-8.223376
921.145000	-7.169226
921.350000	-6.602602
921.556000	-4.886323
921.762000	-5.119353
921.968000	-5.084762
922.173000	-6.654235
922.379000	-8.738191
922.585000	-4.773497
922.790000	-6.344852
922.996000	-7.435847
923.202000	-8.039942
923.407000	-7.857418
923.613000	-5.924952
923.819000	-3.607501
924.024000	-2.964865
924.230000	-0.590471
924.436000	-3.578329
924.642000	4.804831
924.847000	0.463244
925.053000	-6.171010
925.259000	-10.786518
925.464000	-4.898691
925.670000	-5.002477
925.876000	-7.701458
926.081000	-8.044028
926.287000	-3.093356
926.493000	-2.505486
926.698000	-4.020500
926.904000	-1.242966
927.110000	-4.719147
927.316000	-5.357069
927.521000	2.846305
927.727000	-2.554970
927.933000	-5.516868
928.138000	-4.640270
928.344000	-10.308285
928.550000	-5.878551
928.755000	-1.450040
928.961000	-6.588011
929.167000	-6.478687
929.372000	1.779929
929.578000	-0.202957
929.784000	-6.886951
929.990000	-9.677510
930.195000	-6.107095
930.401000	-4.604349
930.607000	-3.715327
930.812000	-2.591985
931.018000	-6.662620
931.224000	-13.258174
931.429000	-9.121030
931.635000	-11.786613
931.841000	-11.966491
932.046000	-7.405272
932.252000	-3.180770
932.458000	3.754842
932.664000	-1.086311
932.869000	-7.372694
933.075000	-9.599216
933.281000	-8.988753
933.486000	-1.469152
933.692000	-4.724552
933.898000	-9.184972
934.103000	-2.847618
934.309000	-6.857586
934.515000	-3.389306
934.720000	-1.695031
934.926000	1.584805
935.132000	1.512821
935.338000	-2.284561
935.543000	-10.467448
935.749000	-11.740851
935.955000	-13.089757
936.160000	-10.621636
936.366000	-1.694441
936.572000	-2.874450
936.777000	-1.521111
936.983000	0.457000
937.189000	-3.941458
937.394000	-8.621506
937.600000	0.925502
937.806000	4.485634
938.012000	-4.870702
938.217000	5.060992
938.423000	1.176252
938.629000	-8.734830
938.834000	-14.656512
939.040000	-13.022775
939.246000	-7.416450
939.451000	-11.182073
939.657000	-5.820429
939.863000	-10.626735
940.068000	-3.088821
940.274000	-7.959025
940.480000	-5.088404
940.686000	-2.631568
940.891000	-5.948749
941.097000	12.963961
941.303000	2.399727
941.508000	-6.546052
941.714000	-3.234216
941.920000	-15.545146
942.125000	-6.100301
942.331000	-3.862544
942.537000	3.034357
942.742000	1.743546
942.948000	-8.729160
943.154000	-11.663620
943.360000	-23.736874
943.565000	-10.147620
943.771000	1.795476
943.977000	5.838314
944.182000	-14.101096
944.388000	-16.143050
944.594000	-0.459550
944.799000	8.659951
945.005000	-0.141654
945.211000	3.488702
945.416000	-1.052606
945.622000	-13.697185
945.828000	-11.733300
946.034000	-2.624961
946.239000	-1.366845
946.445000	-7.720382
946.651000	-18.367015
946.856000	-15.641190
947.062000	-1.893217
947.268000	1.335093
947.473000	-14.160938
947.679000	-18.576252
947.885000	-3.602076
948.090000	-0.935458
948.296000	13.346418
948.502000	1.083554
948.708000	-9.610598
948.913000	-13.105775
949.119000	-1.300358
949.325000	-6.689344
949.530000	-21.377485
949.736000	-25.590952
949.942000	-15.071257
950.147000	-15.008893
950.353000	-12.663752
950.559000	-8.347470
950.764000	14.892278
950.970000	7.881440
951.176000	-8.815225
951.382000	-15.033673
951.587000	-2.447631
951.793000	3.892458
951.999000	3.001664
952.204000	-10.286145
952.410000	-23.034642
952.616000	-11.241000
952.821000	-7.139063
953.027000	-15.157294
953.233000	-17.436732
953.438000	-16.520989
953.644000	0.079600
953.850000	-3.903026
954.056000	-9.331393
954.261000	-9.825520
954.467000	-1.105385
954.673000	5.814500
954.878000	-4.546267
955.084000	-5.303226
955.290000	-21.103553
955.495000	-22.047909
955.701000	-17.084437
955.907000	1.299841
956.112000	-0.365017
956.318000	9.031594
956.524000	7.273845
956.730000	-8.001226
956.935000	-10.053046
957.141000	-16.156183
957.347000	-4.462718
957.552000	-8.474909
957.758000	-22.450542
957.964000	-31.198921
958.169000	3.698878
958.375000	3.911620
958.581000	-11.846117
958.786000	-24.589800
958.992000	-29.973789
959.198000	-10.318474
959.404000	-4.993253
959.609000	-13.237254
959.815000	-15.162780
960.021000	1.979301
960.226000	-4.565176
960.432000	-26.611090
960.638000	-16.881891
960.843000	-11.564933
961.049000	-12.900479
961.255000	-0.195373
961.460000	-13.315430
961.666000	-33.254227
961.872000	-19.798694
962.078000	-15.434119
962.283000	-26.210910
962.489000	-26.934254
962.695000	-18.325403
962.900000	-13.986083
963.106000	-12.092900
963.312000	-17.005832
963.517000	-19.826676
963.723000	-22.953285
963.929000	-0.287794
964.134000	6.777100
964.340000	-16.618105
964.546000	-18.870696
964.752000	-23.781843
964.957000	-30.973287
965.163000	-4.022845
965.369000	-6.125775
965.574000	-2.046450
965.780000	-7.520970
966.000000	-18.481638
966.220000	-12.664730
966.440000	-11.388911
966.661000	-0.734582
966.881000	-20.470590
967.101000	-39.542082
967.321000	-39.847773
967.541000	-11.043450
967.761000	-15.337747
967.981000	-10.816686
968.202000	-10.539169
968.422000	0.650757
968.642000	0.026661
968.862000	-1.424429
969.082000	-12.127973
969.302000	-3.463358
969.522000	-8.598237
969.743000	6.078656
969.963000	-14.465499
970.183000	-27.372640
970.403000	-24.713515
970.623000	-22.037521
970.843000	0.314716
971.063000	-2.295115
971.284000	-24.522786
971.504000	-34.243987
971.724000	-9.174612
971.944000	-25.132982
972.164000	-35.995394
972.384000	-26.164260
972.604000	-40.580808
972.825000	-47.772281
973.045000	-30.601956
973.265000	23.566998
973.485000	12.488404
973.705000	-9.021432
973.925000	-15.462651
974.145000	-47.434936
974.365000	-15.289487
974.586000	-15.269004
974.806000	-30.864567
975.026000	0.917370
975.246000	-12.904078
975.466000	-29.016874
975.686000	-15.477629
975.906000	-22.319988
976.127000	-44.547934
976.347000	-36.012428
976.567000	-6.975491
976.787000	-8.726102
977.007000	-20.327092
977.227000	-24.821106
977.447000	-26.242928
977.668000	-46.516493
977.888000	-31.088967
978.108000	-31.389060
978.328000	-18.579790
978.548000	10.549794
978.768000	14.233127
978.988000	-1.782231
979.209000	-19.645024
979.429000	-22.883933
979.649000	-4.545470
979.869000	-27.198992
980.089000	-43.992655
980.309000	-46.166787
980.529000	-54.178163
980.750000	-32.332236
980.970000	-43.063735
981.190000	-27.169300
981.410000	-25.052550
981.630000	-35.630637
981.850000	-21.610258
982.070000	-12.705530
982.291000	-43.419971
982.511000	-45.058611
982.731000	-8.003609
982.951000	-24.376766
983.171000	-28.076504
983.391000	-24.578141
983.611000	5.186632
983.832000	-24.519524
984.052000	-48.821645
984.272000	-26.670479
984.492000	-17.361858
984.712000	-28.812141
984.932000	-52.493339
985.152000	-61.575357
985.373000	-46.515969
985.593000	-20.206570
985.813000	-26.381765
986.033000	-40.946440
986.253000	0.223930
986.473000	7.747560
986.693000	-25.753399
986.914000	-35.779618
987.134000	5.701091
987.354000	-27.240084
987.574000	137.311731
987.794000	79.130277
988.014000	-41.720073
988.234000	-21.842022
988.455000	-6.616373
988.675000	-8.757405
988.895000	-24.729539
989.115000	-39.488094
989.335000	-17.510561
989.555000	-2.864460
989.775000	-45.789856
989.995000	-32.843500
990.216000	-26.030675
990.436000	-24.889505
990.656000	8.085135
990.876000	-27.005031
991.096000	-16.790331
991.316000	5.697729
991.536000	-17.283027
991.757000	-24.940463
991.977000	-70.491476
992.197000	-19.779402
992.417000	-32.734148
992.637000	-83.682577
992.857000	-87.094221
993.077000	-77.659474
993.298000	-37.429908
993.518000	-37.574879
993.738000	-91.980737
993.958000	-49.457582
994.178000	-47.335649
994.398000	-40.369864
994.618000	-85.402056
994.839000	-131.169360
995.059000	-31.002652
995.279000	39.537201
995.499000	-7.119629
995.719000	-15.851615
995.939000	-35.195160
996.159000	-30.437838
996.380000	-18.840421
996.600000	-66.687473
996.820000	-24.987254
997.040000	12.134083
997.260000	-54.015969
997.480000	-38.418390
997.700000	-101.150094
997.921000	-58.326326
998.141000	32.039851
998.361000	-3.912624
998.581000	-46.957407
998.801000	-81.725934
999.021000	-57.329291
999.241000	-29.817681
999.462000	-56.415330
999.682000	-105.321501
999.902000	-64.788495
1000.122000	-84.915176
1000.342000	-138.464197
1000.562000	-64.962500
1000.782000	-61.782333
1001.003000	-1030.514732
